File: XRD/07-10-2025 Dep 6/XY Data/BTO_fwhm_results.csv
X Coordinates,Y Coordinates,FWHM
-39.126,-8.316,0.363809
-39.126,8.316,0.359412
-32.361,-23.511,0.358692
-32.361,23.511,0.358202
-29.344,-6.237,0.357936
-29.344,6.237,0.361661
-24.271,-17.634,0.356811
-24.271,17.634,0.343364
-20.0,-34.641,0.354419
-20.0,34.641,0.375451
-19.563,-4.158,0.348399
-19.563,4.158,0.350694
-16.18,-11.756,0.355525
-16.18,11.756,0.353843
-15.0,-25.981,0.3625
-15.0,25.981,0.363048
-10.0,-17.321,0.36849
-10.0,17.321,0.386936
-9.781,-2.079,0.369533
-9.781,2.079,0.362096
-8.09,-5.878,0.349606
-8.09,5.878,0.367245
-5.0,-8.66,0.362631
-5.0,8.66,0.383099
-4.181,-39.781,0.36795
-4.181,39.781,0.365426
-3.136,-29.836,0.359378
-3.136,29.836,0.369551
-2.091,-19.89,0.374325
-2.091,19.89,0.372293
-1.045,-9.945,0.371718
-1.045,9.945,0.36477
0.0,0.0,0.374895
3.09,-9.511,0.367614
3.09,9.511,0.383308
6.18,-19.021,0.396162
6.18,19.021,0.393374
6.691,-7.431,0.38266
6.691,7.431,0.393364
9.135,-4.067,0.387347
9.135,4.067,0.382872
9.271,-28.532,0.391626
9.271,28.532,0.401775
10.0,0.0,0.392636
12.361,-38.042,0.396391
12.361,38.042,0.400977
13.383,-14.863,0.390664
13.383,14.863,0.410931
18.271,-8.135,0.394475
18.271,8.135,0.408146
20.0,0.0,0.399107
20.074,-22.294,0.394939
20.074,22.294,0.41732
26.765,-29.726,0.398514
26.765,29.726,0.401469
27.406,-12.202,0.419526
27.406,12.202,0.401709
30.0,0.0,0.425187
36.542,-16.269,0.39823
36.542,16.269,0.425609
40.0,0.0,0.42945