File: XRD/07-10-2025 Dep 6/XY Data/BTO_Mapping_Theta2Theta_07-10-2025_001_10_6-691_7-431.xy
20.00000 479.703
20.17000 474.176
20.34000 453.995
20.51000 483.231
20.68000 462.074
20.85000 442.815
21.02000 447.120
21.19000 448.715
21.36000 449.913
21.53000 447.150
21.70000 455.506
21.87000 480.526
22.04000 484.676
22.21000 489.217
22.38000 473.319
22.55000 454.384
22.72000 461.902
22.89000 451.207
23.06000 447.196
23.23000 430.494
23.40000 410.903
23.57000 428.501
23.74000 457.726
23.91000 464.910
24.08000 481.819
24.25000 459.345
24.42000 434.117
24.59000 412.665
24.76000 412.194
24.93000 404.667
25.10000 390.100
25.27000 399.867
25.44000 403.228
25.61000 386.781
25.78000 387.269
25.95000 392.394
26.12000 376.356
26.29000 382.616
26.46000 371.429
26.63000 375.319
26.80000 373.764
26.97000 365.438
27.14000 370.676
27.31000 380.512
27.48000 359.856
27.65000 377.516
27.82000 389.905
27.99000 352.654
28.16000 364.939
28.33000 355.929
28.50000 348.940
28.67000 354.523
28.84000 361.924
29.01000 355.616
29.18000 357.814
29.35000 353.123
29.52000 340.045
29.69000 353.999
29.86000 369.751
30.03000 380.026
30.20000 377.879
30.37000 369.398
30.54000 359.674
30.71000 369.889
30.88000 384.439
31.05000 492.403
31.22000 850.991
31.39000 1196.015
31.56000 861.907
31.73000 497.864
31.90000 382.609
32.07000 347.503
32.24000 340.902
32.41000 347.878
32.58000 323.323
32.75000 309.388
32.92000 497.907
33.09000 423.416
33.26000 287.540
33.43000 299.555
33.60000 288.576
33.77000 292.585
33.94000 325.429
34.11000 312.977
34.28000 335.537
34.45000 338.504
34.62000 301.921
34.79000 283.487
34.96000 271.896
35.13000 280.656
35.30000 271.392
35.47000 265.335
35.64000 252.665
35.81000 264.663
35.98000 264.769
36.15000 265.211
36.32000 253.839
36.49000 244.525
36.66000 255.662
36.83000 244.523
37.00000 258.798
37.17000 255.762
37.34000 247.003
37.51000 246.880
37.68000 247.496
37.85000 252.935
38.02000 237.204
38.19000 239.050
38.36000 273.385
38.53000 464.729
38.70000 823.073
38.87000 590.567
39.04000 299.637
39.21000 246.840
39.38000 223.074
39.55000 230.386
39.72000 224.319
39.89000 227.599
40.06000 219.646
40.23000 220.903
40.40000 217.616
40.57000 213.232
40.74000 206.952
40.91000 202.261
41.08000 198.286
41.25000 200.935
41.42000 207.524
41.59000 214.466
41.76000 212.746
41.93000 211.915
42.10000 216.363
42.27000 212.856
42.44000 213.162
42.61000 205.476
42.78000 212.240
42.95000 200.613
43.12000 187.897
43.29000 182.296
43.46000 196.323
43.63000 199.779
43.80000 178.396
43.97000 183.838
44.14000 188.588
44.31000 197.107
44.48000 201.844
44.65000 213.157
44.82000 221.456
44.99000 223.821
45.16000 211.612
45.33000 216.223
45.50000 192.062
45.67000 182.283
45.84000 177.198
46.01000 180.525
46.18000 166.417
46.35000 177.687
46.52000 172.043
46.69000 167.645
46.86000 163.534
47.03000 181.168
47.20000 163.875
47.37000 171.121
47.54000 156.022
47.71000 164.138
47.88000 161.055
48.05000 155.641
48.22000 152.575
48.39000 152.545
48.56000 155.015
48.73000 169.370
48.90000 156.255
49.07000 152.276
49.24000 157.611
49.41000 167.019
49.58000 149.448
49.75000 153.496
49.92000 144.246
50.09000 151.890
50.26000 150.960
50.43000 150.642
50.60000 157.112
50.77000 164.527
50.94000 153.306
51.11000 145.763
51.28000 143.793
51.45000 143.104
51.62000 130.779
51.79000 148.833
51.96000 133.199
52.13000 137.469
52.30000 139.901
52.47000 142.150
52.64000 138.648
52.81000 132.406
52.98000 138.208
53.15000 148.189
53.32000 147.562
53.49000 150.463
53.66000 155.386
53.83000 136.092
54.00000 135.691
54.17000 138.424
54.34000 137.156
54.51000 132.656
54.68000 121.998
54.85000 137.082
55.02000 141.686
55.19000 151.596
55.36000 162.455
55.53000 183.492
55.70000 277.955
55.87000 433.133
56.04000 428.616
56.21000 288.557
56.38000 191.660
56.55000 155.590
56.72000 133.394
56.89000 136.868
57.06000 120.712
57.23000 126.994
57.40000 129.171
57.57000 123.141
57.74000 123.371
57.91000 117.494
58.08000 122.482
58.25000 129.594
58.42000 118.356
58.59000 118.553
58.76000 123.765
58.93000 123.391
59.10000 121.465
59.27000 116.276
59.44000 116.815
59.61000 117.106
59.78000 118.798
59.95000 115.979
60.12000 116.086
60.29000 126.288
60.46000 121.774
60.63000 115.263
60.80000 112.787
60.97000 125.568
61.14000 130.117
61.31000 124.319
61.48000 135.742
61.65000 290.581
61.82000 202.425
61.99000 127.855
62.16000 123.504
62.33000 125.743
62.50000 123.380
62.67000 122.904
62.84000 131.039
63.01000 134.804
63.18000 124.493
63.35000 134.977
63.52000 132.411
63.69000 142.851
63.86000 124.533
64.03000 144.233
64.20000 151.678
64.37000 154.078
64.54000 165.783
64.71000 168.008
64.88000 175.297
65.05000 196.862
65.22000 224.763
65.39000 250.046
65.56000 324.583
65.73000 979.409
65.90000 1912.202
66.07000 506.772
66.24000 384.946
66.41000 589.280
66.58000 410.334
66.75000 349.489
66.92000 356.751
67.09000 380.357
67.26000 394.451
67.43000 412.030
67.60000 437.115
67.77000 479.571
67.94000 497.269
68.11000 513.091
68.28000 547.568
68.45000 657.628
68.62000 881.763
68.79000 1553.754
68.96000 8912.277
69.13000 43768.152
69.30000 24018.361
69.47000 5915.258
69.64000 933.728
69.81000 630.097
69.98000 498.787
70.00000 493.652