File: XRD/07-10-2025 Dep 6/XY Data/BTO_Mapping_Theta2Theta_07-10-2025_001_60_27-406_-12-202.xy
20.00000 472.431
20.17000 477.329
20.34000 466.912
20.51000 452.601
20.68000 448.832
20.85000 453.884
21.02000 462.471
21.19000 468.834
21.36000 459.271
21.53000 489.010
21.70000 462.490
21.87000 476.521
22.04000 484.992
22.21000 492.895
22.38000 472.950
22.55000 449.265
22.72000 456.724
22.89000 427.895
23.06000 441.016
23.23000 442.992
23.40000 424.379
23.57000 442.253
23.74000 468.075
23.91000 482.405
24.08000 502.168
24.25000 454.617
24.42000 426.730
24.59000 428.403
24.76000 420.556
24.93000 411.949
25.10000 406.742
25.27000 408.764
25.44000 415.109
25.61000 402.086
25.78000 388.707
25.95000 404.627
26.12000 392.704
26.29000 378.067
26.46000 373.333
26.63000 378.036
26.80000 378.553
26.97000 387.477
27.14000 361.602
27.31000 386.556
27.48000 364.538
27.65000 369.551
27.82000 376.160
27.99000 358.856
28.16000 353.967
28.33000 379.835
28.50000 353.519
28.67000 367.561
28.84000 359.847
29.01000 349.578
29.18000 374.320
29.35000 362.939
29.52000 345.851
29.69000 364.212
29.86000 365.999
30.03000 375.297
30.20000 356.223
30.37000 367.125
30.54000 390.611
30.71000 365.067
30.88000 424.070
31.05000 493.489
31.22000 774.368
31.39000 965.710
31.56000 712.203
31.73000 470.394
31.90000 372.853
32.07000 372.820
32.24000 339.346
32.41000 338.407
32.58000 323.102
32.75000 335.620
32.92000 503.327
33.09000 439.663
33.26000 305.490
33.43000 302.407
33.60000 287.586
33.77000 299.227
33.94000 306.863
34.11000 314.374
34.28000 310.596
34.45000 283.107
34.62000 297.330
34.79000 283.963
34.96000 276.914
35.13000 273.838
35.30000 281.131
35.47000 271.182
35.64000 260.607
35.81000 249.374
35.98000 266.998
36.15000 257.352
36.32000 247.488
36.49000 249.647
36.66000 265.968
36.83000 268.344
37.00000 259.095
37.17000 252.692
37.34000 256.204
37.51000 248.611
37.68000 250.236
37.85000 268.924
38.02000 264.893
38.19000 263.850
38.36000 298.682
38.53000 446.002
38.70000 654.869
38.87000 463.857
39.04000 284.963
39.21000 231.307
39.38000 241.306
39.55000 245.889
39.72000 224.038
39.89000 244.682
40.06000 218.787
40.23000 221.524
40.40000 223.851
40.57000 226.183
40.74000 218.743
40.91000 218.927
41.08000 224.620
41.25000 208.468
41.42000 208.301
41.59000 203.045
41.76000 199.614
41.93000 208.435
42.10000 215.737
42.27000 218.055
42.44000 214.286
42.61000 225.654
42.78000 198.827
42.95000 195.982
43.12000 200.307
43.29000 194.287
43.46000 195.001
43.63000 195.403
43.80000 186.621
43.97000 203.459
44.14000 182.502
44.31000 201.121
44.48000 214.495
44.65000 220.868
44.82000 211.636
44.99000 215.612
45.16000 219.437
45.33000 210.465
45.50000 205.452
45.67000 185.100
45.84000 185.446
46.01000 184.522
46.18000 185.556
46.35000 174.479
46.52000 182.921
46.69000 174.538
46.86000 169.371
47.03000 171.266
47.20000 166.806
47.37000 175.680
47.54000 148.738
47.71000 154.284
47.88000 161.395
48.05000 153.082
48.22000 161.577
48.39000 159.251
48.56000 155.682
48.73000 151.007
48.90000 168.192
49.07000 159.124
49.24000 150.010
49.41000 160.129
49.58000 151.527
49.75000 157.815
49.92000 144.053
50.09000 158.457
50.26000 161.685
50.43000 161.991
50.60000 163.874
50.77000 168.580
50.94000 157.742
51.11000 158.476
51.28000 144.432
51.45000 152.305
51.62000 153.157
51.79000 141.121
51.96000 137.803
52.13000 134.575
52.30000 144.756
52.47000 139.282
52.64000 138.474
52.81000 134.459
52.98000 142.689
53.15000 143.113
53.32000 146.645
53.49000 131.868
53.66000 146.764
53.83000 141.566
54.00000 136.011
54.17000 133.671
54.34000 146.146
54.51000 137.580
54.68000 141.426
54.85000 131.641
55.02000 146.336
55.19000 149.878
55.36000 142.057
55.53000 186.079
55.70000 238.276
55.87000 291.340
56.04000 290.828
56.21000 230.649
56.38000 179.351
56.55000 154.903
56.72000 142.235
56.89000 127.582
57.06000 132.896
57.23000 123.631
57.40000 118.472
57.57000 123.404
57.74000 123.881
57.91000 118.113
58.08000 128.044
58.25000 125.495
58.42000 122.989
58.59000 113.735
58.76000 115.588
58.93000 109.899
59.10000 119.602
59.27000 106.375
59.44000 111.877
59.61000 119.564
59.78000 123.943
59.95000 112.243
60.12000 116.879
60.29000 124.676
60.46000 122.558
60.63000 113.391
60.80000 120.297
60.97000 113.865
61.14000 125.953
61.31000 116.601
61.48000 141.699
61.65000 279.147
61.82000 201.213
61.99000 134.844
62.16000 124.933
62.33000 126.126
62.50000 127.104
62.67000 127.964
62.84000 134.620
63.01000 132.564
63.18000 136.605
63.35000 126.119
63.52000 143.288
63.69000 144.307
63.86000 143.735
64.03000 143.547
64.20000 147.765
64.37000 164.421
64.54000 154.129
64.71000 173.701
64.88000 196.299
65.05000 194.966
65.22000 229.294
65.39000 254.287
65.56000 317.245
65.73000 946.411
65.90000 1977.601
66.07000 523.669
66.24000 392.922
66.41000 639.420
66.58000 436.319
66.75000 361.446
66.92000 389.176
67.09000 395.660
67.26000 389.128
67.43000 418.008
67.60000 446.726
67.77000 491.227
67.94000 494.432
68.11000 538.406
68.28000 569.790
68.45000 657.149
68.62000 892.115
68.79000 1611.101
68.96000 8491.689
69.13000 44358.801
69.30000 24842.158
69.47000 6410.021
69.64000 936.784
69.81000 614.102
69.98000 517.840
70.00000 506.807