File: XRD/07-10-2025 Dep 6/XY Data/BTO_Mapping_Theta2Theta_07-10-2025_001_61_36-542_-16-269.xy
20.00000 473.026
20.17000 493.962
20.34000 488.633
20.51000 466.985
20.68000 445.170
20.85000 466.389
21.02000 461.362
21.19000 471.014
21.36000 470.048
21.53000 443.517
21.70000 472.820
21.87000 472.412
22.04000 489.636
22.21000 482.432
22.38000 465.198
22.55000 434.346
22.72000 437.786
22.89000 438.295
23.06000 420.113
23.23000 433.896
23.40000 426.283
23.57000 441.756
23.74000 451.414
23.91000 490.382
24.08000 505.013
24.25000 452.666
24.42000 412.940
24.59000 412.832
24.76000 414.935
24.93000 413.970
25.10000 401.767
25.27000 406.326
25.44000 405.352
25.61000 402.428
25.78000 394.640
25.95000 379.855
26.12000 382.330
26.29000 379.594
26.46000 399.604
26.63000 384.461
26.80000 386.623
26.97000 385.601
27.14000 387.887
27.31000 369.888
27.48000 369.862
27.65000 400.593
27.82000 383.560
27.99000 382.135
28.16000 369.385
28.33000 354.983
28.50000 367.617
28.67000 366.479
28.84000 383.380
29.01000 364.103
29.18000 363.790
29.35000 343.141
29.52000 359.122
29.69000 354.698
29.86000 371.107
30.03000 374.560
30.20000 379.228
30.37000 381.968
30.54000 375.819
30.71000 389.671
30.88000 415.505
31.05000 501.860
31.22000 748.906
31.39000 924.907
31.56000 702.522
31.73000 478.296
31.90000 400.714
32.07000 380.024
32.24000 345.133
32.41000 342.101
32.58000 309.468
32.75000 315.125
32.92000 514.822
33.09000 418.025
33.26000 298.703
33.43000 303.791
33.60000 288.085
33.77000 291.482
33.94000 318.012
34.11000 298.018
34.28000 305.553
34.45000 309.984
34.62000 285.244
34.79000 262.339
34.96000 265.806
35.13000 269.157
35.30000 267.911
35.47000 267.749
35.64000 253.585
35.81000 264.512
35.98000 258.254
36.15000 261.363
36.32000 258.553
36.49000 258.860
36.66000 261.217
36.83000 265.239
37.00000 251.813
37.17000 262.226
37.34000 263.278
37.51000 250.228
37.68000 259.507
37.85000 236.832
38.02000 251.233
38.19000 275.425
38.36000 306.759
38.53000 422.300
38.70000 553.376
38.87000 413.399
39.04000 268.388
39.21000 236.191
39.38000 231.537
39.55000 233.255
39.72000 240.691
39.89000 220.680
40.06000 226.574
40.23000 235.765
40.40000 215.304
40.57000 222.036
40.74000 209.719
40.91000 219.706
41.08000 215.467
41.25000 211.795
41.42000 204.939
41.59000 213.784
41.76000 214.644
41.93000 204.618
42.10000 213.507
42.27000 217.421
42.44000 211.147
42.61000 199.994
42.78000 213.662
42.95000 192.781
43.12000 202.948
43.29000 202.186
43.46000 187.674
43.63000 192.283
43.80000 193.658
43.97000 183.555
44.14000 182.375
44.31000 189.912
44.48000 191.181
44.65000 210.992
44.82000 213.836
44.99000 217.749
45.16000 221.452
45.33000 227.892
45.50000 207.349
45.67000 183.381
45.84000 192.078
46.01000 173.092
46.18000 177.056
46.35000 168.888
46.52000 167.527
46.69000 167.157
46.86000 166.796
47.03000 165.858
47.20000 169.033
47.37000 173.159
47.54000 175.733
47.71000 164.084
47.88000 161.303
48.05000 162.796
48.22000 162.018
48.39000 166.640
48.56000 155.333
48.73000 152.370
48.90000 140.307
49.07000 155.668
49.24000 156.773
49.41000 159.999
49.58000 150.475
49.75000 155.660
49.92000 156.912
50.09000 147.114
50.26000 155.277
50.43000 154.801
50.60000 166.941
50.77000 161.950
50.94000 159.208
51.11000 160.804
51.28000 143.147
51.45000 146.933
51.62000 148.719
51.79000 150.598
51.96000 135.372
52.13000 141.586
52.30000 138.962
52.47000 148.602
52.64000 135.257
52.81000 143.039
52.98000 142.720
53.15000 140.113
53.32000 141.336
53.49000 135.512
53.66000 138.204
53.83000 140.247
54.00000 132.717
54.17000 142.825
54.34000 132.758
54.51000 144.946
54.68000 145.253
54.85000 151.959
55.02000 149.173
55.19000 150.023
55.36000 158.115
55.53000 172.204
55.70000 212.745
55.87000 235.999
56.04000 237.216
56.21000 209.294
56.38000 162.044
56.55000 151.099
56.72000 135.061
56.89000 128.954
57.06000 130.466
57.23000 120.871
57.40000 137.567
57.57000 124.401
57.74000 129.460
57.91000 115.323
58.08000 122.970
58.25000 126.665
58.42000 123.172
58.59000 120.817
58.76000 114.295
58.93000 133.865
59.10000 129.747
59.27000 125.580
59.44000 116.362
59.61000 108.323
59.78000 110.336
59.95000 116.341
60.12000 125.876
60.29000 112.896
60.46000 110.458
60.63000 121.787
60.80000 115.942
60.97000 122.238
61.14000 126.907
61.31000 125.457
61.48000 136.066
61.65000 290.461
61.82000 213.858
61.99000 131.235
62.16000 129.773
62.33000 116.090
62.50000 131.409
62.67000 130.408
62.84000 127.558
63.01000 137.793
63.18000 130.311
63.35000 137.095
63.52000 141.314
63.69000 140.274
63.86000 147.664
64.03000 149.804
64.20000 145.667
64.37000 155.930
64.54000 161.083
64.71000 173.857
64.88000 173.842
65.05000 193.171
65.22000 229.886
65.39000 245.369
65.56000 306.201
65.73000 961.402
65.90000 2005.929
66.07000 537.803
66.24000 406.018
66.41000 631.652
66.58000 446.841
66.75000 355.859
66.92000 378.776
67.09000 387.996
67.26000 391.585
67.43000 439.335
67.60000 444.488
67.77000 480.256
67.94000 493.098
68.11000 530.877
68.28000 583.680
68.45000 646.800
68.62000 895.893
68.79000 1602.597
68.96000 8310.481
69.13000 45003.160
69.30000 25446.119
69.47000 6713.018
69.64000 963.665
69.81000 643.080
69.98000 519.274
70.00000 503.647