File: XRD/07-10-2025 Dep 6/XY Data/BTO_Mapping_Theta2Theta_07-10-2025_001_39_-16-180_-11-756.xy
20.00000 479.381
20.17000 472.042
20.34000 454.300
20.51000 475.099
20.68000 474.657
20.85000 465.114
21.02000 468.475
21.19000 461.527
21.36000 452.609
21.53000 458.741
21.70000 472.844
21.87000 524.772
22.04000 587.445
22.21000 531.484
22.38000 463.575
22.55000 454.345
22.72000 443.177
22.89000 448.717
23.06000 449.556
23.23000 406.096
23.40000 436.192
23.57000 414.432
23.74000 420.947
23.91000 435.513
24.08000 434.113
24.25000 414.640
24.42000 409.082
24.59000 382.733
24.76000 423.149
24.93000 407.672
25.10000 403.080
25.27000 392.142
25.44000 378.089
25.61000 377.741
25.78000 407.515
25.95000 407.086
26.12000 393.241
26.29000 384.593
26.46000 378.170
26.63000 386.188
26.80000 367.815
26.97000 373.120
27.14000 386.608
27.31000 370.793
27.48000 364.287
27.65000 377.617
27.82000 372.016
27.99000 363.988
28.16000 367.106
28.33000 359.675
28.50000 362.000
28.67000 341.913
28.84000 351.404
29.01000 359.556
29.18000 342.361
29.35000 352.114
29.52000 351.532
29.69000 351.869
29.86000 390.712
30.03000 409.255
30.20000 392.277
30.37000 380.752
30.54000 357.150
30.71000 367.978
30.88000 409.516
31.05000 695.236
31.22000 1641.225
31.39000 2265.951
31.56000 1087.652
31.73000 474.409
31.90000 361.009
32.07000 343.800
32.24000 319.505
32.41000 319.015
32.58000 327.233
32.75000 315.030
32.92000 508.576
33.09000 414.670
33.26000 294.469
33.43000 292.874
33.60000 298.078
33.77000 287.937
33.94000 303.102
34.11000 303.661
34.28000 295.806
34.45000 302.484
34.62000 300.083
34.79000 282.647
34.96000 277.927
35.13000 268.486
35.30000 249.723
35.47000 251.852
35.64000 263.365
35.81000 259.516
35.98000 252.604
36.15000 253.867
36.32000 260.332
36.49000 241.808
36.66000 256.065
36.83000 271.293
37.00000 267.584
37.17000 267.000
37.34000 245.973
37.51000 256.980
37.68000 256.722
37.85000 250.086
38.02000 250.220
38.19000 265.182
38.36000 355.679
38.53000 664.405
38.70000 935.907
38.87000 632.689
39.04000 309.155
39.21000 253.987
39.38000 239.111
39.55000 230.279
39.72000 231.137
39.89000 227.391
40.06000 234.961
40.23000 226.610
40.40000 216.613
40.57000 206.920
40.74000 215.736
40.91000 204.951
41.08000 196.407
41.25000 205.707
41.42000 198.591
41.59000 208.172
41.76000 201.225
41.93000 200.815
42.10000 203.467
42.27000 189.260
42.44000 211.648
42.61000 211.537
42.78000 228.110
42.95000 191.386
43.12000 186.212
43.29000 196.201
43.46000 194.696
43.63000 186.599
43.80000 190.442
43.97000 192.230
44.14000 190.522
44.31000 190.534
44.48000 208.812
44.65000 215.105
44.82000 258.372
44.99000 285.429
45.16000 284.525
45.33000 236.807
45.50000 215.785
45.67000 198.738
45.84000 175.965
46.01000 165.833
46.18000 172.354
46.35000 175.128
46.52000 163.508
46.69000 179.251
46.86000 175.486
47.03000 162.362
47.20000 171.590
47.37000 167.380
47.54000 154.918
47.71000 150.583
47.88000 159.294
48.05000 155.984
48.22000 163.911
48.39000 145.965
48.56000 165.640
48.73000 154.369
48.90000 162.602
49.07000 160.576
49.24000 145.600
49.41000 147.311
49.58000 144.328
49.75000 148.982
49.92000 148.298
50.09000 156.688
50.26000 170.893
50.43000 183.957
50.60000 202.196
50.77000 195.804
50.94000 167.808
51.11000 153.645
51.28000 148.788
51.45000 140.252
51.62000 136.705
51.79000 137.839
51.96000 132.946
52.13000 142.816
52.30000 134.242
52.47000 140.801
52.64000 141.092
52.81000 142.069
52.98000 138.677
53.15000 154.030
53.32000 167.915
53.49000 153.472
53.66000 131.544
53.83000 138.999
54.00000 139.114
54.17000 126.559
54.34000 132.810
54.51000 140.067
54.68000 133.008
54.85000 139.224
55.02000 150.068
55.19000 153.354
55.36000 184.119
55.53000 272.196
55.70000 440.230
55.87000 591.261
56.04000 472.149
56.21000 272.748
56.38000 174.539
56.55000 136.566
56.72000 143.439
56.89000 127.052
57.06000 125.235
57.23000 122.162
57.40000 125.325
57.57000 123.499
57.74000 129.333
57.91000 120.527
58.08000 123.846
58.25000 130.480
58.42000 112.771
58.59000 123.390
58.76000 120.780
58.93000 128.062
59.10000 122.945
59.27000 112.005
59.44000 113.186
59.61000 117.780
59.78000 112.231
59.95000 114.552
60.12000 115.827
60.29000 103.037
60.46000 109.511
60.63000 110.076
60.80000 109.095
60.97000 124.796
61.14000 123.876
61.31000 123.712
61.48000 141.561
61.65000 297.723
61.82000 184.535
61.99000 124.875
62.16000 131.094
62.33000 121.930
62.50000 130.593
62.67000 125.911
62.84000 129.242
63.01000 132.699
63.18000 127.232
63.35000 131.671
63.52000 132.014
63.69000 147.911
63.86000 152.613
64.03000 145.459
64.20000 142.003
64.37000 155.144
64.54000 165.042
64.71000 164.153
64.88000 195.214
65.05000 211.217
65.22000 256.807
65.39000 319.004
65.56000 402.404
65.73000 1222.072
65.90000 2168.447
66.07000 527.523
66.24000 425.536
66.41000 669.995
66.58000 413.894
66.75000 369.454
66.92000 375.008
67.09000 388.247
67.26000 400.220
67.43000 418.901
67.60000 445.258
67.77000 470.167
67.94000 523.177
68.11000 537.474
68.28000 608.635
68.45000 654.129
68.62000 941.639
68.79000 1724.996
68.96000 11487.021
69.13000 49294.258
69.30000 26286.537
69.47000 6179.661
69.64000 954.773
69.81000 617.431
69.98000 524.560
70.00000 508.747