File: XRD/07-10-2025 Dep 6/XY Data/BTO_Mapping_Theta2Theta_07-10-2025_001_40_-24-271_-17-634.xy
20.00000 488.157
20.17000 466.710
20.34000 463.743
20.51000 461.163
20.68000 463.095
20.85000 473.087
21.02000 463.299
21.19000 483.960
21.36000 463.099
21.53000 451.797
21.70000 513.536
21.87000 613.904
22.04000 689.079
22.21000 544.772
22.38000 475.581
22.55000 454.508
22.72000 444.561
22.89000 453.078
23.06000 434.798
23.23000 419.050
23.40000 417.409
23.57000 410.680
23.74000 421.391
23.91000 431.242
24.08000 428.807
24.25000 416.102
24.42000 409.455
24.59000 394.775
24.76000 411.672
24.93000 404.433
25.10000 399.800
25.27000 396.667
25.44000 391.498
25.61000 392.971
25.78000 390.994
25.95000 394.383
26.12000 368.368
26.29000 383.951
26.46000 364.066
26.63000 363.998
26.80000 370.644
26.97000 376.902
27.14000 391.120
27.31000 364.178
27.48000 371.730
27.65000 337.478
27.82000 368.259
27.99000 359.745
28.16000 370.500
28.33000 369.879
28.50000 359.498
28.67000 359.048
28.84000 366.770
29.01000 337.462
29.18000 360.818
29.35000 356.131
29.52000 349.820
29.69000 369.191
29.86000 439.972
30.03000 452.117
30.20000 423.531
30.37000 380.493
30.54000 407.280
30.71000 397.661
30.88000 472.399
31.05000 861.057
31.22000 2233.248
31.39000 2877.926
31.56000 1336.296
31.73000 513.154
31.90000 368.005
32.07000 363.533
32.24000 323.210
32.41000 308.599
32.58000 325.377
32.75000 321.506
32.92000 551.896
33.09000 417.106
33.26000 289.861
33.43000 288.326
33.60000 286.533
33.77000 283.865
33.94000 297.026
34.11000 304.194
34.28000 276.899
34.45000 264.780
34.62000 287.628
34.79000 276.816
34.96000 257.361
35.13000 274.209
35.30000 270.826
35.47000 276.728
35.64000 251.689
35.81000 250.249
35.98000 260.625
36.15000 249.844
36.32000 249.413
36.49000 248.310
36.66000 244.393
36.83000 265.122
37.00000 261.139
37.17000 243.083
37.34000 258.400
37.51000 248.508
37.68000 247.931
37.85000 248.833
38.02000 251.036
38.19000 277.668
38.36000 335.173
38.53000 530.924
38.70000 644.452
38.87000 429.105
39.04000 284.536
39.21000 234.242
39.38000 231.044
39.55000 228.799
39.72000 241.352
39.89000 223.971
40.06000 227.635
40.23000 222.265
40.40000 213.652
40.57000 217.871
40.74000 207.857
40.91000 207.567
41.08000 201.919
41.25000 218.076
41.42000 208.002
41.59000 208.190
41.76000 207.557
41.93000 197.954
42.10000 194.640
42.27000 199.217
42.44000 196.495
42.61000 190.112
42.78000 199.929
42.95000 209.375
43.12000 201.697
43.29000 204.282
43.46000 189.509
43.63000 198.282
43.80000 208.090
43.97000 193.046
44.14000 195.549
44.31000 195.903
44.48000 213.791
44.65000 252.732
44.82000 330.069
44.99000 382.895
45.16000 322.151
45.33000 262.494
45.50000 222.749
45.67000 211.493
45.84000 194.637
46.01000 178.935
46.18000 179.279
46.35000 174.730
46.52000 163.306
46.69000 164.474
46.86000 187.525
47.03000 162.390
47.20000 155.518
47.37000 156.963
47.54000 152.398
47.71000 152.921
47.88000 159.716
48.05000 151.763
48.22000 164.080
48.39000 171.347
48.56000 157.245
48.73000 160.953
48.90000 153.397
49.07000 162.562
49.24000 153.033
49.41000 140.862
49.58000 155.441
49.75000 153.604
49.92000 146.218
50.09000 161.178
50.26000 186.357
50.43000 210.491
50.60000 244.061
50.77000 205.682
50.94000 179.502
51.11000 151.659
51.28000 156.637
51.45000 152.931
51.62000 150.621
51.79000 148.624
51.96000 141.295
52.13000 144.159
52.30000 133.989
52.47000 121.929
52.64000 136.227
52.81000 133.864
52.98000 139.706
53.15000 151.705
53.32000 149.649
53.49000 151.892
53.66000 139.353
53.83000 141.482
54.00000 133.325
54.17000 146.986
54.34000 137.672
54.51000 137.025
54.68000 144.103
54.85000 143.673
55.02000 139.884
55.19000 162.244
55.36000 198.909
55.53000 313.128
55.70000 493.532
55.87000 575.519
56.04000 461.800
56.21000 254.458
56.38000 180.616
56.55000 140.057
56.72000 130.950
56.89000 130.437
57.06000 132.009
57.23000 121.248
57.40000 125.361
57.57000 115.344
57.74000 131.771
57.91000 130.962
58.08000 120.525
58.25000 120.565
58.42000 124.135
58.59000 122.172
58.76000 109.328
58.93000 120.291
59.10000 118.665
59.27000 118.062
59.44000 112.239
59.61000 120.107
59.78000 118.130
59.95000 116.357
60.12000 114.092
60.29000 119.763
60.46000 125.476
60.63000 106.939
60.80000 119.072
60.97000 121.872
61.14000 121.533
61.31000 119.299
61.48000 125.279
61.65000 328.839
61.82000 207.955
61.99000 126.862
62.16000 128.373
62.33000 123.308
62.50000 124.725
62.67000 122.395
62.84000 119.705
63.01000 124.893
63.18000 124.727
63.35000 144.260
63.52000 143.392
63.69000 141.783
63.86000 140.817
64.03000 139.618
64.20000 162.842
64.37000 158.544
64.54000 168.176
64.71000 176.704
64.88000 189.750
65.05000 243.947
65.22000 300.623
65.39000 375.874
65.56000 440.018
65.73000 1375.859
65.90000 2447.592
66.07000 575.535
66.24000 447.101
66.41000 724.578
66.58000 458.881
66.75000 388.611
66.92000 377.487
67.09000 403.504
67.26000 435.223
67.43000 436.404
67.60000 464.455
67.77000 496.357
67.94000 518.462
68.11000 566.974
68.28000 594.820
68.45000 705.256
68.62000 1002.656
68.79000 1910.477
68.96000 13148.691
69.13000 55542.039
69.30000 29728.344
69.47000 7009.263
69.64000 995.377
69.81000 614.207
69.98000 542.872
70.00000 521.636