File: XRD/07-10-2025 Dep 6/XY Data/BTO_Mapping_Theta2Theta_07-10-2025_001_41_-32-361_-23-511.xy
20.00000 461.163
20.17000 465.724
20.34000 447.038
20.51000 462.871
20.68000 468.170
20.85000 475.408
21.02000 479.646
21.19000 483.536
21.36000 459.122
21.53000 471.010
21.70000 516.271
21.87000 702.075
22.04000 749.511
22.21000 595.188
22.38000 482.579
22.55000 445.586
22.72000 442.207
22.89000 428.917
23.06000 423.399
23.23000 430.190
23.40000 424.455
23.57000 417.207
23.74000 415.471
23.91000 403.084
24.08000 419.266
24.25000 409.608
24.42000 393.449
24.59000 415.512
24.76000 405.579
24.93000 405.519
25.10000 391.378
25.27000 400.281
25.44000 402.640
25.61000 409.915
25.78000 386.874
25.95000 385.633
26.12000 380.029
26.29000 390.824
26.46000 381.019
26.63000 376.786
26.80000 371.300
26.97000 378.751
27.14000 366.246
27.31000 380.660
27.48000 359.325
27.65000 354.655
27.82000 370.514
27.99000 353.889
28.16000 372.860
28.33000 377.843
28.50000 363.633
28.67000 335.931
28.84000 369.094
29.01000 360.449
29.18000 346.461
29.35000 341.107
29.52000 342.794
29.69000 375.945
29.86000 451.922
30.03000 470.381
30.20000 443.939
30.37000 407.607
30.54000 385.317
30.71000 411.872
30.88000 498.472
31.05000 1116.539
31.22000 2905.179
31.39000 3263.438
31.56000 1457.110
31.73000 571.232
31.90000 391.288
32.07000 346.289
32.24000 338.096
32.41000 327.708
32.58000 329.686
32.75000 332.334
32.92000 598.001
33.09000 469.663
33.26000 289.896
33.43000 285.228
33.60000 307.282
33.77000 279.854
33.94000 278.819
34.11000 296.574
34.28000 273.897
34.45000 284.918
34.62000 276.889
34.79000 280.739
34.96000 268.754
35.13000 266.048
35.30000 267.713
35.47000 257.246
35.64000 266.287
35.81000 264.973
35.98000 255.817
36.15000 250.165
36.32000 258.800
36.49000 249.470
36.66000 260.859
36.83000 257.505
37.00000 261.408
37.17000 255.132
37.34000 257.119
37.51000 246.453
37.68000 250.930
37.85000 254.608
38.02000 261.176
38.19000 248.188
38.36000 315.873
38.53000 446.060
38.70000 448.563
38.87000 342.799
39.04000 255.643
39.21000 231.422
39.38000 222.233
39.55000 230.433
39.72000 214.410
39.89000 228.010
40.06000 218.317
40.23000 217.168
40.40000 220.790
40.57000 221.852
40.74000 212.291
40.91000 195.300
41.08000 212.584
41.25000 199.049
41.42000 205.508
41.59000 200.807
41.76000 215.315
41.93000 200.426
42.10000 215.361
42.27000 200.503
42.44000 194.036
42.61000 196.415
42.78000 206.129
42.95000 203.247
43.12000 208.375
43.29000 192.500
43.46000 197.758
43.63000 189.559
43.80000 202.311
43.97000 186.872
44.14000 206.772
44.31000 213.792
44.48000 251.518
44.65000 323.118
44.82000 429.158
44.99000 439.972
45.16000 334.905
45.33000 267.350
45.50000 229.342
45.67000 197.108
45.84000 199.207
46.01000 179.010
46.18000 178.053
46.35000 176.020
46.52000 172.633
46.69000 176.640
46.86000 174.262
47.03000 174.654
47.20000 163.613
47.37000 155.058
47.54000 168.900
47.71000 173.464
47.88000 155.766
48.05000 164.462
48.22000 158.228
48.39000 161.933
48.56000 157.609
48.73000 169.348
48.90000 144.537
49.07000 150.074
49.24000 147.883
49.41000 159.225
49.58000 155.002
49.75000 159.014
49.92000 169.364
50.09000 167.478
50.26000 198.115
50.43000 244.271
50.60000 251.827
50.77000 217.512
50.94000 186.564
51.11000 156.903
51.28000 154.211
51.45000 152.968
51.62000 146.900
51.79000 136.688
51.96000 147.995
52.13000 140.741
52.30000 145.645
52.47000 131.364
52.64000 142.997
52.81000 138.605
52.98000 147.257
53.15000 151.764
53.32000 151.626
53.49000 147.923
53.66000 135.646
53.83000 140.883
54.00000 140.552
54.17000 133.333
54.34000 137.013
54.51000 140.210
54.68000 141.055
54.85000 150.391
55.02000 141.276
55.19000 163.048
55.36000 219.676
55.53000 339.793
55.70000 490.385
55.87000 488.603
56.04000 390.010
56.21000 252.393
56.38000 169.773
56.55000 154.555
56.72000 128.061
56.89000 134.451
57.06000 129.367
57.23000 115.451
57.40000 130.916
57.57000 123.809
57.74000 112.969
57.91000 119.288
58.08000 128.576
58.25000 127.657
58.42000 114.627
58.59000 128.667
58.76000 118.487
58.93000 115.508
59.10000 118.467
59.27000 130.760
59.44000 114.782
59.61000 114.470
59.78000 120.266
59.95000 120.495
60.12000 111.737
60.29000 107.982
60.46000 116.304
60.63000 109.037
60.80000 114.679
60.97000 116.945
61.14000 125.514
61.31000 119.263
61.48000 142.221
61.65000 354.543
61.82000 234.779
61.99000 122.145
62.16000 129.873
62.33000 125.647
62.50000 127.223
62.67000 135.523
62.84000 135.668
63.01000 133.392
63.18000 139.597
63.35000 134.102
63.52000 124.532
63.69000 137.070
63.86000 151.276
64.03000 160.417
64.20000 163.355
64.37000 163.926
64.54000 172.286
64.71000 177.393
64.88000 214.016
65.05000 291.796
65.22000 345.952
65.39000 428.575
65.56000 510.667
65.73000 1603.083
65.90000 2793.273
66.07000 651.045
66.24000 521.229
66.41000 857.691
66.58000 513.401
66.75000 404.683
66.92000 407.063
67.09000 451.837
67.26000 471.489
67.43000 489.692
67.60000 487.338
67.77000 518.310
67.94000 589.896
68.11000 603.429
68.28000 662.224
68.45000 765.011
68.62000 1122.101
68.79000 2250.276
68.96000 16313.629
69.13000 65474.828
69.30000 35309.063
69.47000 8319.714
69.64000 1079.739
69.81000 714.142
69.98000 537.468
70.00000 529.136