File: XRD/07-10-2025 Dep 6/XY Data/BTO_Mapping_Theta2Theta_07-10-2025_001_22_-5-000_8-660.xy
20.00000 481.981
20.17000 473.280
20.34000 466.450
20.51000 459.365
20.68000 461.092
20.85000 461.943
21.02000 457.835
21.19000 451.847
21.36000 465.205
21.53000 459.099
21.70000 468.171
21.87000 505.052
22.04000 531.391
22.21000 515.649
22.38000 470.463
22.55000 464.433
22.72000 448.207
22.89000 437.329
23.06000 441.045
23.23000 442.036
23.40000 434.038
23.57000 420.218
23.74000 449.164
23.91000 470.615
24.08000 482.783
24.25000 460.115
24.42000 407.349
24.59000 416.552
24.76000 394.831
24.93000 390.973
25.10000 402.515
25.27000 406.321
25.44000 399.856
25.61000 385.169
25.78000 380.633
25.95000 378.278
26.12000 377.739
26.29000 373.142
26.46000 364.597
26.63000 363.040
26.80000 379.721
26.97000 382.756
27.14000 377.097
27.31000 375.939
27.48000 353.263
27.65000 377.453
27.82000 371.312
27.99000 354.560
28.16000 349.461
28.33000 353.527
28.50000 350.386
28.67000 348.823
28.84000 361.673
29.01000 344.942
29.18000 336.809
29.35000 341.277
29.52000 348.682
29.69000 356.258
29.86000 363.344
30.03000 367.774
30.20000 353.037
30.37000 355.472
30.54000 358.979
30.71000 357.704
30.88000 384.913
31.05000 459.873
31.22000 785.804
31.39000 1111.993
31.56000 774.241
31.73000 460.129
31.90000 365.417
32.07000 357.284
32.24000 327.941
32.41000 319.546
32.58000 312.006
32.75000 316.348
32.92000 492.319
33.09000 420.617
33.26000 286.446
33.43000 287.245
33.60000 304.253
33.77000 288.475
33.94000 299.932
34.11000 318.283
34.28000 332.418
34.45000 323.073
34.62000 306.425
34.79000 298.362
34.96000 267.659
35.13000 284.712
35.30000 256.998
35.47000 263.213
35.64000 263.773
35.81000 272.621
35.98000 267.429
36.15000 254.496
36.32000 249.524
36.49000 260.370
36.66000 240.940
36.83000 259.843
37.00000 276.597
37.17000 267.194
37.34000 240.354
37.51000 252.075
37.68000 251.202
37.85000 238.766
38.02000 273.971
38.19000 257.863
38.36000 305.426
38.53000 550.384
38.70000 938.440
38.87000 718.506
39.04000 318.586
39.21000 241.371
39.38000 222.959
39.55000 251.882
39.72000 226.259
39.89000 228.549
40.06000 221.120
40.23000 222.705
40.40000 216.229
40.57000 212.593
40.74000 230.644
40.91000 206.672
41.08000 207.541
41.25000 204.011
41.42000 200.876
41.59000 203.757
41.76000 203.493
41.93000 206.773
42.10000 205.681
42.27000 209.079
42.44000 214.440
42.61000 218.844
42.78000 185.111
42.95000 182.579
43.12000 187.464
43.29000 202.511
43.46000 186.968
43.63000 188.080
43.80000 184.484
43.97000 194.691
44.14000 190.798
44.31000 189.511
44.48000 201.322
44.65000 203.497
44.82000 219.317
44.99000 250.892
45.16000 252.500
45.33000 244.180
45.50000 209.428
45.67000 194.574
45.84000 193.385
46.01000 184.275
46.18000 178.124
46.35000 169.753
46.52000 170.439
46.69000 173.085
46.86000 183.289
47.03000 177.617
47.20000 155.765
47.37000 170.071
47.54000 148.051
47.71000 157.487
47.88000 159.679
48.05000 155.291
48.22000 155.593
48.39000 166.757
48.56000 160.416
48.73000 155.232
48.90000 155.163
49.07000 152.549
49.24000 164.588
49.41000 151.587
49.58000 153.530
49.75000 151.422
49.92000 153.278
50.09000 168.403
50.26000 146.315
50.43000 152.132
50.60000 151.324
50.77000 168.312
50.94000 152.674
51.11000 163.090
51.28000 134.908
51.45000 132.632
51.62000 128.660
51.79000 150.422
51.96000 147.700
52.13000 136.705
52.30000 135.276
52.47000 141.827
52.64000 142.323
52.81000 134.941
52.98000 135.284
53.15000 138.577
53.32000 144.313
53.49000 149.797
53.66000 141.535
53.83000 140.512
54.00000 132.921
54.17000 145.072
54.34000 125.343
54.51000 149.155
54.68000 145.576
54.85000 138.235
55.02000 140.749
55.19000 143.218
55.36000 162.009
55.53000 193.077
55.70000 322.440
55.87000 546.001
56.04000 550.861
56.21000 347.366
56.38000 204.828
56.55000 156.783
56.72000 134.446
56.89000 134.084
57.06000 129.219
57.23000 126.776
57.40000 126.803
57.57000 124.644
57.74000 104.046
57.91000 119.251
58.08000 121.472
58.25000 119.241
58.42000 123.039
58.59000 117.404
58.76000 118.170
58.93000 118.373
59.10000 117.173
59.27000 114.618
59.44000 115.740
59.61000 118.612
59.78000 115.616
59.95000 121.446
60.12000 121.292
60.29000 112.164
60.46000 119.854
60.63000 115.895
60.80000 114.929
60.97000 120.149
61.14000 124.353
61.31000 119.648
61.48000 135.911
61.65000 266.054
61.82000 192.664
61.99000 128.162
62.16000 125.827
62.33000 133.536
62.50000 124.845
62.67000 131.135
62.84000 127.597
63.01000 127.266
63.18000 125.293
63.35000 145.416
63.52000 123.828
63.69000 144.440
63.86000 139.447
64.03000 140.062
64.20000 144.219
64.37000 146.465
64.54000 153.171
64.71000 160.891
64.88000 180.139
65.05000 179.707
65.22000 217.463
65.39000 248.658
65.56000 323.393
65.73000 1017.570
65.90000 1919.773
66.07000 507.151
66.24000 385.473
66.41000 600.275
66.58000 430.885
66.75000 333.798
66.92000 366.419
67.09000 366.883
67.26000 389.706
67.43000 404.001
67.60000 417.292
67.77000 442.724
67.94000 498.692
68.11000 547.958
68.28000 568.125
68.45000 630.161
68.62000 890.737
68.79000 1543.049
68.96000 9610.304
69.13000 43641.898
69.30000 23549.590
69.47000 5585.423
69.64000 880.215
69.81000 607.223
69.98000 492.409
70.00000 475.410