File: XRD/07-10-2025 Dep 6/XY Data/BTO_Mapping_Theta2Theta_07-10-2025_001_38_-8-090_-5-878.xy
20.00000 479.785
20.17000 465.617
20.34000 478.898
20.51000 479.910
20.68000 473.102
20.85000 462.995
21.02000 471.489
21.19000 463.407
21.36000 420.851
21.53000 433.423
21.70000 466.745
21.87000 492.467
22.04000 546.177
22.21000 519.953
22.38000 483.902
22.55000 448.832
22.72000 449.858
22.89000 452.836
23.06000 432.116
23.23000 435.800
23.40000 417.747
23.57000 433.547
23.74000 443.332
23.91000 461.150
24.08000 479.531
24.25000 445.071
24.42000 418.226
24.59000 403.619
24.76000 417.547
24.93000 401.672
25.10000 396.366
25.27000 403.798
25.44000 373.735
25.61000 383.179
25.78000 373.527
25.95000 403.509
26.12000 385.458
26.29000 385.201
26.46000 391.934
26.63000 378.493
26.80000 372.716
26.97000 370.167
27.14000 358.594
27.31000 375.119
27.48000 366.596
27.65000 370.986
27.82000 342.118
27.99000 370.229
28.16000 349.720
28.33000 355.490
28.50000 346.649
28.67000 348.613
28.84000 352.297
29.01000 341.108
29.18000 343.941
29.35000 334.891
29.52000 367.555
29.69000 359.003
29.86000 349.981
30.03000 383.996
30.20000 374.241
30.37000 352.761
30.54000 347.906
30.71000 367.889
30.88000 380.103
31.05000 496.418
31.22000 978.148
31.39000 1308.198
31.56000 775.107
31.73000 442.823
31.90000 362.090
32.07000 344.670
32.24000 336.239
32.41000 324.528
32.58000 307.168
32.75000 309.905
32.92000 477.584
33.09000 405.151
33.26000 302.773
33.43000 287.888
33.60000 293.318
33.77000 297.550
33.94000 304.861
34.11000 296.823
34.28000 299.557
34.45000 309.114
34.62000 292.899
34.79000 299.011
34.96000 278.143
35.13000 260.845
35.30000 249.105
35.47000 261.280
35.64000 262.385
35.81000 251.648
35.98000 262.250
36.15000 254.075
36.32000 256.972
36.49000 234.440
36.66000 270.772
36.83000 260.945
37.00000 275.019
37.17000 271.388
37.34000 258.688
37.51000 250.285
37.68000 246.849
37.85000 253.059
38.02000 253.142
38.19000 265.294
38.36000 331.186
38.53000 636.517
38.70000 1028.253
38.87000 762.018
39.04000 339.893
39.21000 246.303
39.38000 223.692
39.55000 248.129
39.72000 227.176
39.89000 230.192
40.06000 227.348
40.23000 213.946
40.40000 225.208
40.57000 221.826
40.74000 218.530
40.91000 199.735
41.08000 212.195
41.25000 208.686
41.42000 210.470
41.59000 206.542
41.76000 195.438
41.93000 202.311
42.10000 202.731
42.27000 209.257
42.44000 219.377
42.61000 206.608
42.78000 213.096
42.95000 192.841
43.12000 203.315
43.29000 199.797
43.46000 190.572
43.63000 202.102
43.80000 175.368
43.97000 195.446
44.14000 185.381
44.31000 204.721
44.48000 199.042
44.65000 215.694
44.82000 227.840
44.99000 265.366
45.16000 259.053
45.33000 221.365
45.50000 218.494
45.67000 208.609
45.84000 190.324
46.01000 181.126
46.18000 171.009
46.35000 165.374
46.52000 175.986
46.69000 185.896
46.86000 168.753
47.03000 160.289
47.20000 162.001
47.37000 156.961
47.54000 162.253
47.71000 165.115
47.88000 153.616
48.05000 154.919
48.22000 149.142
48.39000 147.227
48.56000 162.444
48.73000 156.960
48.90000 140.424
49.07000 155.588
49.24000 148.070
49.41000 155.624
49.58000 142.875
49.75000 150.396
49.92000 151.947
50.09000 138.828
50.26000 148.598
50.43000 164.723
50.60000 177.970
50.77000 179.478
50.94000 153.998
51.11000 141.478
51.28000 141.210
51.45000 149.420
51.62000 138.192
51.79000 147.560
51.96000 135.073
52.13000 132.298
52.30000 138.786
52.47000 124.725
52.64000 131.112
52.81000 132.983
52.98000 135.072
53.15000 143.173
53.32000 153.502
53.49000 160.547
53.66000 150.264
53.83000 136.815
54.00000 137.801
54.17000 134.744
54.34000 143.437
54.51000 136.869
54.68000 143.066
54.85000 141.490
55.02000 140.858
55.19000 145.174
55.36000 153.919
55.53000 221.296
55.70000 387.963
55.87000 600.172
56.04000 543.786
56.21000 330.080
56.38000 197.480
56.55000 152.391
56.72000 129.467
56.89000 138.285
57.06000 132.359
57.23000 132.005
57.40000 115.493
57.57000 124.803
57.74000 118.450
57.91000 123.386
58.08000 130.521
58.25000 117.458
58.42000 120.178
58.59000 110.230
58.76000 124.788
58.93000 113.107
59.10000 122.691
59.27000 124.478
59.44000 111.656
59.61000 115.821
59.78000 110.851
59.95000 116.626
60.12000 114.206
60.29000 118.162
60.46000 117.962
60.63000 115.465
60.80000 128.627
60.97000 111.224
61.14000 124.691
61.31000 118.545
61.48000 138.746
61.65000 285.972
61.82000 196.728
61.99000 121.371
62.16000 123.714
62.33000 128.202
62.50000 136.145
62.67000 133.669
62.84000 126.443
63.01000 135.142
63.18000 134.650
63.35000 139.793
63.52000 138.250
63.69000 141.072
63.86000 145.689
64.03000 132.639
64.20000 155.858
64.37000 152.121
64.54000 160.827
64.71000 153.696
64.88000 183.488
65.05000 185.010
65.22000 226.942
65.39000 262.646
65.56000 337.519
65.73000 1085.984
65.90000 1968.833
66.07000 484.842
66.24000 399.757
66.41000 638.417
66.58000 388.014
66.75000 350.070
66.92000 348.369
67.09000 382.724
67.26000 385.064
67.43000 399.549
67.60000 418.410
67.77000 467.145
67.94000 491.962
68.11000 496.225
68.28000 561.960
68.45000 654.462
68.62000 903.852
68.79000 1581.890
68.96000 10068.588
69.13000 45311.801
69.30000 24421.574
69.47000 5806.541
69.64000 896.748
69.81000 640.701
69.98000 512.066
70.00000 493.490