File: XRD/07-10-2025 Dep 6/XY Data/BTO_Mapping_Theta2Theta_07-10-2025_001_43_-10-000_-17-321.xy
20.00000 465.135
20.17000 457.113
20.34000 465.787
20.51000 460.596
20.68000 471.054
20.85000 454.165
21.02000 472.117
21.19000 471.669
21.36000 457.484
21.53000 449.833
21.70000 462.069
21.87000 519.715
22.04000 538.994
22.21000 545.297
22.38000 476.262
22.55000 441.086
22.72000 453.381
22.89000 403.857
23.06000 417.276
23.23000 413.639
23.40000 407.227
23.57000 434.778
23.74000 450.738
23.91000 452.433
24.08000 462.397
24.25000 447.152
24.42000 404.574
24.59000 385.332
24.76000 402.192
24.93000 393.181
25.10000 380.770
25.27000 386.352
25.44000 397.743
25.61000 415.179
25.78000 379.737
25.95000 390.132
26.12000 378.797
26.29000 380.464
26.46000 380.579
26.63000 365.435
26.80000 371.440
26.97000 350.136
27.14000 361.190
27.31000 367.818
27.48000 369.871
27.65000 354.778
27.82000 351.818
27.99000 366.709
28.16000 351.026
28.33000 373.097
28.50000 375.537
28.67000 349.328
28.84000 349.785
29.01000 361.719
29.18000 340.435
29.35000 362.398
29.52000 349.678
29.69000 355.861
29.86000 373.796
30.03000 380.584
30.20000 380.804
30.37000 343.590
30.54000 356.822
30.71000 370.584
30.88000 395.979
31.05000 578.975
31.22000 1228.476
31.39000 1602.447
31.56000 844.824
31.73000 459.763
31.90000 367.098
32.07000 334.540
32.24000 300.411
32.41000 320.704
32.58000 314.646
32.75000 306.294
32.92000 499.903
33.09000 404.178
33.26000 288.460
33.43000 295.824
33.60000 301.222
33.77000 296.993
33.94000 298.687
34.11000 311.802
34.28000 310.688
34.45000 305.515
34.62000 310.297
34.79000 292.466
34.96000 282.833
35.13000 273.107
35.30000 252.838
35.47000 263.095
35.64000 269.643
35.81000 252.183
35.98000 251.444
36.15000 251.745
36.32000 238.816
36.49000 246.155
36.66000 259.739
36.83000 273.138
37.00000 294.492
37.17000 266.919
37.34000 255.193
37.51000 252.327
37.68000 238.537
37.85000 256.236
38.02000 258.034
38.19000 268.639
38.36000 342.216
38.53000 688.021
38.70000 1064.820
38.87000 763.729
39.04000 339.491
39.21000 232.862
39.38000 218.542
39.55000 237.178
39.72000 230.282
39.89000 233.531
40.06000 233.807
40.23000 216.930
40.40000 209.926
40.57000 211.946
40.74000 220.771
40.91000 206.618
41.08000 206.251
41.25000 214.694
41.42000 207.753
41.59000 212.269
41.76000 209.082
41.93000 206.289
42.10000 208.021
42.27000 192.754
42.44000 199.943
42.61000 196.958
42.78000 194.666
42.95000 195.780
43.12000 191.676
43.29000 193.177
43.46000 184.948
43.63000 188.484
43.80000 191.834
43.97000 187.536
44.14000 185.039
44.31000 195.662
44.48000 209.270
44.65000 218.994
44.82000 235.982
44.99000 274.709
45.16000 251.414
45.33000 245.758
45.50000 223.293
45.67000 199.193
45.84000 193.667
46.01000 185.558
46.18000 176.006
46.35000 170.795
46.52000 178.245
46.69000 167.063
46.86000 173.442
47.03000 173.799
47.20000 171.456
47.37000 156.609
47.54000 159.403
47.71000 162.400
47.88000 171.367
48.05000 158.917
48.22000 156.054
48.39000 155.014
48.56000 156.417
48.73000 156.591
48.90000 154.321
49.07000 162.715
49.24000 150.663
49.41000 140.930
49.58000 150.104
49.75000 148.904
49.92000 159.969
50.09000 148.334
50.26000 150.638
50.43000 174.760
50.60000 186.246
50.77000 175.322
50.94000 159.975
51.11000 147.126
51.28000 137.592
51.45000 143.596
51.62000 146.810
51.79000 140.984
51.96000 137.384
52.13000 132.535
52.30000 131.908
52.47000 134.359
52.64000 149.528
52.81000 137.006
52.98000 136.738
53.15000 140.621
53.32000 151.020
53.49000 149.675
53.66000 140.548
53.83000 126.572
54.00000 141.972
54.17000 135.479
54.34000 142.425
54.51000 132.122
54.68000 139.554
54.85000 141.593
55.02000 145.583
55.19000 158.385
55.36000 179.133
55.53000 235.988
55.70000 424.883
55.87000 604.643
56.04000 525.335
56.21000 313.093
56.38000 184.478
56.55000 142.995
56.72000 137.860
56.89000 128.679
57.06000 129.479
57.23000 131.862
57.40000 124.505
57.57000 128.175
57.74000 130.627
57.91000 119.160
58.08000 122.398
58.25000 124.208
58.42000 116.742
58.59000 113.069
58.76000 107.506
58.93000 111.604
59.10000 118.275
59.27000 122.352
59.44000 124.513
59.61000 119.875
59.78000 117.935
59.95000 117.644
60.12000 118.021
60.29000 113.700
60.46000 110.216
60.63000 114.409
60.80000 117.650
60.97000 124.295
61.14000 122.750
61.31000 118.242
61.48000 139.878
61.65000 283.999
61.82000 187.017
61.99000 122.281
62.16000 119.872
62.33000 130.989
62.50000 125.525
62.67000 123.870
62.84000 131.814
63.01000 126.820
63.18000 129.046
63.35000 128.956
63.52000 151.140
63.69000 145.651
63.86000 138.357
64.03000 144.507
64.20000 148.205
64.37000 153.972
64.54000 158.149
64.71000 163.671
64.88000 179.266
65.05000 201.284
65.22000 243.736
65.39000 274.288
65.56000 363.325
65.73000 1095.218
65.90000 2013.214
66.07000 516.819
66.24000 397.747
66.41000 667.692
66.58000 415.533
66.75000 333.514
66.92000 363.136
67.09000 357.565
67.26000 379.232
67.43000 402.678
67.60000 430.169
67.77000 463.989
67.94000 487.947
68.11000 538.265
68.28000 593.263
68.45000 646.895
68.62000 897.171
68.79000 1610.254
68.96000 10473.395
69.13000 46770.035
69.30000 25097.918
69.47000 5949.781
69.64000 883.663
69.81000 597.637
69.98000 517.130
70.00000 504.928