File: XRD/07-10-2025 Dep 6/XY Data/BTO_Mapping_Theta2Theta_07-10-2025_001_04_30-000_0-000.xy
20.00000 477.828
20.17000 459.239
20.34000 475.715
20.51000 470.173
20.68000 462.814
20.85000 453.182
21.02000 487.186
21.19000 471.639
21.36000 452.066
21.53000 499.029
21.70000 491.400
21.87000 481.636
22.04000 496.503
22.21000 493.909
22.38000 461.641
22.55000 448.338
22.72000 441.123
22.89000 431.295
23.06000 428.068
23.23000 431.479
23.40000 433.660
23.57000 455.898
23.74000 461.944
23.91000 507.622
24.08000 500.447
24.25000 452.366
24.42000 422.218
24.59000 401.364
24.76000 410.071
24.93000 421.402
25.10000 402.564
25.27000 389.654
25.44000 389.024
25.61000 386.884
25.78000 400.421
25.95000 403.360
26.12000 378.566
26.29000 375.812
26.46000 374.874
26.63000 371.477
26.80000 405.814
26.97000 382.662
27.14000 359.495
27.31000 373.421
27.48000 381.762
27.65000 380.121
27.82000 365.130
27.99000 375.597
28.16000 357.693
28.33000 355.939
28.50000 377.161
28.67000 356.666
28.84000 363.855
29.01000 364.266
29.18000 358.252
29.35000 376.208
29.52000 364.366
29.69000 361.547
29.86000 382.145
30.03000 377.304
30.20000 381.636
30.37000 363.898
30.54000 370.138
30.71000 382.570
30.88000 393.756
31.05000 495.170
31.22000 728.037
31.39000 910.945
31.56000 697.142
31.73000 461.428
31.90000 404.669
32.07000 361.974
32.24000 346.318
32.41000 350.530
32.58000 318.130
32.75000 325.818
32.92000 525.728
33.09000 434.383
33.26000 303.395
33.43000 290.021
33.60000 296.271
33.77000 298.119
33.94000 294.013
34.11000 305.590
34.28000 309.051
34.45000 302.770
34.62000 300.855
34.79000 312.983
34.96000 259.310
35.13000 262.816
35.30000 270.488
35.47000 258.201
35.64000 255.145
35.81000 248.941
35.98000 258.612
36.15000 259.858
36.32000 271.218
36.49000 250.121
36.66000 251.374
36.83000 255.482
37.00000 255.919
37.17000 255.516
37.34000 261.146
37.51000 252.229
37.68000 252.789
37.85000 261.671
38.02000 250.007
38.19000 258.560
38.36000 292.203
38.53000 414.557
38.70000 575.344
38.87000 422.105
39.04000 285.190
39.21000 261.174
39.38000 244.497
39.55000 239.915
39.72000 231.844
39.89000 238.562
40.06000 228.056
40.23000 223.875
40.40000 211.728
40.57000 221.951
40.74000 216.731
40.91000 226.358
41.08000 216.145
41.25000 211.149
41.42000 209.693
41.59000 203.348
41.76000 211.415
41.93000 203.151
42.10000 212.955
42.27000 206.141
42.44000 212.802
42.61000 214.409
42.78000 206.701
42.95000 213.407
43.12000 192.110
43.29000 193.087
43.46000 190.141
43.63000 198.159
43.80000 195.097
43.97000 189.766
44.14000 212.270
44.31000 188.184
44.48000 187.872
44.65000 210.384
44.82000 211.804
44.99000 229.864
45.16000 205.514
45.33000 209.175
45.50000 194.237
45.67000 196.925
45.84000 176.232
46.01000 170.113
46.18000 178.100
46.35000 186.421
46.52000 175.055
46.69000 179.375
46.86000 171.300
47.03000 149.543
47.20000 167.172
47.37000 170.887
47.54000 171.329
47.71000 157.003
47.88000 165.902
48.05000 161.270
48.22000 164.241
48.39000 174.700
48.56000 162.195
48.73000 162.135
48.90000 142.689
49.07000 160.224
49.24000 159.812
49.41000 160.277
49.58000 159.225
49.75000 146.469
49.92000 158.315
50.09000 156.348
50.26000 165.430
50.43000 166.128
50.60000 166.483
50.77000 171.102
50.94000 164.068
51.11000 151.268
51.28000 142.474
51.45000 139.739
51.62000 130.256
51.79000 136.668
51.96000 137.983
52.13000 145.385
52.30000 139.308
52.47000 135.306
52.64000 133.337
52.81000 142.974
52.98000 132.199
53.15000 149.945
53.32000 151.375
53.49000 139.635
53.66000 142.622
53.83000 131.183
54.00000 135.455
54.17000 131.977
54.34000 133.651
54.51000 139.820
54.68000 138.106
54.85000 133.227
55.02000 146.746
55.19000 143.790
55.36000 150.861
55.53000 177.910
55.70000 210.817
55.87000 252.351
56.04000 262.238
56.21000 215.410
56.38000 172.025
56.55000 143.567
56.72000 137.186
56.89000 138.858
57.06000 137.564
57.23000 119.188
57.40000 124.197
57.57000 131.546
57.74000 126.530
57.91000 125.162
58.08000 122.572
58.25000 121.135
58.42000 123.458
58.59000 119.930
58.76000 119.934
58.93000 120.733
59.10000 115.791
59.27000 117.339
59.44000 117.537
59.61000 127.223
59.78000 115.391
59.95000 117.471
60.12000 119.428
60.29000 118.648
60.46000 109.837
60.63000 114.491
60.80000 126.735
60.97000 113.910
61.14000 116.673
61.31000 124.258
61.48000 131.353
61.65000 267.521
61.82000 215.680
61.99000 143.433
62.16000 132.638
62.33000 123.980
62.50000 132.795
62.67000 124.295
62.84000 133.625
63.01000 132.071
63.18000 137.111
63.35000 131.465
63.52000 138.911
63.69000 141.658
63.86000 144.527
64.03000 143.744
64.20000 153.202
64.37000 151.526
64.54000 168.556
64.71000 170.073
64.88000 181.610
65.05000 195.463
65.22000 208.601
65.39000 246.251
65.56000 306.600
65.73000 977.095
65.90000 2007.311
66.07000 540.960
66.24000 417.888
66.41000 620.309
66.58000 418.182
66.75000 355.103
66.92000 352.093
67.09000 389.154
67.26000 407.312
67.43000 406.215
67.60000 452.634
67.77000 481.334
67.94000 477.369
68.11000 549.737
68.28000 592.355
68.45000 678.633
68.62000 898.247
68.79000 1623.662
68.96000 8553.082
69.13000 45086.203
69.30000 25353.262
69.47000 6594.284
69.64000 931.319
69.81000 641.068
69.98000 493.978
70.00000 490.284