File: XRD/07-10-2025 Dep 6/XY Data/BTO_Mapping_Theta2Theta_07-10-2025_001_30_-9-781_2-079.xy
20.00000 468.374
20.17000 473.309
20.34000 467.300
20.51000 452.750
20.68000 473.475
20.85000 470.019
21.02000 462.153
21.19000 454.780
21.36000 447.377
21.53000 468.416
21.70000 457.877
21.87000 518.124
22.04000 556.664
22.21000 523.183
22.38000 469.080
22.55000 448.899
22.72000 437.896
22.89000 429.555
23.06000 433.110
23.23000 427.615
23.40000 426.641
23.57000 410.081
23.74000 434.789
23.91000 460.517
24.08000 449.152
24.25000 425.674
24.42000 412.521
24.59000 403.517
24.76000 399.922
24.93000 403.804
25.10000 401.528
25.27000 385.390
25.44000 401.318
25.61000 386.240
25.78000 395.250
25.95000 385.397
26.12000 381.787
26.29000 385.536
26.46000 399.673
26.63000 386.861
26.80000 381.652
26.97000 380.994
27.14000 366.327
27.31000 367.014
27.48000 367.216
27.65000 357.077
27.82000 352.084
27.99000 356.306
28.16000 361.582
28.33000 360.173
28.50000 365.028
28.67000 352.154
28.84000 344.865
29.01000 347.702
29.18000 331.259
29.35000 349.213
29.52000 339.146
29.69000 344.760
29.86000 350.898
30.03000 371.166
30.20000 373.453
30.37000 339.356
30.54000 332.682
30.71000 392.241
30.88000 382.239
31.05000 498.608
31.22000 956.288
31.39000 1314.032
31.56000 796.283
31.73000 446.493
31.90000 375.570
32.07000 344.440
32.24000 328.057
32.41000 318.932
32.58000 320.734
32.75000 322.393
32.92000 492.162
33.09000 414.028
33.26000 295.007
33.43000 301.078
33.60000 290.226
33.77000 299.792
33.94000 308.199
34.11000 307.437
34.28000 317.108
34.45000 308.543
34.62000 310.805
34.79000 290.823
34.96000 279.094
35.13000 259.342
35.30000 254.242
35.47000 263.909
35.64000 257.626
35.81000 255.249
35.98000 266.691
36.15000 246.341
36.32000 258.815
36.49000 252.620
36.66000 249.520
36.83000 270.666
37.00000 278.801
37.17000 269.167
37.34000 262.600
37.51000 255.036
37.68000 257.413
37.85000 253.813
38.02000 245.248
38.19000 253.341
38.36000 312.964
38.53000 622.097
38.70000 1000.115
38.87000 752.622
39.04000 320.890
39.21000 247.228
39.38000 229.172
39.55000 218.719
39.72000 231.279
39.89000 233.018
40.06000 219.948
40.23000 214.265
40.40000 221.618
40.57000 225.256
40.74000 216.499
40.91000 202.681
41.08000 216.278
41.25000 207.142
41.42000 200.000
41.59000 200.272
41.76000 207.799
41.93000 202.321
42.10000 196.122
42.27000 212.112
42.44000 211.615
42.61000 195.713
42.78000 207.964
42.95000 203.157
43.12000 198.788
43.29000 195.495
43.46000 187.236
43.63000 197.171
43.80000 170.186
43.97000 189.965
44.14000 175.121
44.31000 187.884
44.48000 202.316
44.65000 211.613
44.82000 218.485
44.99000 255.478
45.16000 259.381
45.33000 220.936
45.50000 208.165
45.67000 200.650
45.84000 183.131
46.01000 181.389
46.18000 177.275
46.35000 169.473
46.52000 174.846
46.69000 186.505
46.86000 172.983
47.03000 167.907
47.20000 161.646
47.37000 165.079
47.54000 156.062
47.71000 155.248
47.88000 155.075
48.05000 163.130
48.22000 155.998
48.39000 159.005
48.56000 147.723
48.73000 146.820
48.90000 146.415
49.07000 145.482
49.24000 155.679
49.41000 148.531
49.58000 147.263
49.75000 154.295
49.92000 141.658
50.09000 143.010
50.26000 162.620
50.43000 157.151
50.60000 185.991
50.77000 181.168
50.94000 158.114
51.11000 138.703
51.28000 139.750
51.45000 142.252
51.62000 143.617
51.79000 145.077
51.96000 139.781
52.13000 130.197
52.30000 137.934
52.47000 139.948
52.64000 130.192
52.81000 126.448
52.98000 146.879
53.15000 137.870
53.32000 146.673
53.49000 157.654
53.66000 145.491
53.83000 142.951
54.00000 135.726
54.17000 120.506
54.34000 136.967
54.51000 135.147
54.68000 131.628
54.85000 135.859
55.02000 141.497
55.19000 153.351
55.36000 155.907
55.53000 215.030
55.70000 364.784
55.87000 579.067
56.04000 575.958
56.21000 347.069
56.38000 178.651
56.55000 151.819
56.72000 132.943
56.89000 133.807
57.06000 129.229
57.23000 125.643
57.40000 128.125
57.57000 125.734
57.74000 126.367
57.91000 122.539
58.08000 113.691
58.25000 117.002
58.42000 124.736
58.59000 120.201
58.76000 118.081
58.93000 114.935
59.10000 117.447
59.27000 113.385
59.44000 118.465
59.61000 118.723
59.78000 112.862
59.95000 117.039
60.12000 118.066
60.29000 112.376
60.46000 115.873
60.63000 115.095
60.80000 117.640
60.97000 115.323
61.14000 130.925
61.31000 118.838
61.48000 136.740
61.65000 285.631
61.82000 196.984
61.99000 124.682
62.16000 134.857
62.33000 128.486
62.50000 122.866
62.67000 134.281
62.84000 121.965
63.01000 126.453
63.18000 120.725
63.35000 135.238
63.52000 130.305
63.69000 137.768
63.86000 139.524
64.03000 151.897
64.20000 148.590
64.37000 158.097
64.54000 154.578
64.71000 155.687
64.88000 169.396
65.05000 193.082
65.22000 217.487
65.39000 259.762
65.56000 335.915
65.73000 1077.308
65.90000 1996.238
66.07000 487.909
66.24000 395.776
66.41000 621.426
66.58000 408.535
66.75000 337.071
66.92000 351.689
67.09000 372.746
67.26000 375.754
67.43000 402.852
67.60000 446.851
67.77000 456.782
67.94000 470.080
68.11000 518.646
68.28000 569.325
68.45000 639.931
68.62000 913.045
68.79000 1579.072
68.96000 10331.284
69.13000 45379.289
69.30000 24296.938
69.47000 5633.022
69.64000 912.599
69.81000 609.035
69.98000 509.534
70.00000 501.552