File: XRD/07-10-2025 Dep 6/XY Data/BTO_Mapping_Theta2Theta_07-10-2025_001_15_6-180_19-021.xy
20.00000 467.179
20.17000 468.749
20.34000 464.399
20.51000 448.238
20.68000 461.407
20.85000 464.315
21.02000 452.698
21.19000 466.301
21.36000 466.310
21.53000 448.881
21.70000 475.716
21.87000 502.423
22.04000 507.750
22.21000 488.650
22.38000 460.223
22.55000 444.309
22.72000 450.984
22.89000 464.175
23.06000 442.657
23.23000 439.521
23.40000 434.516
23.57000 433.097
23.74000 441.714
23.91000 488.939
24.08000 504.139
24.25000 450.339
24.42000 425.611
24.59000 404.917
24.76000 394.440
24.93000 409.127
25.10000 400.851
25.27000 410.959
25.44000 396.294
25.61000 389.535
25.78000 357.709
25.95000 390.072
26.12000 394.062
26.29000 377.064
26.46000 394.903
26.63000 388.914
26.80000 373.017
26.97000 369.913
27.14000 366.366
27.31000 377.635
27.48000 359.768
27.65000 364.488
27.82000 354.347
27.99000 370.627
28.16000 372.625
28.33000 367.430
28.50000 344.089
28.67000 350.983
28.84000 352.819
29.01000 347.017
29.18000 343.143
29.35000 357.652
29.52000 352.913
29.69000 347.457
29.86000 362.810
30.03000 376.107
30.20000 372.260
30.37000 383.417
30.54000 371.685
30.71000 364.243
30.88000 407.351
31.05000 483.801
31.22000 825.072
31.39000 1158.853
31.56000 833.036
31.73000 455.917
31.90000 388.049
32.07000 329.694
32.24000 350.023
32.41000 333.838
32.58000 314.079
32.75000 317.884
32.92000 523.249
33.09000 433.766
33.26000 312.352
33.43000 305.763
33.60000 295.839
33.77000 289.838
33.94000 304.085
34.11000 314.233
34.28000 332.129
34.45000 324.753
34.62000 308.586
34.79000 278.031
34.96000 264.860
35.13000 265.228
35.30000 265.136
35.47000 265.844
35.64000 264.623
35.81000 257.344
35.98000 250.799
36.15000 243.262
36.32000 258.938
36.49000 264.149
36.66000 261.950
36.83000 263.174
37.00000 262.844
37.17000 264.273
37.34000 246.753
37.51000 244.906
37.68000 245.647
37.85000 251.948
38.02000 263.613
38.19000 253.139
38.36000 286.272
38.53000 464.328
38.70000 758.634
38.87000 551.306
39.04000 297.645
39.21000 239.084
39.38000 235.624
39.55000 238.379
39.72000 231.926
39.89000 226.470
40.06000 217.712
40.23000 226.636
40.40000 214.254
40.57000 222.724
40.74000 227.860
40.91000 218.202
41.08000 217.651
41.25000 216.179
41.42000 198.811
41.59000 211.909
41.76000 204.327
41.93000 213.762
42.10000 217.716
42.27000 228.658
42.44000 219.695
42.61000 210.854
42.78000 199.316
42.95000 202.531
43.12000 200.825
43.29000 186.357
43.46000 186.282
43.63000 196.606
43.80000 201.586
43.97000 198.448
44.14000 189.190
44.31000 198.194
44.48000 205.352
44.65000 220.844
44.82000 217.118
44.99000 215.442
45.16000 221.074
45.33000 203.791
45.50000 200.660
45.67000 177.142
45.84000 180.488
46.01000 181.297
46.18000 177.107
46.35000 168.109
46.52000 171.193
46.69000 170.733
46.86000 171.126
47.03000 173.961
47.20000 160.563
47.37000 163.178
47.54000 162.977
47.71000 163.734
47.88000 170.332
48.05000 156.406
48.22000 148.356
48.39000 160.609
48.56000 154.906
48.73000 162.230
48.90000 157.148
49.07000 148.654
49.24000 144.132
49.41000 153.081
49.58000 145.984
49.75000 155.941
49.92000 144.980
50.09000 135.430
50.26000 151.751
50.43000 170.421
50.60000 162.584
50.77000 152.665
50.94000 153.860
51.11000 155.561
51.28000 149.209
51.45000 142.068
51.62000 143.918
51.79000 150.569
51.96000 143.900
52.13000 132.443
52.30000 139.058
52.47000 141.033
52.64000 134.893
52.81000 138.403
52.98000 133.559
53.15000 138.451
53.32000 138.046
53.49000 148.130
53.66000 145.280
53.83000 135.776
54.00000 145.776
54.17000 137.696
54.34000 144.572
54.51000 139.000
54.68000 135.916
54.85000 142.200
55.02000 142.669
55.19000 140.936
55.36000 155.153
55.53000 188.361
55.70000 255.176
55.87000 359.303
56.04000 374.244
56.21000 277.405
56.38000 183.966
56.55000 166.558
56.72000 142.776
56.89000 141.781
57.06000 132.880
57.23000 125.246
57.40000 107.791
57.57000 134.994
57.74000 136.020
57.91000 130.025
58.08000 131.058
58.25000 124.299
58.42000 118.799
58.59000 125.932
58.76000 117.357
58.93000 122.240
59.10000 119.886
59.27000 125.773
59.44000 120.418
59.61000 115.927
59.78000 118.230
59.95000 118.623
60.12000 123.370
60.29000 120.795
60.46000 105.801
60.63000 114.994
60.80000 120.882
60.97000 122.939
61.14000 114.956
61.31000 123.893
61.48000 127.724
61.65000 282.862
61.82000 186.417
61.99000 133.039
62.16000 136.364
62.33000 124.836
62.50000 131.900
62.67000 133.183
62.84000 125.734
63.01000 122.505
63.18000 140.405
63.35000 133.139
63.52000 134.819
63.69000 134.085
63.86000 146.154
64.03000 156.764
64.20000 144.181
64.37000 148.561
64.54000 155.417
64.71000 171.166
64.88000 177.834
65.05000 191.392
65.22000 214.306
65.39000 253.423
65.56000 315.426
65.73000 1003.776
65.90000 1960.782
66.07000 501.913
66.24000 392.218
66.41000 634.692
66.58000 417.603
66.75000 357.812
66.92000 372.008
67.09000 372.285
67.26000 389.082
67.43000 410.145
67.60000 430.955
67.77000 443.578
67.94000 476.571
68.11000 501.789
68.28000 539.698
68.45000 652.128
68.62000 888.402
68.79000 1610.617
68.96000 8888.222
69.13000 44089.020
69.30000 24449.275
69.47000 6043.593
69.64000 917.647
69.81000 632.618
69.98000 510.095
70.00000 495.406