File: XRD/07-10-2025 Dep 6/XY Data/BTO_Mapping_Theta2Theta_07-10-2025_001_34_-9-781_-2-079.xy
20.00000 473.191
20.17000 490.117
20.34000 446.434
20.51000 476.830
20.68000 454.918
20.85000 460.480
21.02000 470.938
21.19000 441.258
21.36000 441.376
21.53000 449.609
21.70000 456.088
21.87000 493.715
22.04000 551.405
22.21000 517.057
22.38000 479.379
22.55000 447.135
22.72000 447.052
22.89000 444.524
23.06000 427.405
23.23000 423.661
23.40000 415.395
23.57000 424.247
23.74000 435.089
23.91000 476.398
24.08000 446.893
24.25000 423.689
24.42000 412.708
24.59000 399.044
24.76000 381.411
24.93000 406.666
25.10000 393.978
25.27000 393.833
25.44000 375.152
25.61000 386.800
25.78000 421.638
25.95000 375.933
26.12000 378.070
26.29000 377.919
26.46000 372.773
26.63000 378.189
26.80000 383.753
26.97000 370.133
27.14000 394.444
27.31000 368.990
27.48000 360.191
27.65000 378.033
27.82000 370.116
27.99000 355.325
28.16000 352.505
28.33000 371.571
28.50000 352.578
28.67000 357.756
28.84000 337.969
29.01000 338.663
29.18000 354.928
29.35000 361.056
29.52000 347.060
29.69000 346.832
29.86000 360.196
30.03000 376.783
30.20000 365.718
30.37000 350.507
30.54000 353.034
30.71000 359.755
30.88000 364.984
31.05000 524.324
31.22000 1037.090
31.39000 1381.559
31.56000 836.289
31.73000 433.104
31.90000 342.643
32.07000 327.196
32.24000 311.356
32.41000 320.686
32.58000 316.621
32.75000 300.756
32.92000 493.937
33.09000 410.401
33.26000 295.448
33.43000 283.069
33.60000 304.986
33.77000 306.724
33.94000 298.181
34.11000 311.103
34.28000 325.518
34.45000 324.222
34.62000 303.833
34.79000 285.854
34.96000 271.870
35.13000 271.930
35.30000 269.583
35.47000 271.171
35.64000 252.461
35.81000 275.029
35.98000 255.834
36.15000 264.801
36.32000 245.893
36.49000 245.622
36.66000 231.883
36.83000 266.242
37.00000 284.610
37.17000 255.792
37.34000 257.749
37.51000 257.861
37.68000 238.660
37.85000 243.596
38.02000 266.799
38.19000 263.052
38.36000 330.308
38.53000 629.022
38.70000 1042.770
38.87000 770.260
39.04000 321.181
39.21000 237.967
39.38000 219.530
39.55000 245.873
39.72000 223.553
39.89000 225.517
40.06000 225.823
40.23000 210.066
40.40000 216.913
40.57000 217.544
40.74000 215.086
40.91000 209.557
41.08000 204.100
41.25000 213.032
41.42000 210.429
41.59000 206.498
41.76000 208.615
41.93000 202.587
42.10000 208.863
42.27000 204.608
42.44000 208.479
42.61000 203.331
42.78000 189.311
42.95000 195.724
43.12000 195.657
43.29000 203.233
43.46000 198.164
43.63000 195.322
43.80000 184.942
43.97000 190.082
44.14000 198.864
44.31000 193.089
44.48000 198.990
44.65000 219.158
44.82000 227.154
44.99000 252.510
45.16000 247.017
45.33000 242.590
45.50000 193.618
45.67000 213.431
45.84000 192.473
46.01000 180.885
46.18000 170.652
46.35000 173.817
46.52000 175.327
46.69000 168.872
46.86000 171.082
47.03000 159.963
47.20000 160.912
47.37000 165.136
47.54000 165.913
47.71000 154.047
47.88000 167.254
48.05000 162.599
48.22000 159.338
48.39000 158.399
48.56000 158.308
48.73000 153.284
48.90000 151.788
49.07000 148.559
49.24000 149.538
49.41000 147.484
49.58000 140.586
49.75000 147.850
49.92000 157.341
50.09000 157.593
50.26000 158.178
50.43000 156.557
50.60000 179.168
50.77000 178.294
50.94000 162.040
51.11000 152.687
51.28000 148.156
51.45000 144.408
51.62000 126.597
51.79000 142.716
51.96000 148.755
52.13000 138.527
52.30000 137.977
52.47000 136.589
52.64000 133.508
52.81000 145.494
52.98000 136.131
53.15000 139.219
53.32000 155.400
53.49000 154.879
53.66000 142.685
53.83000 133.977
54.00000 131.800
54.17000 137.621
54.34000 153.654
54.51000 137.328
54.68000 158.588
54.85000 139.302
55.02000 154.397
55.19000 146.752
55.36000 165.266
55.53000 225.778
55.70000 376.447
55.87000 578.592
56.04000 539.632
56.21000 315.783
56.38000 186.679
56.55000 147.345
56.72000 130.809
56.89000 136.997
57.06000 128.514
57.23000 131.291
57.40000 130.823
57.57000 133.392
57.74000 124.247
57.91000 122.763
58.08000 123.512
58.25000 125.718
58.42000 117.582
58.59000 114.194
58.76000 108.764
58.93000 110.281
59.10000 107.890
59.27000 119.887
59.44000 115.510
59.61000 122.906
59.78000 119.778
59.95000 116.429
60.12000 111.308
60.29000 111.958
60.46000 109.694
60.63000 123.347
60.80000 121.597
60.97000 116.615
61.14000 121.219
61.31000 120.058
61.48000 134.265
61.65000 291.310
61.82000 187.018
61.99000 119.885
62.16000 121.533
62.33000 131.661
62.50000 120.422
62.67000 130.969
62.84000 120.339
63.01000 127.470
63.18000 132.008
63.35000 129.490
63.52000 123.332
63.69000 134.700
63.86000 136.569
64.03000 144.446
64.20000 153.733
64.37000 148.016
64.54000 155.823
64.71000 164.276
64.88000 181.074
65.05000 202.628
65.22000 237.418
65.39000 267.264
65.56000 343.636
65.73000 1071.657
65.90000 1982.063
66.07000 494.235
66.24000 380.776
66.41000 636.819
66.58000 400.225
66.75000 353.508
66.92000 349.809
67.09000 375.490
67.26000 385.127
67.43000 430.579
67.60000 421.792
67.77000 458.280
67.94000 493.675
68.11000 550.645
68.28000 562.549
68.45000 638.343
68.62000 892.519
68.79000 1617.736
68.96000 10274.429
69.13000 45831.129
69.30000 24604.947
69.47000 5799.049
69.64000 896.147
69.81000 605.017
69.98000 514.837
70.00000 501.734