File: XRD/07-10-2025 Dep 6/XY Data/BTO_Mapping_Theta2Theta_07-10-2025_001_17_12-361_38-042.xy
20.00000 485.033
20.17000 494.142
20.34000 479.594
20.51000 463.898
20.68000 474.535
20.85000 462.306
21.02000 458.857
21.19000 447.283
21.36000 459.182
21.53000 453.591
21.70000 466.975
21.87000 470.300
22.04000 495.116
22.21000 486.434
22.38000 472.660
22.55000 445.039
22.72000 441.852
22.89000 437.792
23.06000 428.186
23.23000 440.018
23.40000 431.444
23.57000 444.964
23.74000 468.040
23.91000 499.072
24.08000 475.053
24.25000 448.040
24.42000 402.269
24.59000 421.647
24.76000 406.262
24.93000 420.868
25.10000 398.533
25.27000 396.840
25.44000 393.795
25.61000 395.598
25.78000 388.989
25.95000 382.016
26.12000 404.272
26.29000 393.404
26.46000 366.880
26.63000 386.927
26.80000 376.388
26.97000 365.826
27.14000 375.668
27.31000 375.168
27.48000 386.130
27.65000 367.736
27.82000 349.095
27.99000 370.586
28.16000 359.762
28.33000 354.125
28.50000 369.043
28.67000 378.182
28.84000 383.111
29.01000 366.733
29.18000 356.615
29.35000 348.725
29.52000 364.024
29.69000 356.113
29.86000 367.452
30.03000 375.397
30.20000 387.623
30.37000 372.238
30.54000 355.716
30.71000 376.461
30.88000 411.175
31.05000 469.969
31.22000 735.178
31.39000 974.451
31.56000 735.026
31.73000 476.371
31.90000 385.132
32.07000 385.304
32.24000 343.970
32.41000 326.618
32.58000 319.146
32.75000 317.708
32.92000 502.955
33.09000 436.198
33.26000 305.508
33.43000 308.711
33.60000 295.606
33.77000 296.530
33.94000 311.363
34.11000 304.478
34.28000 318.985
34.45000 306.445
34.62000 295.300
34.79000 296.530
34.96000 266.715
35.13000 276.336
35.30000 254.903
35.47000 269.603
35.64000 262.358
35.81000 262.174
35.98000 257.108
36.15000 250.254
36.32000 245.746
36.49000 243.539
36.66000 250.362
36.83000 255.929
37.00000 266.346
37.17000 248.613
37.34000 252.109
37.51000 245.288
37.68000 243.103
37.85000 262.585
38.02000 257.967
38.19000 275.616
38.36000 291.747
38.53000 391.286
38.70000 574.075
38.87000 425.974
39.04000 276.297
39.21000 266.082
39.38000 228.396
39.55000 234.106
39.72000 225.209
39.89000 221.208
40.06000 215.744
40.23000 223.282
40.40000 214.562
40.57000 216.849
40.74000 196.764
40.91000 210.191
41.08000 209.469
41.25000 215.453
41.42000 193.953
41.59000 209.017
41.76000 215.300
41.93000 210.354
42.10000 214.092
42.27000 200.560
42.44000 211.260
42.61000 215.448
42.78000 200.542
42.95000 195.503
43.12000 199.564
43.29000 199.871
43.46000 190.975
43.63000 201.247
43.80000 196.530
43.97000 190.869
44.14000 185.428
44.31000 199.556
44.48000 198.158
44.65000 200.112
44.82000 212.124
44.99000 214.533
45.16000 208.627
45.33000 200.018
45.50000 188.136
45.67000 188.829
45.84000 172.010
46.01000 173.046
46.18000 168.872
46.35000 174.097
46.52000 177.378
46.69000 174.991
46.86000 180.181
47.03000 168.243
47.20000 171.650
47.37000 164.366
47.54000 164.960
47.71000 162.801
47.88000 165.789
48.05000 168.958
48.22000 161.462
48.39000 164.738
48.56000 153.892
48.73000 158.950
48.90000 167.105
49.07000 148.015
49.24000 155.503
49.41000 149.691
49.58000 151.569
49.75000 159.700
49.92000 163.830
50.09000 157.052
50.26000 153.894
50.43000 161.119
50.60000 174.860
50.77000 165.469
50.94000 162.953
51.11000 149.075
51.28000 153.465
51.45000 144.156
51.62000 146.239
51.79000 147.783
51.96000 134.228
52.13000 137.063
52.30000 132.910
52.47000 138.693
52.64000 145.992
52.81000 149.162
52.98000 139.539
53.15000 138.374
53.32000 138.000
53.49000 143.757
53.66000 133.012
53.83000 131.176
54.00000 147.594
54.17000 139.886
54.34000 130.552
54.51000 132.051
54.68000 130.586
54.85000 126.895
55.02000 137.218
55.19000 151.777
55.36000 148.493
55.53000 163.245
55.70000 203.455
55.87000 267.876
56.04000 250.196
56.21000 206.606
56.38000 166.658
56.55000 142.899
56.72000 140.535
56.89000 127.122
57.06000 126.161
57.23000 126.500
57.40000 123.041
57.57000 131.059
57.74000 124.610
57.91000 124.973
58.08000 120.120
58.25000 118.158
58.42000 114.644
58.59000 119.126
58.76000 116.801
58.93000 127.840
59.10000 117.261
59.27000 114.398
59.44000 117.120
59.61000 115.706
59.78000 116.393
59.95000 112.942
60.12000 113.248
60.29000 115.012
60.46000 122.906
60.63000 109.983
60.80000 107.980
60.97000 108.220
61.14000 128.345
61.31000 124.900
61.48000 138.480
61.65000 288.088
61.82000 200.758
61.99000 123.672
62.16000 124.234
62.33000 137.593
62.50000 136.722
62.67000 130.013
62.84000 127.537
63.01000 129.310
63.18000 134.723
63.35000 133.735
63.52000 128.669
63.69000 126.779
63.86000 153.502
64.03000 143.528
64.20000 166.144
64.37000 167.240
64.54000 160.728
64.71000 157.482
64.88000 183.245
65.05000 203.547
65.22000 204.743
65.39000 247.992
65.56000 305.844
65.73000 981.382
65.90000 1967.326
66.07000 517.667
66.24000 401.923
66.41000 660.977
66.58000 437.524
66.75000 349.232
66.92000 377.271
67.09000 391.677
67.26000 408.386
67.43000 404.379
67.60000 446.511
67.77000 469.429
67.94000 504.689
68.11000 559.232
68.28000 586.662
68.45000 663.125
68.62000 890.250
68.79000 1643.409
68.96000 9147.328
69.13000 45453.063
69.30000 25144.365
69.47000 6184.331
69.64000 933.624
69.81000 649.483
69.98000 503.010
70.00000 493.489