File: XRD/07-10-2025 Dep 6/XY Data/BTO_Mapping_Theta2Theta_07-10-2025_001_20_-3-136_29-836.xy
20.00000 468.170
20.17000 477.096
20.34000 456.793
20.51000 436.105
20.68000 451.786
20.85000 468.577
21.02000 472.042
21.19000 461.222
21.36000 452.018
21.53000 473.226
21.70000 463.616
21.87000 473.569
22.04000 493.268
22.21000 479.717
22.38000 474.957
22.55000 452.773
22.72000 441.586
22.89000 442.817
23.06000 419.112
23.23000 435.751
23.40000 419.626
23.57000 440.289
23.74000 462.688
23.91000 498.053
24.08000 484.096
24.25000 443.692
24.42000 432.860
24.59000 424.223
24.76000 399.365
24.93000 399.150
25.10000 397.308
25.27000 384.142
25.44000 408.139
25.61000 413.615
25.78000 373.344
25.95000 395.588
26.12000 383.266
26.29000 393.412
26.46000 390.461
26.63000 368.680
26.80000 367.507
26.97000 376.394
27.14000 375.873
27.31000 366.193
27.48000 345.873
27.65000 365.796
27.82000 362.286
27.99000 360.449
28.16000 359.246
28.33000 354.729
28.50000 346.881
28.67000 361.984
28.84000 366.776
29.01000 346.374
29.18000 329.945
29.35000 365.671
29.52000 327.248
29.69000 341.380
29.86000 367.303
30.03000 367.873
30.20000 382.251
30.37000 365.188
30.54000 362.459
30.71000 385.036
30.88000 397.576
31.05000 493.880
31.22000 826.530
31.39000 1256.172
31.56000 875.535
31.73000 479.707
31.90000 381.397
32.07000 345.705
32.24000 319.739
32.41000 329.138
32.58000 323.418
32.75000 312.784
32.92000 527.255
33.09000 414.356
33.26000 309.472
33.43000 296.785
33.60000 299.167
33.77000 290.773
33.94000 301.981
34.11000 304.291
34.28000 328.533
34.45000 315.770
34.62000 303.770
34.79000 285.416
34.96000 270.644
35.13000 259.044
35.30000 267.338
35.47000 260.918
35.64000 258.439
35.81000 261.886
35.98000 262.214
36.15000 258.037
36.32000 244.491
36.49000 254.581
36.66000 252.123
36.83000 260.326
37.00000 260.201
37.17000 259.583
37.34000 252.093
37.51000 260.690
37.68000 238.598
37.85000 250.762
38.02000 243.241
38.19000 256.228
38.36000 272.597
38.53000 463.748
38.70000 755.318
38.87000 586.747
39.04000 296.143
39.21000 248.013
39.38000 243.796
39.55000 251.380
39.72000 245.873
39.89000 238.327
40.06000 220.863
40.23000 222.715
40.40000 217.241
40.57000 219.893
40.74000 214.117
40.91000 189.875
41.08000 215.353
41.25000 206.351
41.42000 196.379
41.59000 202.692
41.76000 213.866
41.93000 205.431
42.10000 210.682
42.27000 205.964
42.44000 220.290
42.61000 206.267
42.78000 207.317
42.95000 190.402
43.12000 192.576
43.29000 201.251
43.46000 192.754
43.63000 175.477
43.80000 185.648
43.97000 183.320
44.14000 193.114
44.31000 188.218
44.48000 198.126
44.65000 208.774
44.82000 223.528
44.99000 224.993
45.16000 218.017
45.33000 209.432
45.50000 212.510
45.67000 186.703
45.84000 181.289
46.01000 172.620
46.18000 178.400
46.35000 173.839
46.52000 168.168
46.69000 182.363
46.86000 172.768
47.03000 170.201
47.20000 171.761
47.37000 163.482
47.54000 169.289
47.71000 155.051
47.88000 151.838
48.05000 149.612
48.22000 154.398
48.39000 184.024
48.56000 149.689
48.73000 149.223
48.90000 156.554
49.07000 153.298
49.24000 152.532
49.41000 146.222
49.58000 149.308
49.75000 159.577
49.92000 140.960
50.09000 144.878
50.26000 152.845
50.43000 160.578
50.60000 163.715
50.77000 156.004
50.94000 157.183
51.11000 154.673
51.28000 139.123
51.45000 151.800
51.62000 144.743
51.79000 142.060
51.96000 134.462
52.13000 141.634
52.30000 135.073
52.47000 133.455
52.64000 134.443
52.81000 140.811
52.98000 141.590
53.15000 147.301
53.32000 144.843
53.49000 141.046
53.66000 139.816
53.83000 145.119
54.00000 143.413
54.17000 142.089
54.34000 141.702
54.51000 142.695
54.68000 133.468
54.85000 140.245
55.02000 142.232
55.19000 146.827
55.36000 162.492
55.53000 182.740
55.70000 243.599
55.87000 386.666
56.04000 418.165
56.21000 277.965
56.38000 195.543
56.55000 151.417
56.72000 143.692
56.89000 138.114
57.06000 139.557
57.23000 131.144
57.40000 130.769
57.57000 121.778
57.74000 118.797
57.91000 126.910
58.08000 120.573
58.25000 120.281
58.42000 115.724
58.59000 123.424
58.76000 119.956
58.93000 105.696
59.10000 122.780
59.27000 113.223
59.44000 113.604
59.61000 115.956
59.78000 115.944
59.95000 119.450
60.12000 115.311
60.29000 121.452
60.46000 110.332
60.63000 116.033
60.80000 127.143
60.97000 116.079
61.14000 128.318
61.31000 126.031
61.48000 140.609
61.65000 288.231
61.82000 187.019
61.99000 130.941
62.16000 131.132
62.33000 125.475
62.50000 128.499
62.67000 123.135
62.84000 128.001
63.01000 131.967
63.18000 130.456
63.35000 135.604
63.52000 134.069
63.69000 160.460
63.86000 138.811
64.03000 132.893
64.20000 143.705
64.37000 152.987
64.54000 164.101
64.71000 181.240
64.88000 184.120
65.05000 211.815
65.22000 222.483
65.39000 252.962
65.56000 317.585
65.73000 1045.628
65.90000 1907.067
66.07000 503.895
66.24000 374.086
66.41000 622.766
66.58000 412.457
66.75000 377.888
66.92000 357.319
67.09000 390.397
67.26000 410.781
67.43000 419.286
67.60000 426.599
67.77000 460.292
67.94000 496.138
68.11000 519.121
68.28000 582.922
68.45000 642.781
68.62000 895.443
68.79000 1611.265
68.96000 9917.271
69.13000 44370.984
69.30000 23694.979
69.47000 5482.882
69.64000 897.920
69.81000 627.888
69.98000 485.992
70.00000 482.313