File: XRD/07-10-2025 Dep 6/XY Data/BTO_Mapping_Theta2Theta_07-10-2025_001_49_-4-181_-39-781.xy
20.00000 465.980
20.17000 465.908
20.34000 473.403
20.51000 458.931
20.68000 455.930
20.85000 478.449
21.02000 471.911
21.19000 472.473
21.36000 478.945
21.53000 461.194
21.70000 455.107
21.87000 530.067
22.04000 590.285
22.21000 530.616
22.38000 466.373
22.55000 440.465
22.72000 434.119
22.89000 450.209
23.06000 435.661
23.23000 432.656
23.40000 417.906
23.57000 433.143
23.74000 456.983
23.91000 482.298
24.08000 452.955
24.25000 430.107
24.42000 411.106
24.59000 407.734
24.76000 423.525
24.93000 405.804
25.10000 426.860
25.27000 400.603
25.44000 391.302
25.61000 395.965
25.78000 386.379
25.95000 404.586
26.12000 379.953
26.29000 365.627
26.46000 370.887
26.63000 373.385
26.80000 368.087
26.97000 385.897
27.14000 369.575
27.31000 361.428
27.48000 364.074
27.65000 378.644
27.82000 353.548
27.99000 346.418
28.16000 358.228
28.33000 373.260
28.50000 360.709
28.67000 338.376
28.84000 337.565
29.01000 346.492
29.18000 347.023
29.35000 356.012
29.52000 333.535
29.69000 353.266
29.86000 367.608
30.03000 390.069
30.20000 362.221
30.37000 357.641
30.54000 343.985
30.71000 357.705
30.88000 370.384
31.05000 530.124
31.22000 974.729
31.39000 1315.092
31.56000 789.036
31.73000 431.097
31.90000 375.141
32.07000 325.806
32.24000 320.318
32.41000 304.682
32.58000 311.395
32.75000 313.327
32.92000 474.597
33.09000 413.170
33.26000 291.612
33.43000 283.913
33.60000 297.907
33.77000 282.370
33.94000 297.823
34.11000 300.222
34.28000 318.450
34.45000 309.737
34.62000 299.678
34.79000 289.238
34.96000 291.832
35.13000 278.196
35.30000 274.743
35.47000 268.015
35.64000 257.836
35.81000 259.298
35.98000 262.640
36.15000 262.415
36.32000 238.042
36.49000 259.305
36.66000 268.368
36.83000 238.068
37.00000 291.055
37.17000 280.966
37.34000 264.788
37.51000 255.554
37.68000 245.904
37.85000 251.480
38.02000 257.074
38.19000 274.930
38.36000 321.510
38.53000 647.941
38.70000 1082.250
38.87000 791.321
39.04000 337.943
39.21000 244.823
39.38000 235.853
39.55000 230.556
39.72000 225.392
39.89000 212.944
40.06000 233.563
40.23000 207.980
40.40000 225.437
40.57000 212.131
40.74000 221.378
40.91000 213.588
41.08000 214.325
41.25000 211.562
41.42000 212.499
41.59000 216.469
41.76000 200.363
41.93000 214.944
42.10000 215.018
42.27000 198.535
42.44000 196.766
42.61000 188.516
42.78000 201.451
42.95000 216.271
43.12000 199.688
43.29000 190.934
43.46000 194.657
43.63000 183.839
43.80000 206.657
43.97000 195.509
44.14000 193.797
44.31000 189.642
44.48000 204.381
44.65000 202.265
44.82000 263.895
44.99000 299.306
45.16000 277.421
45.33000 244.369
45.50000 203.662
45.67000 192.323
45.84000 191.328
46.01000 170.650
46.18000 174.167
46.35000 175.359
46.52000 176.137
46.69000 184.222
46.86000 180.890
47.03000 153.216
47.20000 161.228
47.37000 153.766
47.54000 154.553
47.71000 163.252
47.88000 162.728
48.05000 158.450
48.22000 158.508
48.39000 156.973
48.56000 156.400
48.73000 153.092
48.90000 153.173
49.07000 149.897
49.24000 153.573
49.41000 146.176
49.58000 148.808
49.75000 147.267
49.92000 158.774
50.09000 157.197
50.26000 148.751
50.43000 166.774
50.60000 173.314
50.77000 170.418
50.94000 161.775
51.11000 147.879
51.28000 143.392
51.45000 144.873
51.62000 141.282
51.79000 143.926
51.96000 140.772
52.13000 133.814
52.30000 145.356
52.47000 142.606
52.64000 146.869
52.81000 141.689
52.98000 139.105
53.15000 158.849
53.32000 154.665
53.49000 150.172
53.66000 141.632
53.83000 143.799
54.00000 145.177
54.17000 135.381
54.34000 138.940
54.51000 137.970
54.68000 132.878
54.85000 152.229
55.02000 143.662
55.19000 157.235
55.36000 175.163
55.53000 233.377
55.70000 424.406
55.87000 628.830
56.04000 560.506
56.21000 319.636
56.38000 184.375
56.55000 160.780
56.72000 136.274
56.89000 142.198
57.06000 129.333
57.23000 126.623
57.40000 131.963
57.57000 132.369
57.74000 126.065
57.91000 125.493
58.08000 121.524
58.25000 117.077
58.42000 128.122
58.59000 115.700
58.76000 117.195
58.93000 123.822
59.10000 116.630
59.27000 112.558
59.44000 110.259
59.61000 123.972
59.78000 115.415
59.95000 116.776
60.12000 124.551
60.29000 118.209
60.46000 115.346
60.63000 115.535
60.80000 107.089
60.97000 124.092
61.14000 122.034
61.31000 124.604
61.48000 132.249
61.65000 278.424
61.82000 187.392
61.99000 121.621
62.16000 122.315
62.33000 120.657
62.50000 133.828
62.67000 133.259
62.84000 129.644
63.01000 135.424
63.18000 136.410
63.35000 136.111
63.52000 136.687
63.69000 133.689
63.86000 138.892
64.03000 142.908
64.20000 143.372
64.37000 150.968
64.54000 159.009
64.71000 171.639
64.88000 184.170
65.05000 198.480
65.22000 206.241
65.39000 276.358
65.56000 324.056
65.73000 1001.349
65.90000 1928.739
66.07000 502.362
66.24000 363.291
66.41000 613.912
66.58000 412.667
66.75000 340.143
66.92000 355.624
67.09000 369.621
67.26000 381.625
67.43000 398.486
67.60000 424.002
67.77000 437.907
67.94000 478.193
68.11000 491.923
68.28000 544.448
68.45000 636.843
68.62000 875.004
68.79000 1537.168
68.96000 9090.132
69.13000 43519.848
69.30000 23666.549
69.47000 5950.303
69.64000 899.058
69.81000 609.931
69.98000 493.904
70.00000 497.108