File: XRD/07-10-2025 Dep 6/XY Data/BTO_Mapping_Theta2Theta_07-10-2025_001_27_-16-180_11-756.xy
20.00000 464.958
20.17000 480.888
20.34000 466.877
20.51000 459.754
20.68000 454.196
20.85000 459.577
21.02000 448.672
21.19000 456.975
21.36000 465.998
21.53000 467.207
21.70000 477.060
21.87000 513.941
22.04000 537.009
22.21000 541.766
22.38000 477.876
22.55000 457.042
22.72000 437.041
22.89000 440.158
23.06000 432.484
23.23000 430.492
23.40000 432.467
23.57000 424.861
23.74000 417.373
23.91000 440.293
24.08000 455.825
24.25000 424.125
24.42000 409.462
24.59000 381.777
24.76000 411.482
24.93000 404.534
25.10000 401.754
25.27000 396.203
25.44000 381.063
25.61000 396.908
25.78000 402.384
25.95000 377.974
26.12000 380.684
26.29000 396.862
26.46000 382.612
26.63000 369.725
26.80000 377.299
26.97000 367.156
27.14000 366.794
27.31000 379.787
27.48000 367.913
27.65000 382.539
27.82000 355.710
27.99000 357.917
28.16000 364.708
28.33000 365.151
28.50000 358.127
28.67000 359.611
28.84000 356.311
29.01000 351.194
29.18000 356.224
29.35000 346.838
29.52000 354.388
29.69000 351.627
29.86000 373.246
30.03000 392.505
30.20000 362.457
30.37000 358.638
30.54000 362.316
30.71000 369.072
30.88000 406.288
31.05000 531.106
31.22000 1013.078
31.39000 1421.806
31.56000 822.742
31.73000 448.648
31.90000 373.013
32.07000 350.148
32.24000 314.121
32.41000 313.125
32.58000 311.888
32.75000 309.004
32.92000 510.420
33.09000 408.287
33.26000 294.578
33.43000 276.289
33.60000 301.433
33.77000 302.353
33.94000 296.124
34.11000 308.728
34.28000 309.016
34.45000 303.593
34.62000 299.834
34.79000 295.049
34.96000 283.302
35.13000 274.382
35.30000 256.355
35.47000 262.603
35.64000 258.232
35.81000 259.317
35.98000 254.045
36.15000 262.964
36.32000 262.458
36.49000 249.286
36.66000 262.186
36.83000 249.007
37.00000 284.235
37.17000 264.628
37.34000 254.847
37.51000 251.543
37.68000 248.364
37.85000 243.293
38.02000 265.632
38.19000 279.601
38.36000 321.265
38.53000 632.557
38.70000 970.102
38.87000 736.291
39.04000 310.034
39.21000 234.060
39.38000 242.301
39.55000 232.510
39.72000 240.759
39.89000 221.612
40.06000 218.921
40.23000 212.123
40.40000 221.156
40.57000 215.257
40.74000 214.424
40.91000 209.292
41.08000 191.646
41.25000 213.864
41.42000 205.404
41.59000 213.518
41.76000 203.477
41.93000 190.633
42.10000 202.626
42.27000 205.670
42.44000 206.879
42.61000 193.243
42.78000 186.265
42.95000 204.914
43.12000 178.830
43.29000 196.195
43.46000 183.750
43.63000 196.687
43.80000 196.763
43.97000 186.665
44.14000 189.999
44.31000 200.473
44.48000 197.234
44.65000 214.543
44.82000 232.449
44.99000 253.124
45.16000 267.917
45.33000 233.235
45.50000 215.956
45.67000 193.679
45.84000 197.183
46.01000 182.757
46.18000 187.112
46.35000 177.007
46.52000 167.423
46.69000 175.020
46.86000 151.330
47.03000 168.890
47.20000 165.680
47.37000 162.031
47.54000 161.117
47.71000 155.342
47.88000 162.544
48.05000 154.133
48.22000 167.085
48.39000 162.430
48.56000 146.622
48.73000 159.012
48.90000 148.197
49.07000 159.406
49.24000 151.481
49.41000 147.478
49.58000 156.765
49.75000 157.493
49.92000 159.451
50.09000 146.848
50.26000 156.601
50.43000 179.080
50.60000 186.192
50.77000 169.841
50.94000 163.632
51.11000 154.877
51.28000 143.060
51.45000 146.387
51.62000 147.896
51.79000 142.813
51.96000 129.921
52.13000 139.499
52.30000 139.139
52.47000 140.849
52.64000 136.287
52.81000 135.480
52.98000 142.848
53.15000 145.740
53.32000 158.052
53.49000 146.114
53.66000 143.915
53.83000 139.140
54.00000 136.575
54.17000 141.779
54.34000 141.087
54.51000 151.052
54.68000 139.560
54.85000 142.970
55.02000 141.623
55.19000 144.370
55.36000 155.726
55.53000 222.767
55.70000 383.296
55.87000 560.744
56.04000 533.902
56.21000 325.566
56.38000 186.939
56.55000 139.759
56.72000 134.541
56.89000 130.447
57.06000 129.170
57.23000 119.686
57.40000 118.960
57.57000 132.814
57.74000 123.759
57.91000 119.847
58.08000 124.528
58.25000 121.400
58.42000 116.950
58.59000 127.390
58.76000 114.873
58.93000 114.143
59.10000 110.108
59.27000 122.955
59.44000 108.422
59.61000 116.987
59.78000 113.490
59.95000 119.285
60.12000 116.772
60.29000 117.450
60.46000 132.209
60.63000 111.714
60.80000 116.797
60.97000 117.040
61.14000 120.339
61.31000 123.613
61.48000 127.525
61.65000 289.658
61.82000 197.712
61.99000 132.164
62.16000 141.810
62.33000 126.407
62.50000 132.830
62.67000 119.774
62.84000 129.011
63.01000 129.908
63.18000 127.453
63.35000 124.907
63.52000 139.274
63.69000 130.394
63.86000 144.618
64.03000 141.919
64.20000 133.546
64.37000 150.143
64.54000 155.249
64.71000 165.771
64.88000 165.807
65.05000 200.227
65.22000 240.681
65.39000 268.472
65.56000 352.657
65.73000 1122.324
65.90000 1961.676
66.07000 501.835
66.24000 389.556
66.41000 670.277
66.58000 421.462
66.75000 356.333
66.92000 358.317
67.09000 357.708
67.26000 421.391
67.43000 408.878
67.60000 429.497
67.77000 457.394
67.94000 494.602
68.11000 529.867
68.28000 576.684
68.45000 645.367
68.62000 929.053
68.79000 1675.152
68.96000 11056.695
69.13000 46341.867
69.30000 24585.982
69.47000 5627.408
69.64000 934.049
69.81000 618.802
69.98000 496.521
70.00000 494.866