File: XRD/07-10-2025 Dep 6/XY Data/BTO_Mapping_Theta2Theta_07-10-2025_001_31_-19-563_4-158.xy
20.00000 486.750
20.17000 462.903
20.34000 452.801
20.51000 463.122
20.68000 462.916
20.85000 456.814
21.02000 450.340
21.19000 450.831
21.36000 444.130
21.53000 450.803
21.70000 457.156
21.87000 508.782
22.04000 555.963
22.21000 526.453
22.38000 503.536
22.55000 448.533
22.72000 442.845
22.89000 424.887
23.06000 439.174
23.23000 415.162
23.40000 424.875
23.57000 433.817
23.74000 451.492
23.91000 416.134
24.08000 425.006
24.25000 410.720
24.42000 411.956
24.59000 409.532
24.76000 412.060
24.93000 391.271
25.10000 389.893
25.27000 394.114
25.44000 386.453
25.61000 385.433
25.78000 375.757
25.95000 367.171
26.12000 377.969
26.29000 380.880
26.46000 366.615
26.63000 367.094
26.80000 371.361
26.97000 377.849
27.14000 374.197
27.31000 354.646
27.48000 360.775
27.65000 364.115
27.82000 372.823
27.99000 359.164
28.16000 351.275
28.33000 353.731
28.50000 356.465
28.67000 349.290
28.84000 345.814
29.01000 344.473
29.18000 349.361
29.35000 348.744
29.52000 348.072
29.69000 364.341
29.86000 393.358
30.03000 409.757
30.20000 376.440
30.37000 378.010
30.54000 356.597
30.71000 368.248
30.88000 423.303
31.05000 614.920
31.22000 1468.227
31.39000 2078.197
31.56000 1063.381
31.73000 473.925
31.90000 360.213
32.07000 353.119
32.24000 325.291
32.41000 329.168
32.58000 308.262
32.75000 319.144
32.92000 499.901
33.09000 419.190
33.26000 273.743
33.43000 283.854
33.60000 287.645
33.77000 300.378
33.94000 285.663
34.11000 317.695
34.28000 298.405
34.45000 290.490
34.62000 289.044
34.79000 267.163
34.96000 284.448
35.13000 280.418
35.30000 279.773
35.47000 259.939
35.64000 257.138
35.81000 263.079
35.98000 262.453
36.15000 252.580
36.32000 251.623
36.49000 255.387
36.66000 254.306
36.83000 258.965
37.00000 257.663
37.17000 273.143
37.34000 258.781
37.51000 252.878
37.68000 248.206
37.85000 257.726
38.02000 256.440
38.19000 273.865
38.36000 317.694
38.53000 627.489
38.70000 918.809
38.87000 635.743
39.04000 305.211
39.21000 238.447
39.38000 212.037
39.55000 236.042
39.72000 225.097
39.89000 217.994
40.06000 219.421
40.23000 209.622
40.40000 221.697
40.57000 219.580
40.74000 206.061
40.91000 209.028
41.08000 206.994
41.25000 209.139
41.42000 195.358
41.59000 197.709
41.76000 198.316
41.93000 197.391
42.10000 209.320
42.27000 195.024
42.44000 189.257
42.61000 197.063
42.78000 190.479
42.95000 188.939
43.12000 195.245
43.29000 186.464
43.46000 193.180
43.63000 184.528
43.80000 184.248
43.97000 193.891
44.14000 196.360
44.31000 204.870
44.48000 195.285
44.65000 216.065
44.82000 240.770
44.99000 283.629
45.16000 271.313
45.33000 244.166
45.50000 208.448
45.67000 196.500
45.84000 193.652
46.01000 190.151
46.18000 179.274
46.35000 179.924
46.52000 168.130
46.69000 165.175
46.86000 174.157
47.03000 161.249
47.20000 158.198
47.37000 155.889
47.54000 161.319
47.71000 161.210
47.88000 156.996
48.05000 161.582
48.22000 160.883
48.39000 162.097
48.56000 149.484
48.73000 153.235
48.90000 152.835
49.07000 157.213
49.24000 145.253
49.41000 155.492
49.58000 147.143
49.75000 160.500
49.92000 168.877
50.09000 145.236
50.26000 152.130
50.43000 187.007
50.60000 197.149
50.77000 190.443
50.94000 163.593
51.11000 153.001
51.28000 143.704
51.45000 136.466
51.62000 132.972
51.79000 137.072
51.96000 134.102
52.13000 133.239
52.30000 135.802
52.47000 134.381
52.64000 137.776
52.81000 140.277
52.98000 140.476
53.15000 142.073
53.32000 154.423
53.49000 150.174
53.66000 136.435
53.83000 131.373
54.00000 145.568
54.17000 135.255
54.34000 138.961
54.51000 131.410
54.68000 137.728
54.85000 137.244
55.02000 138.260
55.19000 148.707
55.36000 166.266
55.53000 237.057
55.70000 423.055
55.87000 553.928
56.04000 486.758
56.21000 286.444
56.38000 190.159
56.55000 159.310
56.72000 132.009
56.89000 135.551
57.06000 126.664
57.23000 122.760
57.40000 125.145
57.57000 120.376
57.74000 124.850
57.91000 110.273
58.08000 129.005
58.25000 120.698
58.42000 117.326
58.59000 110.929
58.76000 116.416
58.93000 121.922
59.10000 104.733
59.27000 111.265
59.44000 115.766
59.61000 112.756
59.78000 117.532
59.95000 118.276
60.12000 113.617
60.29000 117.301
60.46000 112.716
60.63000 115.287
60.80000 118.401
60.97000 115.804
61.14000 131.568
61.31000 112.653
61.48000 128.549
61.65000 291.162
61.82000 200.229
61.99000 121.419
62.16000 126.377
62.33000 131.867
62.50000 123.194
62.67000 121.416
62.84000 124.438
63.01000 135.950
63.18000 137.676
63.35000 142.570
63.52000 133.347
63.69000 138.209
63.86000 132.560
64.03000 150.901
64.20000 145.753
64.37000 152.816
64.54000 157.850
64.71000 170.343
64.88000 181.765
65.05000 204.064
65.22000 256.587
65.39000 303.627
65.56000 410.845
65.73000 1213.319
65.90000 2121.311
66.07000 515.074
66.24000 410.157
66.41000 669.505
66.58000 423.864
66.75000 377.990
66.92000 371.813
67.09000 384.586
67.26000 409.945
67.43000 424.900
67.60000 449.153
67.77000 464.410
67.94000 518.204
68.11000 551.589
68.28000 576.451
68.45000 656.654
68.62000 962.209
68.79000 1708.535
68.96000 11708.695
69.13000 48815.039
69.30000 25828.600
69.47000 5903.133
69.64000 947.128
69.81000 600.177
69.98000 514.182
70.00000 497.338