File: XRD/07-10-2025 Dep 6/XY Data/BTO_Mapping_Theta2Theta_07-10-2025_001_42_-5-000_-8-660.xy
20.00000 463.351
20.17000 470.330
20.34000 448.678
20.51000 457.372
20.68000 469.656
20.85000 459.847
21.02000 433.872
21.19000 466.533
21.36000 448.032
21.53000 432.141
21.70000 483.038
21.87000 522.895
22.04000 550.671
22.21000 525.535
22.38000 488.070
22.55000 451.210
22.72000 428.917
22.89000 430.990
23.06000 439.529
23.23000 436.949
23.40000 415.292
23.57000 408.570
23.74000 438.956
23.91000 460.015
24.08000 490.127
24.25000 430.105
24.42000 401.850
24.59000 407.125
24.76000 391.512
24.93000 407.383
25.10000 385.326
25.27000 389.972
25.44000 399.720
25.61000 398.861
25.78000 373.741
25.95000 391.172
26.12000 398.142
26.29000 382.368
26.46000 381.898
26.63000 377.274
26.80000 380.022
26.97000 374.488
27.14000 366.562
27.31000 361.120
27.48000 368.960
27.65000 356.273
27.82000 373.016
27.99000 366.287
28.16000 362.560
28.33000 369.765
28.50000 355.943
28.67000 355.413
28.84000 363.036
29.01000 362.824
29.18000 336.788
29.35000 344.334
29.52000 354.970
29.69000 322.636
29.86000 359.257
30.03000 381.434
30.20000 362.575
30.37000 360.486
30.54000 365.477
30.71000 372.918
30.88000 385.423
31.05000 492.166
31.22000 857.691
31.39000 1168.633
31.56000 749.348
31.73000 428.531
31.90000 358.052
32.07000 344.349
32.24000 320.068
32.41000 300.240
32.58000 301.840
32.75000 315.035
32.92000 485.723
33.09000 414.125
33.26000 303.653
33.43000 276.043
33.60000 292.180
33.77000 307.828
33.94000 297.420
34.11000 318.006
34.28000 326.508
34.45000 332.621
34.62000 310.357
34.79000 287.122
34.96000 289.750
35.13000 271.194
35.30000 254.980
35.47000 272.513
35.64000 258.475
35.81000 251.808
35.98000 253.812
36.15000 256.461
36.32000 261.359
36.49000 241.051
36.66000 248.959
36.83000 268.532
37.00000 278.677
37.17000 262.677
37.34000 252.691
37.51000 260.003
37.68000 261.276
37.85000 252.509
38.02000 255.303
38.19000 260.709
38.36000 322.242
38.53000 626.068
38.70000 1029.276
38.87000 770.072
39.04000 322.153
39.21000 255.800
39.38000 235.780
39.55000 248.857
39.72000 229.155
39.89000 218.809
40.06000 229.256
40.23000 213.185
40.40000 219.593
40.57000 205.984
40.74000 202.111
40.91000 212.974
41.08000 202.903
41.25000 201.835
41.42000 202.303
41.59000 210.175
41.76000 197.040
41.93000 202.205
42.10000 212.013
42.27000 205.824
42.44000 198.426
42.61000 209.009
42.78000 211.082
42.95000 186.723
43.12000 194.517
43.29000 194.285
43.46000 187.299
43.63000 194.031
43.80000 200.441
43.97000 183.110
44.14000 194.468
44.31000 209.687
44.48000 207.025
44.65000 216.908
44.82000 234.915
44.99000 255.669
45.16000 250.853
45.33000 233.375
45.50000 198.923
45.67000 197.331
45.84000 186.702
46.01000 173.680
46.18000 174.355
46.35000 169.730
46.52000 164.774
46.69000 171.035
46.86000 163.422
47.03000 158.108
47.20000 166.241
47.37000 158.228
47.54000 165.200
47.71000 158.237
47.88000 160.751
48.05000 154.412
48.22000 149.390
48.39000 171.547
48.56000 158.749
48.73000 150.793
48.90000 144.276
49.07000 148.828
49.24000 157.095
49.41000 152.289
49.58000 149.611
49.75000 149.616
49.92000 163.806
50.09000 146.112
50.26000 148.455
50.43000 151.052
50.60000 168.265
50.77000 179.376
50.94000 151.420
51.11000 148.408
51.28000 134.026
51.45000 132.604
51.62000 144.314
51.79000 139.616
51.96000 130.202
52.13000 140.065
52.30000 140.123
52.47000 133.902
52.64000 137.109
52.81000 140.467
52.98000 140.597
53.15000 136.216
53.32000 152.424
53.49000 161.964
53.66000 150.104
53.83000 139.796
54.00000 133.109
54.17000 139.245
54.34000 135.088
54.51000 140.951
54.68000 128.937
54.85000 143.472
55.02000 152.117
55.19000 151.527
55.36000 162.620
55.53000 213.619
55.70000 383.282
55.87000 584.211
56.04000 565.542
56.21000 326.316
56.38000 197.167
56.55000 151.322
56.72000 136.442
56.89000 116.995
57.06000 133.979
57.23000 127.601
57.40000 142.941
57.57000 123.512
57.74000 122.970
57.91000 113.518
58.08000 123.861
58.25000 117.567
58.42000 118.950
58.59000 125.878
58.76000 125.011
58.93000 118.781
59.10000 118.145
59.27000 117.029
59.44000 122.279
59.61000 119.592
59.78000 111.188
59.95000 111.540
60.12000 116.836
60.29000 118.987
60.46000 110.110
60.63000 119.321
60.80000 112.812
60.97000 117.448
61.14000 125.780
61.31000 121.420
61.48000 127.699
61.65000 293.950
61.82000 191.968
61.99000 130.532
62.16000 126.142
62.33000 117.794
62.50000 131.678
62.67000 126.175
62.84000 123.415
63.01000 128.167
63.18000 137.459
63.35000 135.913
63.52000 135.331
63.69000 127.394
63.86000 145.346
64.03000 145.077
64.20000 144.874
64.37000 142.437
64.54000 154.048
64.71000 158.399
64.88000 172.694
65.05000 198.328
65.22000 220.328
65.39000 252.644
65.56000 327.008
65.73000 1056.313
65.90000 1956.226
66.07000 491.161
66.24000 387.084
66.41000 617.246
66.58000 404.763
66.75000 347.454
66.92000 367.013
67.09000 374.366
67.26000 388.540
67.43000 405.509
67.60000 425.797
67.77000 461.014
67.94000 470.352
68.11000 530.833
68.28000 566.585
68.45000 635.436
68.62000 893.167
68.79000 1583.206
68.96000 9621.327
69.13000 44246.484
69.30000 23899.803
69.47000 5688.909
69.64000 914.128
69.81000 603.611
69.98000 509.179
70.00000 501.543