File: XRD/07-10-2025 Dep 6/XY Data/BTO_Mapping_Theta2Theta_07-10-2025_001_48_-3-136_-29-836.xy
20.00000 484.586
20.17000 465.055
20.34000 454.360
20.51000 470.419
20.68000 460.498
20.85000 455.760
21.02000 452.943
21.19000 470.360
21.36000 466.147
21.53000 480.524
21.70000 481.073
21.87000 499.350
22.04000 552.257
22.21000 525.974
22.38000 472.803
22.55000 463.893
22.72000 443.425
22.89000 427.121
23.06000 425.751
23.23000 420.918
23.40000 429.889
23.57000 446.107
23.74000 447.074
23.91000 481.144
24.08000 462.031
24.25000 437.300
24.42000 429.530
24.59000 409.589
24.76000 399.039
24.93000 415.527
25.10000 407.581
25.27000 403.872
25.44000 385.841
25.61000 422.237
25.78000 381.997
25.95000 402.998
26.12000 391.487
26.29000 384.819
26.46000 389.526
26.63000 377.681
26.80000 383.211
26.97000 376.842
27.14000 357.143
27.31000 361.395
27.48000 393.840
27.65000 381.029
27.82000 351.389
27.99000 354.394
28.16000 365.118
28.33000 363.892
28.50000 362.773
28.67000 341.643
28.84000 341.514
29.01000 355.164
29.18000 341.545
29.35000 352.520
29.52000 350.807
29.69000 361.044
29.86000 362.736
30.03000 379.237
30.20000 364.072
30.37000 350.300
30.54000 347.023
30.71000 358.926
30.88000 402.275
31.05000 505.640
31.22000 903.423
31.39000 1227.257
31.56000 753.060
31.73000 455.325
31.90000 355.816
32.07000 355.319
32.24000 330.075
32.41000 317.299
32.58000 307.023
32.75000 316.104
32.92000 489.367
33.09000 423.956
33.26000 295.499
33.43000 305.556
33.60000 291.113
33.77000 289.530
33.94000 288.618
34.11000 313.338
34.28000 319.763
34.45000 312.209
34.62000 312.952
34.79000 303.270
34.96000 299.557
35.13000 261.082
35.30000 274.814
35.47000 267.923
35.64000 270.750
35.81000 276.831
35.98000 250.385
36.15000 261.763
36.32000 263.516
36.49000 249.715
36.66000 251.096
36.83000 277.884
37.00000 278.776
37.17000 274.779
37.34000 264.695
37.51000 244.509
37.68000 260.801
37.85000 252.921
38.02000 238.103
38.19000 253.463
38.36000 337.131
38.53000 637.125
38.70000 1087.911
38.87000 785.120
39.04000 345.923
39.21000 237.600
39.38000 255.372
39.55000 218.614
39.72000 247.978
39.89000 235.126
40.06000 224.137
40.23000 214.846
40.40000 219.381
40.57000 223.831
40.74000 212.114
40.91000 220.115
41.08000 189.291
41.25000 209.677
41.42000 207.614
41.59000 202.727
41.76000 212.601
41.93000 204.669
42.10000 205.141
42.27000 216.948
42.44000 199.232
42.61000 199.897
42.78000 210.745
42.95000 195.611
43.12000 194.463
43.29000 190.127
43.46000 191.516
43.63000 185.456
43.80000 194.429
43.97000 204.042
44.14000 192.055
44.31000 195.837
44.48000 214.993
44.65000 228.176
44.82000 231.657
44.99000 274.733
45.16000 269.493
45.33000 228.104
45.50000 207.721
45.67000 202.873
45.84000 185.796
46.01000 187.680
46.18000 171.702
46.35000 177.036
46.52000 177.091
46.69000 170.344
46.86000 182.300
47.03000 159.215
47.20000 172.536
47.37000 169.869
47.54000 165.766
47.71000 152.171
47.88000 163.713
48.05000 153.957
48.22000 145.252
48.39000 150.822
48.56000 151.548
48.73000 154.092
48.90000 150.465
49.07000 156.166
49.24000 159.471
49.41000 157.085
49.58000 153.038
49.75000 144.502
49.92000 144.492
50.09000 144.792
50.26000 153.385
50.43000 160.933
50.60000 179.259
50.77000 162.579
50.94000 159.400
51.11000 155.841
51.28000 147.934
51.45000 152.135
51.62000 141.083
51.79000 142.614
51.96000 136.304
52.13000 140.210
52.30000 144.794
52.47000 142.130
52.64000 134.528
52.81000 133.698
52.98000 144.333
53.15000 147.261
53.32000 153.233
53.49000 146.885
53.66000 147.046
53.83000 137.120
54.00000 142.877
54.17000 139.258
54.34000 136.636
54.51000 145.158
54.68000 139.355
54.85000 144.210
55.02000 144.400
55.19000 158.288
55.36000 160.559
55.53000 228.092
55.70000 407.568
55.87000 619.920
56.04000 571.923
56.21000 346.231
56.38000 188.532
56.55000 156.744
56.72000 133.679
56.89000 131.041
57.06000 131.924
57.23000 123.516
57.40000 122.888
57.57000 118.717
57.74000 127.035
57.91000 121.299
58.08000 119.807
58.25000 118.944
58.42000 128.001
58.59000 113.801
58.76000 118.914
58.93000 117.570
59.10000 119.499
59.27000 116.583
59.44000 114.016
59.61000 122.709
59.78000 118.844
59.95000 110.075
60.12000 109.453
60.29000 117.697
60.46000 109.662
60.63000 109.308
60.80000 110.184
60.97000 114.164
61.14000 128.975
61.31000 122.877
61.48000 137.838
61.65000 270.039
61.82000 191.399
61.99000 131.002
62.16000 127.784
62.33000 117.075
62.50000 130.596
62.67000 124.970
62.84000 129.993
63.01000 126.912
63.18000 118.743
63.35000 142.032
63.52000 130.185
63.69000 136.905
63.86000 133.290
64.03000 136.244
64.20000 144.562
64.37000 152.392
64.54000 159.373
64.71000 168.860
64.88000 172.925
65.05000 190.575
65.22000 211.581
65.39000 252.896
65.56000 317.413
65.73000 1012.878
65.90000 1921.317
66.07000 511.943
66.24000 373.941
66.41000 612.095
66.58000 401.129
66.75000 349.985
66.92000 348.068
67.09000 372.849
67.26000 385.791
67.43000 399.951
67.60000 430.551
67.77000 440.331
67.94000 472.952
68.11000 512.733
68.28000 561.087
68.45000 638.049
68.62000 883.568
68.79000 1554.938
68.96000 9362.442
69.13000 43802.578
69.30000 23825.445
69.47000 5732.124
69.64000 905.595
69.81000 621.819
69.98000 486.566
70.00000 488.424