File: XRD/07-10-2025 Dep 6/XY Data/BTO_Mapping_Theta2Theta_07-10-2025_001_13_26-765_29-726.xy
20.00000 457.715
20.17000 464.880
20.34000 462.774
20.51000 469.594
20.68000 471.422
20.85000 476.492
21.02000 449.738
21.19000 469.661
21.36000 460.081
21.53000 474.210
21.70000 461.273
21.87000 476.003
22.04000 480.907
22.21000 490.587
22.38000 471.978
22.55000 445.501
22.72000 453.703
22.89000 443.521
23.06000 448.433
23.23000 444.819
23.40000 440.973
23.57000 443.853
23.74000 467.729
23.91000 487.663
24.08000 482.617
24.25000 456.887
24.42000 438.077
24.59000 432.750
24.76000 422.408
24.93000 423.774
25.10000 405.442
25.27000 389.384
25.44000 396.768
25.61000 387.299
25.78000 382.591
25.95000 417.899
26.12000 395.169
26.29000 381.052
26.46000 386.148
26.63000 387.259
26.80000 392.295
26.97000 389.606
27.14000 362.080
27.31000 374.652
27.48000 367.933
27.65000 371.243
27.82000 373.498
27.99000 374.349
28.16000 369.360
28.33000 354.567
28.50000 368.636
28.67000 381.688
28.84000 370.760
29.01000 361.726
29.18000 383.890
29.35000 367.735
29.52000 364.168
29.69000 375.243
29.86000 377.923
30.03000 362.353
30.20000 371.318
30.37000 361.945
30.54000 342.436
30.71000 381.564
30.88000 390.126
31.05000 476.123
31.22000 685.624
31.39000 886.426
31.56000 675.494
31.73000 461.520
31.90000 398.464
32.07000 367.642
32.24000 339.203
32.41000 332.181
32.58000 302.201
32.75000 310.135
32.92000 504.336
33.09000 433.315
33.26000 295.669
33.43000 286.294
33.60000 289.422
33.77000 292.652
33.94000 300.883
34.11000 295.413
34.28000 307.765
34.45000 298.478
34.62000 293.668
34.79000 279.238
34.96000 285.182
35.13000 276.695
35.30000 260.937
35.47000 272.521
35.64000 263.840
35.81000 255.678
35.98000 256.431
36.15000 247.722
36.32000 251.212
36.49000 266.502
36.66000 256.141
36.83000 265.249
37.00000 239.520
37.17000 250.578
37.34000 241.453
37.51000 252.107
37.68000 232.942
37.85000 243.714
38.02000 246.334
38.19000 252.481
38.36000 276.007
38.53000 369.698
38.70000 498.668
38.87000 393.282
39.04000 277.030
39.21000 249.248
39.38000 232.272
39.55000 244.474
39.72000 229.704
39.89000 231.903
40.06000 222.588
40.23000 224.484
40.40000 217.952
40.57000 225.327
40.74000 203.575
40.91000 215.188
41.08000 208.041
41.25000 212.755
41.42000 203.585
41.59000 208.960
41.76000 198.500
41.93000 211.140
42.10000 206.658
42.27000 217.341
42.44000 214.466
42.61000 219.687
42.78000 198.659
42.95000 204.204
43.12000 195.559
43.29000 184.839
43.46000 204.791
43.63000 192.241
43.80000 205.258
43.97000 193.877
44.14000 179.448
44.31000 193.441
44.48000 189.225
44.65000 201.675
44.82000 208.470
44.99000 212.213
45.16000 215.473
45.33000 200.639
45.50000 203.807
45.67000 192.855
45.84000 181.795
46.01000 173.997
46.18000 162.695
46.35000 182.863
46.52000 175.921
46.69000 174.521
46.86000 172.075
47.03000 153.630
47.20000 169.505
47.37000 159.774
47.54000 161.267
47.71000 157.854
47.88000 156.549
48.05000 169.488
48.22000 164.285
48.39000 159.586
48.56000 157.388
48.73000 157.744
48.90000 151.774
49.07000 153.955
49.24000 150.801
49.41000 153.913
49.58000 148.525
49.75000 144.994
49.92000 143.519
50.09000 157.558
50.26000 155.222
50.43000 156.615
50.60000 163.466
50.77000 160.085
50.94000 151.887
51.11000 149.669
51.28000 147.183
51.45000 141.080
51.62000 143.844
51.79000 144.847
51.96000 137.298
52.13000 142.214
52.30000 140.923
52.47000 140.662
52.64000 146.415
52.81000 139.270
52.98000 153.115
53.15000 140.902
53.32000 143.560
53.49000 141.606
53.66000 141.899
53.83000 136.132
54.00000 135.285
54.17000 143.068
54.34000 129.764
54.51000 133.157
54.68000 139.845
54.85000 137.771
55.02000 140.114
55.19000 136.209
55.36000 146.100
55.53000 169.655
55.70000 187.450
55.87000 224.953
56.04000 235.663
56.21000 181.986
56.38000 167.156
56.55000 141.758
56.72000 119.458
56.89000 124.303
57.06000 122.882
57.23000 123.604
57.40000 124.203
57.57000 128.192
57.74000 130.566
57.91000 128.895
58.08000 119.419
58.25000 119.824
58.42000 117.409
58.59000 119.902
58.76000 118.078
58.93000 120.194
59.10000 125.127
59.27000 119.426
59.44000 112.309
59.61000 115.454
59.78000 118.406
59.95000 120.424
60.12000 125.223
60.29000 113.764
60.46000 118.450
60.63000 123.429
60.80000 121.440
60.97000 118.033
61.14000 122.817
61.31000 123.779
61.48000 130.569
61.65000 274.098
61.82000 208.724
61.99000 131.293
62.16000 141.267
62.33000 129.860
62.50000 124.699
62.67000 127.780
62.84000 132.377
63.01000 130.668
63.18000 130.650
63.35000 139.421
63.52000 131.818
63.69000 139.526
63.86000 137.613
64.03000 149.392
64.20000 140.506
64.37000 162.155
64.54000 172.947
64.71000 177.802
64.88000 174.373
65.05000 194.201
65.22000 212.500
65.39000 245.329
65.56000 297.327
65.73000 1002.496
65.90000 2037.065
66.07000 539.494
66.24000 408.271
66.41000 646.995
66.58000 419.759
66.75000 367.610
66.92000 370.524
67.09000 392.477
67.26000 413.016
67.43000 430.210
67.60000 429.035
67.77000 478.772
67.94000 507.908
68.11000 528.409
68.28000 619.409
68.45000 668.230
68.62000 907.636
68.79000 1642.142
68.96000 8647.395
69.13000 45791.570
69.30000 25730.533
69.47000 6757.304
69.64000 988.146
69.81000 628.395
69.98000 514.726
70.00000 512.930