File: XRD/17-11-2025 Crystal Plates/XY Data/Deposition_9-1.xy
20.00000 762.398
20.17000 788.893
20.34000 858.037
20.51000 1163.801
20.68000 1977.336
20.85000 1585.111
21.02000 1830.366
21.19000 3453.425
21.36000 12680.027
21.53000 86220.906
21.70000 60479.242
21.87000 4623.119
22.04000 1892.473
22.21000 1321.837
22.38000 1190.608
22.55000 1561.738
22.72000 23513.039
22.89000 14166.383
23.06000 1040.755
23.23000 883.738
23.40000 813.770
23.57000 786.961
23.74000 765.535
23.91000 713.903
24.08000 720.503
24.25000 700.778
24.42000 704.398
24.59000 674.766
24.76000 668.222
24.93000 668.498
25.10000 650.767
25.27000 635.005
25.44000 635.786
25.61000 605.797
25.78000 600.237
25.95000 609.623
26.12000 610.311
26.29000 609.192
26.46000 574.427
26.63000 611.977
26.80000 573.002
26.97000 561.255
27.14000 557.906
27.31000 549.711
27.48000 537.397
27.65000 548.775
27.82000 552.405
27.99000 520.944
28.16000 527.570
28.33000 530.813
28.50000 525.999
28.67000 515.470
28.84000 514.768
29.01000 499.964
29.18000 524.643
29.35000 518.919
29.52000 495.722
29.69000 476.781
29.86000 483.647
30.03000 483.161
30.20000 473.295
30.37000 471.692
30.54000 456.363
30.71000 457.586
30.88000 459.947
31.05000 478.764
31.22000 477.862
31.39000 492.358
31.56000 449.890
31.73000 452.155
31.90000 449.004
32.07000 447.827
32.24000 434.730
32.41000 438.800
32.58000 421.365
32.75000 412.121
32.92000 440.266
33.09000 432.384
33.26000 423.520
33.43000 418.306
33.60000 410.580
33.77000 421.559
33.94000 406.659
34.11000 417.670
34.28000 406.511
34.45000 399.402
34.62000 395.672
34.79000 406.170
34.96000 411.003
35.13000 401.675
35.30000 409.084
35.47000 394.746
35.64000 389.129
35.81000 394.682
35.98000 396.508
36.15000 386.818
36.32000 394.333
36.49000 384.945
36.66000 393.069
36.83000 385.160
37.00000 390.929
37.17000 396.532
37.34000 383.247
37.51000 391.612
37.68000 393.138
37.85000 381.996
38.02000 415.650
38.19000 398.770
38.36000 419.467
38.53000 414.382
38.70000 418.058
38.87000 434.448
39.04000 445.847
39.21000 484.235
39.38000 573.838
39.55000 763.526
39.72000 584.222
39.89000 513.107
40.06000 535.164
40.23000 582.242
40.40000 586.678
40.57000 606.030
40.74000 638.619
40.91000 675.427
41.08000 709.841
41.25000 808.691
41.42000 906.559
41.59000 1080.938
41.76000 1832.553
41.93000 2442.429
42.10000 2859.239
42.27000 2033.548
42.44000 2025.522
42.61000 2090.915
42.78000 2493.724
42.95000 3242.556
43.12000 4380.966
43.29000 6899.532
43.46000 12548.718
43.63000 28228.516
43.80000 76995.914
43.97000 165549.422
44.14000 90837.313
44.31000 17297.523
44.48000 8751.039
44.65000 4514.391
44.82000 3880.728
44.99000 3198.706
45.16000 3153.801
45.33000 2595.178
45.50000 2429.521
45.67000 2441.191
45.84000 2665.717
46.01000 3127.741
46.18000 6082.600
46.35000 100115.906
46.52000 280560.469
46.69000 80117.047
46.86000 4711.313
47.03000 2759.406
47.20000 2149.977
47.37000 1669.794
47.54000 1349.082
47.71000 1150.499
47.88000 978.870
48.05000 834.130
48.22000 730.888
48.39000 652.567
48.56000 570.760
48.73000 524.461
48.90000 497.041
49.07000 467.987
49.24000 429.516
49.41000 419.278
49.58000 375.823
49.75000 367.925
49.92000 339.259
50.09000 322.952
50.26000 315.934
50.43000 307.807
50.60000 301.943
50.77000 305.438
50.94000 292.287
51.11000 268.548
51.28000 274.532
51.45000 256.551
51.62000 254.075
51.79000 249.722
51.96000 233.078
52.13000 244.993
52.30000 232.968
52.47000 236.224
52.64000 217.155
52.81000 221.698
52.98000 217.654
53.15000 212.940
53.32000 211.137
53.49000 213.786
53.66000 209.182
53.83000 195.907
54.00000 201.750
54.17000 192.824
54.34000 204.553
54.51000 199.034
54.68000 204.405
54.85000 196.176
55.02000 191.613
55.19000 180.723
55.36000 183.693
55.53000 181.373
55.70000 196.714
55.87000 186.949
56.04000 184.152
56.21000 181.104
56.38000 179.222
56.55000 169.524
56.72000 170.380
56.89000 179.831
57.06000 169.044
57.23000 167.932
57.40000 168.667
57.57000 167.734
57.74000 175.094
57.91000 161.867
58.08000 165.234
58.25000 173.911
58.42000 171.056
58.59000 151.506
58.76000 153.029
58.93000 150.541
59.10000 158.844
59.27000 161.658
59.44000 146.571
59.61000 163.148
59.78000 163.875
59.95000 153.262
60.12000 142.240
60.29000 152.982
60.46000 160.864
60.63000 145.244
60.80000 151.266
60.97000 157.817
61.14000 164.761
61.31000 149.165
61.48000 143.399
61.65000 147.439
61.82000 146.654
61.99000 143.479
62.16000 144.740
62.33000 148.471
62.50000 163.524
62.67000 136.508
62.84000 142.760
63.01000 140.099
63.18000 139.000
63.35000 141.925
63.52000 147.332
63.69000 142.034
63.86000 139.813
64.03000 152.406
64.20000 154.598
64.37000 150.815
64.54000 151.203
64.71000 162.238
64.88000 154.769
65.05000 178.982
65.22000 172.456
65.39000 166.266
65.56000 155.089
65.73000 154.502
65.90000 168.363
66.07000 162.234
66.24000 179.142
66.41000 179.661
66.58000 180.115
66.75000 196.841
66.92000 205.388
67.09000 230.531
67.26000 261.925
67.43000 320.609
67.60000 385.171
67.77000 580.646
67.94000 854.936
68.11000 1518.292
68.28000 2612.993
68.45000 2363.526
68.62000 1210.633
68.79000 490.711
68.96000 342.099
69.13000 361.064
69.30000 257.767
69.47000 236.295
69.64000 224.681
69.81000 219.663
69.98000 203.366
70.00000 206.917