File: XRD/17-11-2025 Crystal Plates/XY Data/Deposition_10-3.xy
20.00000 727.871
20.17000 708.549
20.34000 722.552
20.51000 812.701
20.68000 794.681
20.85000 781.647
21.02000 940.861
21.19000 1013.976
21.36000 1096.013
21.53000 1566.511
21.70000 3718.239
21.87000 11303.416
22.04000 13583.986
22.21000 5174.750
22.38000 2081.614
22.55000 2359.597
22.72000 47767.457
22.89000 26592.969
23.06000 1271.854
23.23000 936.218
23.40000 833.873
23.57000 721.595
23.74000 676.314
23.91000 641.453
24.08000 648.299
24.25000 633.405
24.42000 623.529
24.59000 594.142
24.76000 595.014
24.93000 614.334
25.10000 571.933
25.27000 577.904
25.44000 570.317
25.61000 563.512
25.78000 562.266
25.95000 559.804
26.12000 548.021
26.29000 551.821
26.46000 554.113
26.63000 545.372
26.80000 531.444
26.97000 538.916
27.14000 523.370
27.31000 524.614
27.48000 512.636
27.65000 505.557
27.82000 513.409
27.99000 520.853
28.16000 514.840
28.33000 512.557
28.50000 505.570
28.67000 499.905
28.84000 494.232
29.01000 485.210
29.18000 485.397
29.35000 492.204
29.52000 456.698
29.69000 479.594
29.86000 478.582
30.03000 455.477
30.20000 464.113
30.37000 456.600
30.54000 454.432
30.71000 450.887
30.88000 457.845
31.05000 436.083
31.22000 451.297
31.39000 439.210
31.56000 440.008
31.73000 437.987
31.90000 442.074
32.07000 432.184
32.24000 416.595
32.41000 423.712
32.58000 425.057
32.75000 421.037
32.92000 425.557
33.09000 420.040
33.26000 422.481
33.43000 410.942
33.60000 406.581
33.77000 395.226
33.94000 420.147
34.11000 395.152
34.28000 394.792
34.45000 393.579
34.62000 390.038
34.79000 395.897
34.96000 373.236
35.13000 377.089
35.30000 384.609
35.47000 368.129
35.64000 369.443
35.81000 357.342
35.98000 361.864
36.15000 366.193
36.32000 362.873
36.49000 364.622
36.66000 366.561
36.83000 358.092
37.00000 367.282
37.17000 349.661
37.34000 359.430
37.51000 348.365
37.68000 336.325
37.85000 336.261
38.02000 352.448
38.19000 330.790
38.36000 356.468
38.53000 326.141
38.70000 325.827
38.87000 340.206
39.04000 317.620
39.21000 337.401
39.38000 342.633
39.55000 333.212
39.72000 326.477
39.89000 339.204
40.06000 339.012
40.23000 339.559
40.40000 330.108
40.57000 359.339
40.74000 345.646
40.91000 345.007
41.08000 341.254
41.25000 366.146
41.42000 390.903
41.59000 410.340
41.76000 948.516
41.93000 540.134
42.10000 435.333
42.27000 416.325
42.44000 462.374
42.61000 559.418
42.78000 623.561
42.95000 654.961
43.12000 677.512
43.29000 686.990
43.46000 788.235
43.63000 924.880
43.80000 1133.029
43.97000 1505.446
44.14000 2280.314
44.31000 5390.280
44.48000 10537.026
44.65000 12750.677
44.82000 15931.543
44.99000 12724.838
45.16000 7377.878
45.33000 3932.906
45.50000 2764.039
45.67000 2478.266
45.84000 2587.921
46.01000 3181.700
46.18000 7167.520
46.35000 137458.188
46.52000 359565.531
46.69000 95809.047
46.86000 5315.452
47.03000 2932.490
47.20000 2166.393
47.37000 1671.973
47.54000 1324.642
47.71000 1047.765
47.88000 840.597
48.05000 700.807
48.22000 593.548
48.39000 515.212
48.56000 460.884
48.73000 434.652
48.90000 407.408
49.07000 392.028
49.24000 371.765
49.41000 346.182
49.58000 318.057
49.75000 314.479
49.92000 292.280
50.09000 282.504
50.26000 295.076
50.43000 283.637
50.60000 291.450
50.77000 269.024
50.94000 294.822
51.11000 266.901
51.28000 235.279
51.45000 253.419
51.62000 222.779
51.79000 225.355
51.96000 228.357
52.13000 226.169
52.30000 223.724
52.47000 225.323
52.64000 212.159
52.81000 194.592
52.98000 215.292
53.15000 213.813
53.32000 207.715
53.49000 224.529
53.66000 195.852
53.83000 199.931
54.00000 196.826
54.17000 198.988
54.34000 197.148
54.51000 193.043
54.68000 205.983
54.85000 185.857
55.02000 187.576
55.19000 206.487
55.36000 217.007
55.53000 230.330
55.70000 272.800
55.87000 321.464
56.04000 309.787
56.21000 247.558
56.38000 208.462
56.55000 201.060
56.72000 190.013
56.89000 186.195
57.06000 174.971
57.23000 169.054
57.40000 164.717
57.57000 162.966
57.74000 164.671
57.91000 172.032
58.08000 166.694
58.25000 162.538
58.42000 153.991
58.59000 164.718
58.76000 164.517
58.93000 155.720
59.10000 162.301
59.27000 162.369
59.44000 155.606
59.61000 150.739
59.78000 154.353
59.95000 154.078
60.12000 149.134
60.29000 156.532
60.46000 152.766
60.63000 163.298
60.80000 151.967
60.97000 153.690
61.14000 143.062
61.31000 138.400
61.48000 148.107
61.65000 144.316
61.82000 135.648
61.99000 157.374
62.16000 146.453
62.33000 151.204
62.50000 155.502
62.67000 136.060
62.84000 149.461
63.01000 138.401
63.18000 132.006
63.35000 144.061
63.52000 140.313
63.69000 147.321
63.86000 138.096
64.03000 140.865
64.20000 136.596
64.37000 129.449
64.54000 144.049
64.71000 158.916
64.88000 128.664
65.05000 136.309
65.22000 132.232
65.39000 133.294
65.56000 150.203
65.73000 129.253
65.90000 154.890
66.07000 133.312
66.24000 136.626
66.41000 130.502
66.58000 126.800
66.75000 132.222
66.92000 136.301
67.09000 131.497
67.26000 134.311
67.43000 141.480
67.60000 123.197
67.77000 133.533
67.94000 144.741
68.11000 149.746
68.28000 148.213
68.45000 153.167
68.62000 158.359
68.79000 185.597
68.96000 245.194
69.13000 319.384
69.30000 296.136
69.47000 359.857
69.64000 421.411
69.81000 454.790
69.98000 431.571
70.00000 426.599