File: XRD/17-11-2025 Crystal Plates/XY Data/Deposition_11-1.xy
20.00000 737.824
20.17000 756.581
20.34000 791.272
20.51000 906.776
20.68000 968.947
20.85000 1513.262
21.02000 1695.899
21.19000 1914.038
21.36000 2612.098
21.53000 4122.177
21.70000 24543.672
21.87000 52581.414
22.04000 7959.634
22.21000 1767.347
22.38000 1331.366
22.55000 1919.485
22.72000 37165.742
22.89000 20038.145
23.06000 1147.550
23.23000 915.309
23.40000 783.087
23.57000 741.398
23.74000 697.766
23.91000 674.505
24.08000 661.158
24.25000 637.221
24.42000 641.474
24.59000 649.174
24.76000 638.835
24.93000 609.985
25.10000 616.298
25.27000 594.140
25.44000 607.235
25.61000 589.595
25.78000 589.925
25.95000 591.850
26.12000 587.286
26.29000 574.528
26.46000 559.223
26.63000 546.498
26.80000 546.897
26.97000 556.004
27.14000 565.297
27.31000 524.246
27.48000 530.623
27.65000 531.339
27.82000 519.349
27.99000 518.313
28.16000 530.096
28.33000 523.230
28.50000 514.426
28.67000 501.828
28.84000 493.831
29.01000 505.701
29.18000 492.845
29.35000 493.418
29.52000 470.561
29.69000 476.398
29.86000 483.643
30.03000 477.234
30.20000 472.917
30.37000 476.830
30.54000 474.453
30.71000 483.481
30.88000 446.073
31.05000 455.211
31.22000 439.644
31.39000 442.494
31.56000 457.191
31.73000 438.479
31.90000 434.778
32.07000 416.790
32.24000 434.012
32.41000 415.783
32.58000 414.153
32.75000 449.077
32.92000 432.996
33.09000 406.436
33.26000 420.661
33.43000 404.551
33.60000 415.579
33.77000 403.229
33.94000 401.149
34.11000 412.279
34.28000 404.890
34.45000 401.820
34.62000 397.441
34.79000 378.081
34.96000 378.349
35.13000 395.128
35.30000 402.194
35.47000 378.525
35.64000 380.099
35.81000 365.302
35.98000 376.430
36.15000 370.709
36.32000 378.301
36.49000 375.003
36.66000 370.949
36.83000 357.634
37.00000 355.649
37.17000 376.599
37.34000 353.742
37.51000 366.993
37.68000 365.428
37.85000 346.900
38.02000 357.152
38.19000 345.295
38.36000 366.865
38.53000 368.619
38.70000 366.526
38.87000 375.007
39.04000 374.902
39.21000 352.327
39.38000 394.233
39.55000 377.078
39.72000 401.018
39.89000 480.835
40.06000 537.317
40.23000 425.419
40.40000 413.040
40.57000 403.456
40.74000 426.487
40.91000 429.459
41.08000 471.326
41.25000 497.164
41.42000 529.689
41.59000 619.026
41.76000 1121.348
41.93000 818.459
42.10000 810.104
42.27000 985.133
42.44000 1669.635
42.61000 2070.685
42.78000 1807.422
42.95000 1909.108
43.12000 2119.668
43.29000 2461.873
43.46000 2910.531
43.63000 3420.962
43.80000 4251.722
43.97000 5547.479
44.14000 9169.242
44.31000 32811.746
44.48000 92548.289
44.65000 55106.910
44.82000 11539.717
44.99000 4060.128
45.16000 2861.430
45.33000 2504.069
45.50000 2397.413
45.67000 2458.781
45.84000 2598.102
46.01000 3181.808
46.18000 6817.562
46.35000 126071.328
46.52000 323111.125
46.69000 85081.156
46.86000 5066.677
47.03000 2897.441
47.20000 2121.998
47.37000 1655.930
47.54000 1345.204
47.71000 1073.937
47.88000 956.466
48.05000 772.253
48.22000 682.648
48.39000 586.112
48.56000 554.570
48.73000 477.605
48.90000 452.070
49.07000 420.469
49.24000 389.526
49.41000 365.508
49.58000 348.849
49.75000 336.256
49.92000 330.465
50.09000 320.691
50.26000 296.422
50.43000 307.874
50.60000 281.782
50.77000 290.794
50.94000 282.435
51.11000 262.723
51.28000 253.126
51.45000 254.062
51.62000 252.660
51.79000 234.565
51.96000 237.163
52.13000 233.208
52.30000 229.523
52.47000 212.266
52.64000 221.573
52.81000 210.220
52.98000 206.721
53.15000 204.576
53.32000 214.102
53.49000 207.274
53.66000 200.138
53.83000 193.788
54.00000 200.397
54.17000 197.210
54.34000 192.490
54.51000 196.656
54.68000 182.273
54.85000 181.213
55.02000 190.079
55.19000 189.667
55.36000 177.132
55.53000 184.096
55.70000 177.032
55.87000 173.675
56.04000 182.073
56.21000 182.713
56.38000 175.694
56.55000 172.620
56.72000 172.560
56.89000 176.135
57.06000 171.545
57.23000 172.899
57.40000 168.317
57.57000 171.940
57.74000 170.099
57.91000 163.024
58.08000 175.329
58.25000 166.447
58.42000 162.390
58.59000 156.018
58.76000 170.560
58.93000 165.437
59.10000 146.443
59.27000 166.767
59.44000 153.617
59.61000 154.607
59.78000 147.768
59.95000 147.221
60.12000 154.508
60.29000 142.325
60.46000 151.630
60.63000 141.356
60.80000 155.852
60.97000 143.682
61.14000 153.060
61.31000 153.756
61.48000 145.227
61.65000 148.862
61.82000 149.310
61.99000 142.706
62.16000 148.494
62.33000 140.785
62.50000 138.227
62.67000 153.758
62.84000 137.674
63.01000 135.737
63.18000 142.458
63.35000 144.890
63.52000 135.504
63.69000 136.766
63.86000 135.103
64.03000 138.059
64.20000 140.951
64.37000 137.009
64.54000 145.528
64.71000 161.367
64.88000 135.952
65.05000 150.811
65.22000 144.801
65.39000 147.467
65.56000 143.788
65.73000 156.885
65.90000 160.802
66.07000 146.204
66.24000 154.228
66.41000 154.537
66.58000 156.166
66.75000 154.657
66.92000 166.180
67.09000 155.345
67.26000 161.911
67.43000 176.076
67.60000 178.190
67.77000 189.468
67.94000 183.235
68.11000 201.995
68.28000 197.848
68.45000 226.369
68.62000 267.843
68.79000 352.096
68.96000 697.294
69.13000 1522.039
69.30000 1487.821
69.47000 840.429
69.64000 408.026
69.81000 257.999
69.98000 218.055
70.00000 218.015