File: XRD/17-11-2025 Crystal Plates/XY Data/Deposition_10-2.xy
20.00000 727.577
20.17000 708.672
20.34000 739.767
20.51000 795.666
20.68000 782.098
20.85000 1058.981
21.02000 1347.396
21.19000 1277.444
21.36000 1583.638
21.53000 2606.854
21.70000 10194.994
21.87000 46862.316
22.04000 16245.038
22.21000 2108.698
22.38000 1447.622
22.55000 1975.542
22.72000 41684.301
22.89000 25608.674
23.06000 1186.349
23.23000 894.561
23.40000 758.895
23.57000 705.694
23.74000 671.350
23.91000 663.021
24.08000 641.458
24.25000 633.818
24.42000 597.991
24.59000 605.994
24.76000 606.591
24.93000 598.266
25.10000 587.085
25.27000 564.884
25.44000 570.023
25.61000 563.499
25.78000 571.523
25.95000 571.062
26.12000 538.494
26.29000 580.387
26.46000 543.614
26.63000 549.046
26.80000 547.039
26.97000 518.498
27.14000 514.310
27.31000 544.536
27.48000 521.806
27.65000 514.262
27.82000 515.732
27.99000 518.300
28.16000 535.283
28.33000 500.331
28.50000 493.074
28.67000 506.005
28.84000 475.661
29.01000 498.376
29.18000 488.152
29.35000 483.624
29.52000 476.029
29.69000 492.751
29.86000 462.578
30.03000 453.783
30.20000 473.892
30.37000 466.403
30.54000 447.839
30.71000 447.800
30.88000 441.665
31.05000 460.392
31.22000 452.669
31.39000 450.596
31.56000 439.860
31.73000 440.513
31.90000 429.572
32.07000 430.764
32.24000 413.249
32.41000 407.609
32.58000 391.261
32.75000 426.788
32.92000 407.634
33.09000 423.337
33.26000 396.145
33.43000 406.540
33.60000 381.820
33.77000 406.257
33.94000 388.337
34.11000 380.133
34.28000 397.817
34.45000 397.195
34.62000 384.208
34.79000 374.440
34.96000 390.557
35.13000 380.557
35.30000 372.599
35.47000 381.475
35.64000 386.545
35.81000 369.763
35.98000 359.620
36.15000 361.819
36.32000 366.160
36.49000 353.228
36.66000 354.751
36.83000 354.687
37.00000 351.557
37.17000 357.365
37.34000 361.468
37.51000 337.052
37.68000 352.326
37.85000 349.465
38.02000 350.542
38.19000 325.930
38.36000 360.597
38.53000 325.444
38.70000 333.772
38.87000 356.335
39.04000 346.131
39.21000 340.982
39.38000 343.771
39.55000 346.002
39.72000 336.539
39.89000 370.134
40.06000 433.322
40.23000 400.988
40.40000 349.033
40.57000 358.862
40.74000 352.502
40.91000 370.694
41.08000 379.345
41.25000 384.089
41.42000 395.878
41.59000 454.614
41.76000 1027.458
41.93000 610.109
42.10000 511.673
42.27000 569.427
42.44000 746.427
42.61000 1248.085
42.78000 1155.479
42.95000 1090.428
43.12000 1116.747
43.29000 1228.414
43.46000 1487.491
43.63000 1829.563
43.80000 2386.827
43.97000 3489.870
44.14000 5974.065
44.31000 14477.083
44.48000 45245.316
44.65000 64879.488
44.82000 23751.203
44.99000 4870.490
45.16000 2722.794
45.33000 2285.317
45.50000 2161.163
45.67000 2294.776
45.84000 2540.041
46.01000 3223.476
46.18000 7093.412
46.35000 133942.688
46.52000 374137.313
46.69000 110033.805
46.86000 5608.910
47.03000 3106.329
47.20000 2251.315
47.37000 1703.930
47.54000 1402.876
47.71000 1095.763
47.88000 903.400
48.05000 740.892
48.22000 631.394
48.39000 569.755
48.56000 490.692
48.73000 466.036
48.90000 441.910
49.07000 417.181
49.24000 382.873
49.41000 356.185
49.58000 349.470
49.75000 326.902
49.92000 309.541
50.09000 308.555
50.26000 304.470
50.43000 280.124
50.60000 269.064
50.77000 286.430
50.94000 291.153
51.11000 267.485
51.28000 256.099
51.45000 253.766
51.62000 252.273
51.79000 252.940
51.96000 240.568
52.13000 223.119
52.30000 209.290
52.47000 219.482
52.64000 214.369
52.81000 212.906
52.98000 203.981
53.15000 202.190
53.32000 194.975
53.49000 205.324
53.66000 206.221
53.83000 200.010
54.00000 189.693
54.17000 193.277
54.34000 194.004
54.51000 184.648
54.68000 195.183
54.85000 175.011
55.02000 200.786
55.19000 190.399
55.36000 179.107
55.53000 178.080
55.70000 179.823
55.87000 183.036
56.04000 177.976
56.21000 175.905
56.38000 183.187
56.55000 175.469
56.72000 167.670
56.89000 167.406
57.06000 158.684
57.23000 158.572
57.40000 163.251
57.57000 160.175
57.74000 152.650
57.91000 168.915
58.08000 156.908
58.25000 168.158
58.42000 151.115
58.59000 168.351
58.76000 161.404
58.93000 153.380
59.10000 161.318
59.27000 159.211
59.44000 150.948
59.61000 154.293
59.78000 147.258
59.95000 144.751
60.12000 145.073
60.29000 146.163
60.46000 150.965
60.63000 157.304
60.80000 138.360
60.97000 140.660
61.14000 138.420
61.31000 140.296
61.48000 147.654
61.65000 146.729
61.82000 141.633
61.99000 140.671
62.16000 141.318
62.33000 139.020
62.50000 143.895
62.67000 138.014
62.84000 139.985
63.01000 136.348
63.18000 148.567
63.35000 138.979
63.52000 134.787
63.69000 145.029
63.86000 144.349
64.03000 139.604
64.20000 138.766
64.37000 135.714
64.54000 139.213
64.71000 154.696
64.88000 139.723
65.05000 136.659
65.22000 131.062
65.39000 137.293
65.56000 134.197
65.73000 130.147
65.90000 146.571
66.07000 150.379
66.24000 140.618
66.41000 143.608
66.58000 143.704
66.75000 138.737
66.92000 138.614
67.09000 134.521
67.26000 140.271
67.43000 148.077
67.60000 149.419
67.77000 157.749
67.94000 160.611
68.11000 164.389
68.28000 179.831
68.45000 196.354
68.62000 233.507
68.79000 265.615
68.96000 421.088
69.13000 726.084
69.30000 1227.889
69.47000 1240.226
69.64000 730.400
69.81000 328.668
69.98000 211.752
70.00000 202.690