File: XRD/17-11-2025 Crystal Plates/XY Data/Deposition_10-1.xy
20.00000 754.984
20.17000 756.452
20.34000 811.669
20.51000 911.239
20.68000 1184.520
20.85000 1534.120
21.02000 1537.688
21.19000 2206.083
21.36000 4466.000
21.53000 11758.072
21.70000 54159.754
21.87000 21865.023
22.04000 2137.525
22.21000 1334.797
22.38000 1211.313
22.55000 1839.847
22.72000 36345.426
22.89000 19689.850
23.06000 1136.824
23.23000 881.522
23.40000 787.101
23.57000 745.262
23.74000 710.285
23.91000 696.554
24.08000 679.087
24.25000 673.747
24.42000 648.506
24.59000 622.581
24.76000 633.616
24.93000 604.513
25.10000 597.666
25.27000 594.027
25.44000 601.651
25.61000 632.908
25.78000 596.310
25.95000 589.224
26.12000 578.953
26.29000 556.631
26.46000 571.195
26.63000 552.754
26.80000 561.827
26.97000 554.452
27.14000 555.569
27.31000 530.278
27.48000 559.003
27.65000 546.766
27.82000 525.887
27.99000 536.402
28.16000 530.425
28.33000 518.167
28.50000 506.902
28.67000 512.433
28.84000 499.010
29.01000 504.134
29.18000 514.781
29.35000 504.634
29.52000 480.703
29.69000 520.911
29.86000 485.587
30.03000 465.191
30.20000 465.407
30.37000 469.546
30.54000 464.356
30.71000 472.493
30.88000 463.097
31.05000 462.611
31.22000 448.620
31.39000 456.719
31.56000 454.240
31.73000 445.137
31.90000 424.666
32.07000 433.775
32.24000 445.267
32.41000 422.437
32.58000 443.061
32.75000 415.026
32.92000 412.750
33.09000 428.044
33.26000 402.156
33.43000 426.179
33.60000 405.246
33.77000 407.716
33.94000 411.118
34.11000 405.547
34.28000 389.885
34.45000 395.417
34.62000 391.403
34.79000 384.024
34.96000 378.272
35.13000 385.024
35.30000 375.879
35.47000 385.021
35.64000 389.308
35.81000 392.747
35.98000 370.517
36.15000 372.847
36.32000 374.696
36.49000 385.972
36.66000 378.541
36.83000 366.065
37.00000 346.151
37.17000 370.339
37.34000 365.905
37.51000 364.903
37.68000 367.990
37.85000 357.762
38.02000 355.674
38.19000 362.122
38.36000 385.728
38.53000 371.481
38.70000 373.371
38.87000 379.997
39.04000 368.527
39.21000 378.875
39.38000 382.504
39.55000 403.083
39.72000 497.243
39.89000 525.677
40.06000 426.415
40.23000 410.423
40.40000 424.486
40.57000 423.400
40.74000 471.761
40.91000 480.948
41.08000 509.937
41.25000 517.207
41.42000 561.309
41.59000 680.010
41.76000 1192.661
41.93000 958.283
42.10000 1008.235
42.27000 1716.521
42.44000 1608.545
42.61000 1462.932
42.78000 1631.803
42.95000 2034.842
43.12000 2610.865
43.29000 3567.785
43.46000 4914.645
43.63000 6791.447
43.80000 10082.152
43.97000 17487.229
44.14000 52478.570
44.31000 90889.984
44.48000 35299.496
44.65000 6030.347
44.82000 3624.180
44.99000 2476.167
45.16000 2211.118
45.33000 2116.597
45.50000 2198.486
45.67000 2277.992
45.84000 2499.412
46.01000 3098.679
46.18000 6643.333
46.35000 126924.281
46.52000 319529.094
46.69000 84282.102
46.86000 4921.643
47.03000 2827.884
47.20000 2108.710
47.37000 1692.767
47.54000 1329.404
47.71000 1099.421
47.88000 911.566
48.05000 757.379
48.22000 656.531
48.39000 594.623
48.56000 545.911
48.73000 496.184
48.90000 455.961
49.07000 410.006
49.24000 387.683
49.41000 363.034
49.58000 340.187
49.75000 335.673
49.92000 330.432
50.09000 303.653
50.26000 297.106
50.43000 287.750
50.60000 281.561
50.77000 288.002
50.94000 290.315
51.11000 269.306
51.28000 242.293
51.45000 246.435
51.62000 235.059
51.79000 228.402
51.96000 224.653
52.13000 221.851
52.30000 231.215
52.47000 223.994
52.64000 229.547
52.81000 224.709
52.98000 201.697
53.15000 229.223
53.32000 211.854
53.49000 212.083
53.66000 200.240
53.83000 201.169
54.00000 194.517
54.17000 204.921
54.34000 184.825
54.51000 184.068
54.68000 191.286
54.85000 195.094
55.02000 203.285
55.19000 197.100
55.36000 179.256
55.53000 178.626
55.70000 173.095
55.87000 178.969
56.04000 184.792
56.21000 170.588
56.38000 177.275
56.55000 174.925
56.72000 176.473
56.89000 165.219
57.06000 170.656
57.23000 166.012
57.40000 168.614
57.57000 173.811
57.74000 156.429
57.91000 163.987
58.08000 167.077
58.25000 149.465
58.42000 165.130
58.59000 147.720
58.76000 159.165
58.93000 157.839
59.10000 156.202
59.27000 152.038
59.44000 150.448
59.61000 151.765
59.78000 154.699
59.95000 158.709
60.12000 143.146
60.29000 161.424
60.46000 148.452
60.63000 148.134
60.80000 149.197
60.97000 161.095
61.14000 155.007
61.31000 145.100
61.48000 153.213
61.65000 146.675
61.82000 138.270
61.99000 145.819
62.16000 138.693
62.33000 137.397
62.50000 140.991
62.67000 151.961
62.84000 149.347
63.01000 144.305
63.18000 144.931
63.35000 135.378
63.52000 140.465
63.69000 147.186
63.86000 135.204
64.03000 139.531
64.20000 138.596
64.37000 150.017
64.54000 144.232
64.71000 160.065
64.88000 151.467
65.05000 148.765
65.22000 140.483
65.39000 161.468
65.56000 148.381
65.73000 147.112
65.90000 152.864
66.07000 142.812
66.24000 157.589
66.41000 153.874
66.58000 159.687
66.75000 166.441
66.92000 168.121
67.09000 176.936
67.26000 185.796
67.43000 197.764
67.60000 214.725
67.77000 224.885
67.94000 260.508
68.11000 288.009
68.28000 352.655
68.45000 475.807
68.62000 805.440
68.79000 1510.854
68.96000 1362.559
69.13000 783.804
69.30000 293.268
69.47000 206.072
69.64000 215.263
69.81000 199.356
69.98000 181.002
70.00000 175.160