File: XRD/XRD/17-09-2025/XY Data/BTO_Mapping_Theta2Theta_09-17-2025_001_28_30-000_15-000.xy
20.00000 570.303
20.17000 545.103
20.34000 542.769
20.51000 548.892
20.68000 537.810
20.85000 564.729
21.02000 524.389
21.19000 545.551
21.36000 523.043
21.53000 556.053
21.70000 568.973
21.87000 592.886
22.04000 650.349
22.21000 638.797
22.38000 535.127
22.55000 513.339
22.72000 522.354
22.89000 511.897
23.06000 519.159
23.23000 500.356
23.40000 489.317
23.57000 502.207
23.74000 516.376
23.91000 519.737
24.08000 520.194
24.25000 515.445
24.42000 488.516
24.59000 476.095
24.76000 474.210
24.93000 475.088
25.10000 476.070
25.27000 467.493
25.44000 447.144
25.61000 448.417
25.78000 459.288
25.95000 456.453
26.12000 464.205
26.29000 465.816
26.46000 434.180
26.63000 409.710
26.80000 453.582
26.97000 456.133
27.14000 420.555
27.31000 435.529
27.48000 434.198
27.65000 426.322
27.82000 451.220
27.99000 417.656
28.16000 413.594
28.33000 438.090
28.50000 416.071
28.67000 412.091
28.84000 405.052
29.01000 413.459
29.18000 405.398
29.35000 396.936
29.52000 396.256
29.69000 397.857
29.86000 398.703
30.03000 409.691
30.20000 397.273
30.37000 401.848
30.54000 399.118
30.71000 426.280
30.88000 429.957
31.05000 570.835
31.22000 1082.871
31.39000 1955.882
31.56000 1163.304
31.73000 524.368
31.90000 430.112
32.07000 395.779
32.24000 378.283
32.41000 368.709
32.58000 365.708
32.75000 342.115
32.92000 360.119
33.09000 342.012
33.26000 338.462
33.43000 337.719
33.60000 351.360
33.77000 337.263
33.94000 340.386
34.11000 350.301
34.28000 341.690
34.45000 344.682
34.62000 350.421
34.79000 338.602
34.96000 321.446
35.13000 316.761
35.30000 318.615
35.47000 300.092
35.64000 297.609
35.81000 299.815
35.98000 308.617
36.15000 296.563
36.32000 278.461
36.49000 308.396
36.66000 295.938
36.83000 294.129
37.00000 290.574
37.17000 304.141
37.34000 295.832
37.51000 290.112
37.68000 286.643
37.85000 278.875
38.02000 288.997
38.19000 305.835
38.36000 315.839
38.53000 515.748
38.70000 1020.685
38.87000 840.182
39.04000 394.131
39.21000 296.452
39.38000 273.266
39.55000 284.230
39.72000 254.090
39.89000 288.030
40.06000 274.612
40.23000 262.050
40.40000 251.640
40.57000 256.356
40.74000 233.299
40.91000 244.166
41.08000 230.038
41.25000 246.535
41.42000 239.910
41.59000 238.733
41.76000 226.954
41.93000 243.108
42.10000 234.863
42.27000 233.236
42.44000 239.527
42.61000 228.774
42.78000 229.421
42.95000 221.711
43.12000 244.777
43.29000 224.117
43.46000 220.349
43.63000 219.620
43.80000 211.562
43.97000 225.593
44.14000 207.435
44.31000 214.788
44.48000 213.271
44.65000 226.454
44.82000 252.546
44.99000 293.596
45.16000 322.103
45.33000 268.977
45.50000 247.993
45.67000 219.234
45.84000 216.686
46.01000 197.244
46.18000 202.226
46.35000 204.295
46.52000 196.206
46.69000 207.301
46.86000 183.095
47.03000 197.887
47.20000 187.238
47.37000 192.503
47.54000 181.882
47.71000 179.112
47.88000 180.035
48.05000 178.103
48.22000 182.593
48.39000 174.987
48.56000 181.965
48.73000 174.944
48.90000 179.325
49.07000 174.770
49.24000 176.784
49.41000 176.423
49.58000 179.094
49.75000 182.091
49.92000 170.365
50.09000 168.116
50.26000 185.041
50.43000 188.563
50.60000 207.455
50.77000 218.211
50.94000 206.998
51.11000 179.243
51.28000 170.033
51.45000 153.861
51.62000 154.798
51.79000 172.035
51.96000 167.651
52.13000 166.503
52.30000 158.061
52.47000 155.452
52.64000 164.048
52.81000 162.757
52.98000 151.808
53.15000 153.078
53.32000 171.739
53.49000 165.895
53.66000 167.641
53.83000 158.233
54.00000 150.222
54.17000 153.421
54.34000 145.287
54.51000 165.883
54.68000 161.157
54.85000 162.954
55.02000 154.592
55.19000 149.655
55.36000 175.218
55.53000 199.060
55.70000 281.653
55.87000 496.200
56.04000 554.323
56.21000 345.887
56.38000 202.885
56.55000 171.090
56.72000 152.749
56.89000 150.128
57.06000 145.228
57.23000 135.259
57.40000 151.722
57.57000 143.061
57.74000 148.506
57.91000 128.808
58.08000 143.493
58.25000 132.678
58.42000 136.885
58.59000 138.761
58.76000 129.233
58.93000 133.868
59.10000 136.681
59.27000 132.140
59.44000 132.541
59.61000 129.236
59.78000 127.969
59.95000 137.209
60.12000 138.029
60.29000 142.200
60.46000 140.644
60.63000 126.640
60.80000 136.971
60.97000 134.466
61.14000 129.845
61.31000 141.592
61.48000 137.150
61.65000 230.105
61.82000 180.370
61.99000 137.962
62.16000 135.385
62.33000 137.506
62.50000 136.306
62.67000 146.656
62.84000 140.953
63.01000 136.739
63.18000 137.747
63.35000 146.409
63.52000 151.359
63.69000 143.346
63.86000 158.517
64.03000 146.185
64.20000 154.612
64.37000 156.731
64.54000 167.306
64.71000 172.439
64.88000 173.757
65.05000 181.529
65.22000 206.508
65.39000 258.694
65.56000 307.967
65.73000 522.703
65.90000 865.068
66.07000 338.514
66.24000 271.497
66.41000 368.163
66.58000 325.966
66.75000 278.893
66.92000 308.429
67.09000 334.381
67.26000 363.159
67.43000 381.122
67.60000 411.792
67.77000 436.954
67.94000 484.277
68.11000 508.218
68.28000 580.528
68.45000 662.140
68.62000 913.356
68.79000 1626.227
68.96000 9167.938
69.13000 48854.598
69.30000 29745.023
69.47000 7510.729
69.64000 1207.104
69.81000 784.235
69.98000 653.056
70.00000 638.422