File: XRD/XRD/17-09-2025/XY Data/BTO_Mapping_Theta2Theta_09-17-2025_001_32_0-000_30-000.xy
20.00000 552.904
20.17000 563.415
20.34000 538.953
20.51000 544.442
20.68000 555.226
20.85000 541.653
21.02000 565.694
21.19000 543.437
21.36000 547.416
21.53000 543.446
21.70000 562.013
21.87000 611.130
22.04000 682.451
22.21000 654.045
22.38000 559.973
22.55000 541.756
22.72000 522.217
22.89000 512.214
23.06000 514.071
23.23000 493.858
23.40000 495.397
23.57000 487.114
23.74000 501.995
23.91000 488.636
24.08000 481.297
24.25000 465.191
24.42000 479.734
24.59000 485.275
24.76000 467.108
24.93000 445.155
25.10000 467.363
25.27000 476.952
25.44000 473.245
25.61000 460.961
25.78000 472.499
25.95000 455.422
26.12000 472.289
26.29000 447.185
26.46000 430.710
26.63000 446.562
26.80000 447.421
26.97000 454.113
27.14000 422.343
27.31000 424.747
27.48000 411.046
27.65000 438.282
27.82000 427.548
27.99000 429.658
28.16000 415.476
28.33000 425.346
28.50000 442.266
28.67000 403.815
28.84000 416.111
29.01000 407.924
29.18000 400.361
29.35000 419.890
29.52000 395.529
29.69000 399.739
29.86000 434.573
30.03000 473.205
30.20000 427.180
30.37000 424.892
30.54000 431.829
30.71000 424.272
30.88000 463.527
31.05000 633.176
31.22000 1684.323
31.39000 3680.928
31.56000 2098.145
31.73000 633.001
31.90000 447.518
32.07000 421.882
32.24000 402.000
32.41000 398.699
32.58000 383.128
32.75000 342.400
32.92000 354.166
33.09000 342.397
33.26000 321.697
33.43000 331.113
33.60000 324.256
33.77000 335.996
33.94000 349.370
34.11000 328.527
34.28000 350.925
34.45000 316.707
34.62000 326.283
34.79000 348.816
34.96000 306.662
35.13000 313.402
35.30000 317.711
35.47000 312.852
35.64000 301.765
35.81000 307.228
35.98000 290.440
36.15000 305.911
36.32000 301.362
36.49000 278.627
36.66000 281.326
36.83000 300.217
37.00000 305.745
37.17000 296.192
37.34000 273.223
37.51000 298.283
37.68000 288.745
37.85000 286.893
38.02000 293.896
38.19000 291.717
38.36000 327.820
38.53000 451.040
38.70000 815.768
38.87000 680.027
39.04000 336.745
39.21000 277.522
39.38000 266.002
39.55000 251.406
39.72000 253.895
39.89000 262.182
40.06000 265.386
40.23000 249.499
40.40000 264.036
40.57000 259.333
40.74000 250.556
40.91000 231.848
41.08000 245.804
41.25000 236.592
41.42000 233.220
41.59000 236.018
41.76000 234.045
41.93000 219.442
42.10000 234.252
42.27000 230.705
42.44000 241.754
42.61000 235.921
42.78000 225.184
42.95000 222.372
43.12000 220.778
43.29000 233.170
43.46000 216.661
43.63000 223.130
43.80000 220.426
43.97000 219.643
44.14000 216.828
44.31000 235.090
44.48000 212.274
44.65000 233.477
44.82000 236.958
44.99000 299.404
45.16000 362.419
45.33000 301.833
45.50000 252.582
45.67000 198.241
45.84000 204.064
46.01000 201.389
46.18000 203.359
46.35000 207.034
46.52000 213.641
46.69000 206.912
46.86000 188.692
47.03000 186.987
47.20000 187.790
47.37000 196.533
47.54000 176.284
47.71000 174.448
47.88000 183.548
48.05000 186.626
48.22000 187.439
48.39000 184.147
48.56000 171.821
48.73000 184.831
48.90000 182.916
49.07000 174.620
49.24000 169.942
49.41000 168.405
49.58000 170.228
49.75000 186.406
49.92000 172.017
50.09000 170.486
50.26000 175.175
50.43000 191.232
50.60000 226.795
50.77000 284.240
50.94000 226.668
51.11000 181.459
51.28000 167.490
51.45000 175.809
51.62000 174.088
51.79000 169.314
51.96000 164.313
52.13000 169.888
52.30000 159.385
52.47000 169.388
52.64000 160.053
52.81000 153.266
52.98000 155.490
53.15000 163.498
53.32000 171.254
53.49000 162.321
53.66000 158.410
53.83000 149.679
54.00000 158.982
54.17000 151.603
54.34000 153.696
54.51000 158.361
54.68000 149.148
54.85000 161.318
55.02000 152.222
55.19000 153.327
55.36000 175.561
55.53000 181.680
55.70000 268.280
55.87000 544.961
56.04000 615.075
56.21000 365.150
56.38000 206.299
56.55000 162.000
56.72000 166.884
56.89000 145.167
57.06000 138.058
57.23000 148.949
57.40000 143.563
57.57000 140.669
57.74000 143.968
57.91000 148.545
58.08000 135.959
58.25000 137.436
58.42000 144.225
58.59000 131.363
58.76000 130.841
58.93000 129.944
59.10000 143.201
59.27000 133.685
59.44000 135.858
59.61000 135.241
59.78000 136.981
59.95000 128.655
60.12000 138.038
60.29000 135.414
60.46000 129.887
60.63000 127.760
60.80000 132.513
60.97000 129.056
61.14000 135.897
61.31000 130.780
61.48000 142.421
61.65000 267.312
61.82000 204.196
61.99000 137.807
62.16000 129.417
62.33000 144.654
62.50000 135.846
62.67000 132.767
62.84000 146.674
63.01000 144.327
63.18000 153.920
63.35000 151.156
63.52000 140.032
63.69000 157.777
63.86000 153.179
64.03000 153.057
64.20000 153.749
64.37000 156.077
64.54000 176.034
64.71000 174.336
64.88000 169.670
65.05000 207.025
65.22000 208.610
65.39000 302.747
65.56000 432.999
65.73000 696.805
65.90000 1076.733
66.07000 370.533
66.24000 306.826
66.41000 432.344
66.58000 344.250
66.75000 296.067
66.92000 320.403
67.09000 361.317
67.26000 375.069
67.43000 406.996
67.60000 427.977
67.77000 469.264
67.94000 502.201
68.11000 559.631
68.28000 617.824
68.45000 715.775
68.62000 1059.016
68.79000 1937.125
68.96000 13195.100
69.13000 61922.355
69.30000 36842.523
69.47000 8583.446
69.64000 1291.243
69.81000 862.190
69.98000 718.973
70.00000 676.296