File: XRD/XRD/17-09-2025/XY Data/BTO_Mapping_Theta2Theta_09-17-2025_001_09_-45-000_-15-000.xy
20.00000 559.615
20.17000 546.503
20.34000 540.511
20.51000 546.212
20.68000 532.980
20.85000 555.203
21.02000 536.629
21.19000 523.256
21.36000 552.500
21.53000 509.350
21.70000 522.396
21.87000 563.318
22.04000 595.341
22.21000 527.245
22.38000 514.944
22.55000 516.487
22.72000 500.497
22.89000 521.150
23.06000 497.697
23.23000 496.750
23.40000 481.145
23.57000 473.577
23.74000 501.912
23.91000 482.653
24.08000 479.855
24.25000 478.078
24.42000 488.845
24.59000 475.866
24.76000 472.124
24.93000 475.819
25.10000 460.034
25.27000 466.685
25.44000 459.357
25.61000 464.431
25.78000 454.079
25.95000 455.023
26.12000 463.706
26.29000 447.308
26.46000 438.017
26.63000 420.091
26.80000 433.612
26.97000 430.309
27.14000 420.060
27.31000 435.721
27.48000 418.920
27.65000 421.772
27.82000 426.529
27.99000 422.339
28.16000 406.434
28.33000 405.087
28.50000 406.418
28.67000 398.913
28.84000 389.376
29.01000 391.304
29.18000 390.884
29.35000 391.285
29.52000 376.634
29.69000 369.127
29.86000 378.807
30.03000 374.756
30.20000 379.426
30.37000 381.998
30.54000 368.008
30.71000 353.564
30.88000 385.309
31.05000 393.775
31.22000 574.940
31.39000 568.715
31.56000 472.984
31.73000 386.372
31.90000 370.009
32.07000 354.895
32.24000 358.063
32.41000 336.384
32.58000 344.093
32.75000 343.219
32.92000 338.000
33.09000 337.920
33.26000 325.057
33.43000 329.055
33.60000 340.196
33.77000 316.395
33.94000 317.168
34.11000 321.178
34.28000 315.761
34.45000 303.956
34.62000 308.540
34.79000 309.790
34.96000 319.029
35.13000 314.871
35.30000 307.233
35.47000 301.368
35.64000 302.390
35.81000 282.682
35.98000 299.219
36.15000 293.939
36.32000 291.090
36.49000 280.169
36.66000 271.476
36.83000 284.191
37.00000 296.269
37.17000 284.102
37.34000 279.973
37.51000 264.817
37.68000 262.330
37.85000 254.696
38.02000 290.680
38.19000 273.159
38.36000 267.418
38.53000 270.868
38.70000 267.897
38.87000 265.956
39.04000 250.259
39.21000 255.949
39.38000 269.435
39.55000 261.960
39.72000 240.138
39.89000 244.089
40.06000 246.556
40.23000 255.649
40.40000 244.165
40.57000 241.503
40.74000 235.502
40.91000 243.638
41.08000 245.132
41.25000 237.597
41.42000 229.626
41.59000 224.654
41.76000 230.401
41.93000 218.346
42.10000 213.333
42.27000 233.342
42.44000 209.313
42.61000 225.431
42.78000 217.630
42.95000 222.915
43.12000 222.008
43.29000 215.048
43.46000 216.291
43.63000 221.615
43.80000 217.979
43.97000 207.027
44.14000 212.732
44.31000 203.296
44.48000 203.160
44.65000 209.354
44.82000 207.691
44.99000 201.074
45.16000 210.233
45.33000 204.989
45.50000 194.621
45.67000 207.556
45.84000 204.969
46.01000 190.356
46.18000 192.430
46.35000 192.457
46.52000 188.173
46.69000 199.857
46.86000 187.659
47.03000 184.578
47.20000 187.060
47.37000 200.854
47.54000 182.591
47.71000 184.677
47.88000 188.003
48.05000 166.581
48.22000 171.182
48.39000 175.439
48.56000 175.939
48.73000 165.395
48.90000 167.043
49.07000 168.595
49.24000 164.596
49.41000 156.528
49.58000 175.310
49.75000 166.765
49.92000 175.370
50.09000 154.764
50.26000 167.539
50.43000 159.728
50.60000 171.192
50.77000 164.032
50.94000 168.751
51.11000 154.294
51.28000 162.084
51.45000 159.521
51.62000 159.362
51.79000 155.138
51.96000 157.528
52.13000 163.016
52.30000 154.175
52.47000 145.428
52.64000 154.844
52.81000 161.350
52.98000 146.278
53.15000 145.317
53.32000 161.338
53.49000 162.275
53.66000 148.402
53.83000 143.660
54.00000 136.900
54.17000 142.385
54.34000 142.293
54.51000 145.371
54.68000 146.185
54.85000 157.216
55.02000 149.721
55.19000 138.729
55.36000 142.973
55.53000 147.580
55.70000 149.536
55.87000 141.852
56.04000 143.974
56.21000 142.602
56.38000 133.875
56.55000 135.541
56.72000 138.990
56.89000 133.536
57.06000 137.535
57.23000 144.672
57.40000 138.438
57.57000 136.910
57.74000 126.816
57.91000 129.923
58.08000 130.275
58.25000 132.299
58.42000 137.841
58.59000 129.722
58.76000 133.949
58.93000 124.844
59.10000 122.374
59.27000 129.710
59.44000 132.893
59.61000 131.290
59.78000 130.813
59.95000 127.587
60.12000 127.387
60.29000 133.488
60.46000 134.578
60.63000 132.229
60.80000 131.788
60.97000 139.487
61.14000 141.005
61.31000 128.164
61.48000 139.931
61.65000 259.707
61.82000 192.179
61.99000 133.982
62.16000 149.108
62.33000 137.919
62.50000 134.943
62.67000 134.110
62.84000 139.263
63.01000 141.776
63.18000 143.311
63.35000 149.261
63.52000 151.869
63.69000 146.333
63.86000 147.236
64.03000 154.212
64.20000 175.903
64.37000 160.729
64.54000 174.329
64.71000 168.448
64.88000 180.765
65.05000 173.575
65.22000 209.124
65.39000 209.490
65.56000 240.911
65.73000 475.719
65.90000 900.550
66.07000 343.029
66.24000 299.358
66.41000 433.814
66.58000 341.058
66.75000 313.706
66.92000 339.705
67.09000 373.392
67.26000 392.012
67.43000 416.916
67.60000 452.123
67.77000 493.943
67.94000 537.381
68.11000 569.159
68.28000 646.716
68.45000 755.272
68.62000 1037.689
68.79000 1845.113
68.96000 11479.603
69.13000 55385.570
69.30000 32899.070
69.47000 8126.403
69.64000 1291.486
69.81000 873.788
69.98000 703.204
70.00000 685.417