File: XRD/XRD/17-09-2025/XY Data/BTO_Mapping_Theta2Theta_09-17-2025_001_04_-30-000_-30-000.xy
20.00000 563.966
20.17000 549.341
20.34000 542.378
20.51000 572.771
20.68000 554.461
20.85000 562.203
21.02000 560.958
21.19000 560.922
21.36000 562.529
21.53000 557.925
21.70000 636.340
21.87000 939.349
22.04000 1019.252
22.21000 665.115
22.38000 575.578
22.55000 542.421
22.72000 543.343
22.89000 527.962
23.06000 519.576
23.23000 513.746
23.40000 518.146
23.57000 505.995
23.74000 498.793
23.91000 500.232
24.08000 504.320
24.25000 480.846
24.42000 491.047
24.59000 485.315
24.76000 486.444
24.93000 492.795
25.10000 473.398
25.27000 477.032
25.44000 459.604
25.61000 481.160
25.78000 479.723
25.95000 462.849
26.12000 465.611
26.29000 467.464
26.46000 456.745
26.63000 457.256
26.80000 454.559
26.97000 477.196
27.14000 440.357
27.31000 440.301
27.48000 441.106
27.65000 446.633
27.82000 449.730
27.99000 435.178
28.16000 455.418
28.33000 441.236
28.50000 431.680
28.67000 433.606
28.84000 428.945
29.01000 438.647
29.18000 421.636
29.35000 401.977
29.52000 426.299
29.69000 431.178
29.86000 428.273
30.03000 446.978
30.20000 439.183
30.37000 439.389
30.54000 424.654
30.71000 463.904
30.88000 531.599
31.05000 1120.440
31.22000 3330.891
31.39000 2732.127
31.56000 824.769
31.73000 481.906
31.90000 433.490
32.07000 431.613
32.24000 409.599
32.41000 388.216
32.58000 393.229
32.75000 382.215
32.92000 376.805
33.09000 375.216
33.26000 349.786
33.43000 350.614
33.60000 338.076
33.77000 358.040
33.94000 335.423
34.11000 346.273
34.28000 316.284
34.45000 314.484
34.62000 322.459
34.79000 299.861
34.96000 324.504
35.13000 322.795
35.30000 310.213
35.47000 303.634
35.64000 314.341
35.81000 318.995
35.98000 310.960
36.15000 285.057
36.32000 315.175
36.49000 307.724
36.66000 293.503
36.83000 309.242
37.00000 303.181
37.17000 287.170
37.34000 319.040
37.51000 300.464
37.68000 305.446
37.85000 306.191
38.02000 293.242
38.19000 296.125
38.36000 379.111
38.53000 478.118
38.70000 449.259
38.87000 343.595
39.04000 289.547
39.21000 280.001
39.38000 284.089
39.55000 269.305
39.72000 262.226
39.89000 259.011
40.06000 257.756
40.23000 277.536
40.40000 244.523
40.57000 256.216
40.74000 248.783
40.91000 249.212
41.08000 248.499
41.25000 243.165
41.42000 254.876
41.59000 237.975
41.76000 249.675
41.93000 231.919
42.10000 237.954
42.27000 244.922
42.44000 240.208
42.61000 244.043
42.78000 233.046
42.95000 236.755
43.12000 234.647
43.29000 234.294
43.46000 232.320
43.63000 227.604
43.80000 215.560
43.97000 226.158
44.14000 240.079
44.31000 237.580
44.48000 281.172
44.65000 429.697
44.82000 651.842
44.99000 653.222
45.16000 452.782
45.33000 302.769
45.50000 250.376
45.67000 233.105
45.84000 212.947
46.01000 219.352
46.18000 211.887
46.35000 212.306
46.52000 206.755
46.69000 205.999
46.86000 203.117
47.03000 190.084
47.20000 199.363
47.37000 199.940
47.54000 193.113
47.71000 188.814
47.88000 183.254
48.05000 194.727
48.22000 190.980
48.39000 189.276
48.56000 182.449
48.73000 179.431
48.90000 187.809
49.07000 170.279
49.24000 179.810
49.41000 185.173
49.58000 178.557
49.75000 184.660
49.92000 186.423
50.09000 183.450
50.26000 210.421
50.43000 274.767
50.60000 286.569
50.77000 242.729
50.94000 193.432
51.11000 177.877
51.28000 172.945
51.45000 176.307
51.62000 170.722
51.79000 169.011
51.96000 166.050
52.13000 165.777
52.30000 152.048
52.47000 150.723
52.64000 166.676
52.81000 154.053
52.98000 162.479
53.15000 159.753
53.32000 166.201
53.49000 148.819
53.66000 152.898
53.83000 157.035
54.00000 154.600
54.17000 166.410
54.34000 163.118
54.51000 161.037
54.68000 163.782
54.85000 164.855
55.02000 168.952
55.19000 191.088
55.36000 208.185
55.53000 375.655
55.70000 568.758
55.87000 515.487
56.04000 316.130
56.21000 205.880
56.38000 168.245
56.55000 153.558
56.72000 154.323
56.89000 151.485
57.06000 144.524
57.23000 151.938
57.40000 147.652
57.57000 152.650
57.74000 153.220
57.91000 148.719
58.08000 139.859
58.25000 144.867
58.42000 143.195
58.59000 139.736
58.76000 146.439
58.93000 137.768
59.10000 146.428
59.27000 136.783
59.44000 141.719
59.61000 137.211
59.78000 131.836
59.95000 133.033
60.12000 135.407
60.29000 137.280
60.46000 130.230
60.63000 128.419
60.80000 134.566
60.97000 136.643
61.14000 149.174
61.31000 136.430
61.48000 158.194
61.65000 355.433
61.82000 225.870
61.99000 148.024
62.16000 146.203
62.33000 151.772
62.50000 152.666
62.67000 155.250
62.84000 145.842
63.01000 141.560
63.18000 149.589
63.35000 150.061
63.52000 147.605
63.69000 140.692
63.86000 160.738
64.03000 159.556
64.20000 163.777
64.37000 165.059
64.54000 174.784
64.71000 184.516
64.88000 201.651
65.05000 271.716
65.22000 372.878
65.39000 420.083
65.56000 383.313
65.73000 795.091
65.90000 1439.394
66.07000 428.914
66.24000 351.442
66.41000 539.395
66.58000 397.470
66.75000 339.231
66.92000 378.532
67.09000 388.693
67.26000 436.983
67.43000 453.955
67.60000 517.567
67.77000 541.873
67.94000 591.003
68.11000 647.025
68.28000 732.195
68.45000 865.573
68.62000 1381.178
68.79000 2754.736
68.96000 25034.254
69.13000 93174.891
69.30000 54521.379
69.47000 12498.534
69.64000 1702.858
69.81000 1048.712
69.98000 825.446
70.00000 810.472