File: XRD/XRD/17-09-2025/XY Data/BTO_Mapping_Theta2Theta_09-17-2025_001_02_0-000_-45-000.xy
20.00000 568.943
20.17000 597.683
20.34000 552.164
20.51000 548.352
20.68000 537.506
20.85000 525.627
21.02000 544.754
21.19000 538.255
21.36000 535.198
21.53000 538.854
21.70000 543.803
21.87000 601.395
22.04000 695.299
22.21000 660.520
22.38000 558.308
22.55000 544.789
22.72000 511.707
22.89000 520.142
23.06000 480.234
23.23000 490.250
23.40000 487.382
23.57000 498.563
23.74000 484.662
23.91000 504.002
24.08000 483.106
24.25000 494.996
24.42000 467.635
24.59000 472.468
24.76000 475.283
24.93000 482.865
25.10000 500.825
25.27000 467.927
25.44000 463.531
25.61000 472.924
25.78000 477.534
25.95000 456.924
26.12000 461.187
26.29000 441.046
26.46000 456.898
26.63000 457.067
26.80000 445.508
26.97000 440.431
27.14000 435.477
27.31000 440.394
27.48000 432.539
27.65000 419.379
27.82000 434.550
27.99000 417.062
28.16000 433.456
28.33000 426.407
28.50000 429.469
28.67000 405.644
28.84000 423.684
29.01000 417.324
29.18000 407.078
29.35000 420.052
29.52000 414.243
29.69000 418.149
29.86000 432.514
30.03000 431.128
30.20000 443.866
30.37000 418.891
30.54000 425.592
30.71000 425.354
30.88000 476.747
31.05000 656.505
31.22000 1801.465
31.39000 3934.622
31.56000 2201.894
31.73000 615.628
31.90000 446.559
32.07000 421.949
32.24000 394.462
32.41000 392.538
32.58000 375.560
32.75000 381.012
32.92000 357.710
33.09000 359.279
33.26000 346.380
33.43000 339.536
33.60000 344.672
33.77000 336.669
33.94000 347.325
34.11000 323.056
34.28000 338.299
34.45000 321.913
34.62000 321.432
34.79000 332.505
34.96000 283.231
35.13000 315.522
35.30000 303.346
35.47000 307.445
35.64000 303.661
35.81000 295.107
35.98000 300.029
36.15000 289.555
36.32000 296.757
36.49000 304.383
36.66000 294.335
36.83000 293.588
37.00000 303.957
37.17000 291.509
37.34000 302.650
37.51000 284.551
37.68000 289.317
37.85000 281.777
38.02000 279.692
38.19000 294.877
38.36000 319.446
38.53000 462.329
38.70000 808.198
38.87000 689.953
39.04000 337.346
39.21000 282.895
39.38000 272.336
39.55000 254.825
39.72000 267.636
39.89000 248.952
40.06000 269.173
40.23000 260.779
40.40000 259.295
40.57000 258.162
40.74000 252.190
40.91000 257.253
41.08000 242.018
41.25000 232.167
41.42000 242.309
41.59000 238.731
41.76000 238.925
41.93000 245.719
42.10000 232.191
42.27000 233.062
42.44000 241.266
42.61000 231.965
42.78000 242.619
42.95000 221.759
43.12000 222.580
43.29000 230.450
43.46000 214.969
43.63000 226.183
43.80000 227.626
43.97000 217.740
44.14000 218.705
44.31000 212.733
44.48000 219.115
44.65000 217.485
44.82000 252.267
44.99000 337.214
45.16000 382.844
45.33000 315.382
45.50000 244.814
45.67000 225.890
45.84000 202.348
46.01000 198.474
46.18000 203.373
46.35000 205.605
46.52000 199.422
46.69000 201.682
46.86000 196.197
47.03000 196.178
47.20000 189.421
47.37000 181.419
47.54000 184.472
47.71000 186.958
47.88000 176.053
48.05000 175.958
48.22000 193.176
48.39000 181.572
48.56000 179.419
48.73000 171.125
48.90000 169.308
49.07000 182.501
49.24000 177.175
49.41000 181.405
49.58000 170.850
49.75000 171.105
49.92000 178.506
50.09000 177.883
50.26000 177.692
50.43000 209.349
50.60000 234.141
50.77000 281.881
50.94000 231.359
51.11000 194.701
51.28000 169.238
51.45000 163.269
51.62000 162.734
51.79000 160.485
51.96000 160.289
52.13000 164.626
52.30000 149.624
52.47000 154.017
52.64000 157.578
52.81000 165.618
52.98000 157.160
53.15000 159.676
53.32000 169.833
53.49000 154.267
53.66000 150.587
53.83000 159.992
54.00000 148.355
54.17000 151.772
54.34000 165.528
54.51000 148.722
54.68000 154.673
54.85000 147.443
55.02000 157.300
55.19000 149.503
55.36000 166.408
55.53000 191.842
55.70000 289.497
55.87000 552.814
56.04000 617.251
56.21000 399.147
56.38000 220.210
56.55000 172.617
56.72000 155.522
56.89000 140.490
57.06000 140.321
57.23000 147.245
57.40000 143.204
57.57000 138.530
57.74000 150.350
57.91000 139.290
58.08000 132.793
58.25000 138.205
58.42000 138.348
58.59000 127.838
58.76000 126.550
58.93000 133.927
59.10000 133.165
59.27000 130.517
59.44000 136.437
59.61000 129.004
59.78000 127.428
59.95000 130.387
60.12000 136.333
60.29000 131.284
60.46000 123.758
60.63000 130.492
60.80000 135.365
60.97000 133.461
61.14000 133.294
61.31000 142.253
61.48000 143.269
61.65000 315.229
61.82000 198.240
61.99000 137.369
62.16000 146.640
62.33000 148.151
62.50000 145.020
62.67000 141.057
62.84000 135.922
63.01000 144.709
63.18000 150.510
63.35000 151.316
63.52000 144.104
63.69000 155.991
63.86000 143.260
64.03000 153.190
64.20000 166.569
64.37000 162.644
64.54000 171.044
64.71000 181.621
64.88000 178.133
65.05000 194.110
65.22000 233.818
65.39000 307.892
65.56000 470.618
65.73000 857.722
65.90000 1300.548
66.07000 404.757
66.24000 354.895
66.41000 488.581
66.58000 372.223
66.75000 328.958
66.92000 366.392
67.09000 372.439
67.26000 405.713
67.43000 452.769
67.60000 462.546
67.77000 509.487
67.94000 571.780
68.11000 609.266
68.28000 674.707
68.45000 797.184
68.62000 1252.569
68.79000 2398.347
68.96000 20046.262
69.13000 76985.570
69.30000 44497.777
69.47000 9755.259
69.64000 1433.901
69.81000 896.034
69.98000 737.122
70.00000 753.727