File: XRD/XRD/17-09-2025/XY Data/BTO_Mapping_Theta2Theta_09-17-2025_001_12_0-000_-15-000.xy
20.00000 558.134
20.17000 536.528
20.34000 546.406
20.51000 551.016
20.68000 550.528
20.85000 538.770
21.02000 550.503
21.19000 549.946
21.36000 558.082
21.53000 530.034
21.70000 562.465
21.87000 643.083
22.04000 800.804
22.21000 675.004
22.38000 539.941
22.55000 539.568
22.72000 533.078
22.89000 504.452
23.06000 483.421
23.23000 504.046
23.40000 495.767
23.57000 492.015
23.74000 485.828
23.91000 493.631
24.08000 484.549
24.25000 471.558
24.42000 507.037
24.59000 494.861
24.76000 479.421
24.93000 470.588
25.10000 461.832
25.27000 489.392
25.44000 470.736
25.61000 465.902
25.78000 468.955
25.95000 463.772
26.12000 461.608
26.29000 463.549
26.46000 447.730
26.63000 469.826
26.80000 452.004
26.97000 463.653
27.14000 429.341
27.31000 428.440
27.48000 440.723
27.65000 422.634
27.82000 410.647
27.99000 423.294
28.16000 438.077
28.33000 430.657
28.50000 411.638
28.67000 423.859
28.84000 409.288
29.01000 416.822
29.18000 408.613
29.35000 407.342
29.52000 425.681
29.69000 427.871
29.86000 423.647
30.03000 446.073
30.20000 415.453
30.37000 423.789
30.54000 414.708
30.71000 437.486
30.88000 504.947
31.05000 651.167
31.22000 1993.083
31.39000 3875.128
31.56000 1797.814
31.73000 589.365
31.90000 444.507
32.07000 410.585
32.24000 406.436
32.41000 370.239
32.58000 369.728
32.75000 358.791
32.92000 359.273
33.09000 344.943
33.26000 334.212
33.43000 354.786
33.60000 341.883
33.77000 333.393
33.94000 324.800
34.11000 314.588
34.28000 313.344
34.45000 336.241
34.62000 325.078
34.79000 327.694
34.96000 326.385
35.13000 322.648
35.30000 307.983
35.47000 312.238
35.64000 303.989
35.81000 286.793
35.98000 305.349
36.15000 309.379
36.32000 286.203
36.49000 289.713
36.66000 288.750
36.83000 297.050
37.00000 306.705
37.17000 298.894
37.34000 289.620
37.51000 296.051
37.68000 303.566
37.85000 287.844
38.02000 295.583
38.19000 295.314
38.36000 325.231
38.53000 508.607
38.70000 821.083
38.87000 584.878
39.04000 333.165
39.21000 280.069
39.38000 286.633
39.55000 267.982
39.72000 255.128
39.89000 267.863
40.06000 255.120
40.23000 264.010
40.40000 258.231
40.57000 261.710
40.74000 247.557
40.91000 260.714
41.08000 245.585
41.25000 257.765
41.42000 246.591
41.59000 241.375
41.76000 236.485
41.93000 228.204
42.10000 236.174
42.27000 228.288
42.44000 234.192
42.61000 218.753
42.78000 235.882
42.95000 229.225
43.12000 225.694
43.29000 222.106
43.46000 217.293
43.63000 211.748
43.80000 222.500
43.97000 211.263
44.14000 224.151
44.31000 233.619
44.48000 225.103
44.65000 238.508
44.82000 280.340
44.99000 420.980
45.16000 430.815
45.33000 306.859
45.50000 253.739
45.67000 211.162
45.84000 216.493
46.01000 199.633
46.18000 203.280
46.35000 195.019
46.52000 198.264
46.69000 203.786
46.86000 190.565
47.03000 186.563
47.20000 194.034
47.37000 179.395
47.54000 186.397
47.71000 187.837
47.88000 181.796
48.05000 179.064
48.22000 181.839
48.39000 178.837
48.56000 189.420
48.73000 177.177
48.90000 183.474
49.07000 178.623
49.24000 173.586
49.41000 179.360
49.58000 174.657
49.75000 183.690
49.92000 172.470
50.09000 180.046
50.26000 186.613
50.43000 188.285
50.60000 248.478
50.77000 296.335
50.94000 216.416
51.11000 183.614
51.28000 175.237
51.45000 161.105
51.62000 175.150
51.79000 158.832
51.96000 163.055
52.13000 168.136
52.30000 164.097
52.47000 156.081
52.64000 163.001
52.81000 160.390
52.98000 162.374
53.15000 167.351
53.32000 150.953
53.49000 159.578
53.66000 163.310
53.83000 153.786
54.00000 151.118
54.17000 161.986
54.34000 164.856
54.51000 163.060
54.68000 163.722
54.85000 158.115
55.02000 164.020
55.19000 163.752
55.36000 176.424
55.53000 201.036
55.70000 337.691
55.87000 616.950
56.04000 596.244
56.21000 327.182
56.38000 192.756
56.55000 159.573
56.72000 153.313
56.89000 146.675
57.06000 146.171
57.23000 149.235
57.40000 150.657
57.57000 155.316
57.74000 144.228
57.91000 140.933
58.08000 137.824
58.25000 133.827
58.42000 144.631
58.59000 142.196
58.76000 127.769
58.93000 130.365
59.10000 134.240
59.27000 135.254
59.44000 134.241
59.61000 133.490
59.78000 129.429
59.95000 120.104
60.12000 133.248
60.29000 130.349
60.46000 136.457
60.63000 133.288
60.80000 127.694
60.97000 135.118
61.14000 139.568
61.31000 140.120
61.48000 148.129
61.65000 298.837
61.82000 217.827
61.99000 139.609
62.16000 139.534
62.33000 138.301
62.50000 149.931
62.67000 138.947
62.84000 134.772
63.01000 142.226
63.18000 141.729
63.35000 145.381
63.52000 133.778
63.69000 150.051
63.86000 149.310
64.03000 154.574
64.20000 154.809
64.37000 157.726
64.54000 166.619
64.71000 177.075
64.88000 190.697
65.05000 207.289
65.22000 241.066
65.39000 340.224
65.56000 457.644
65.73000 812.397
65.90000 1274.136
66.07000 381.680
66.24000 322.426
66.41000 494.355
66.58000 365.467
66.75000 318.827
66.92000 361.834
67.09000 386.398
67.26000 402.617
67.43000 435.073
67.60000 445.109
67.77000 501.235
67.94000 542.152
68.11000 607.095
68.28000 684.540
68.45000 806.452
68.62000 1206.647
68.79000 2307.901
68.96000 19368.957
69.13000 76473.742
69.30000 43929.414
69.47000 9593.176
69.64000 1437.792
69.81000 921.539
69.98000 727.786
70.00000 748.096