File: XRD/XRD/17-09-2025/XY Data/BTO_Mapping_Theta2Theta_09-17-2025_001_25_-15-000_15-000.xy
20.00000 544.201
20.17000 562.338
20.34000 554.180
20.51000 560.024
20.68000 580.386
20.85000 540.864
21.02000 535.463
21.19000 544.645
21.36000 555.448
21.53000 517.964
21.70000 565.296
21.87000 690.786
22.04000 896.767
22.21000 687.355
22.38000 555.306
22.55000 522.161
22.72000 519.253
22.89000 515.673
23.06000 516.052
23.23000 519.370
23.40000 495.199
23.57000 512.102
23.74000 496.684
23.91000 500.598
24.08000 492.315
24.25000 490.744
24.42000 502.002
24.59000 479.119
24.76000 473.231
24.93000 466.172
25.10000 493.865
25.27000 478.456
25.44000 459.829
25.61000 464.435
25.78000 466.285
25.95000 460.230
26.12000 466.353
26.29000 473.722
26.46000 425.955
26.63000 453.502
26.80000 456.765
26.97000 452.847
27.14000 446.927
27.31000 448.762
27.48000 446.064
27.65000 436.782
27.82000 433.637
27.99000 395.276
28.16000 443.111
28.33000 430.361
28.50000 434.395
28.67000 428.058
28.84000 424.581
29.01000 429.134
29.18000 418.279
29.35000 432.469
29.52000 433.107
29.69000 426.491
29.86000 422.130
30.03000 452.758
30.20000 454.210
30.37000 415.279
30.54000 439.021
30.71000 449.282
30.88000 499.951
31.05000 711.143
31.22000 2297.564
31.39000 3934.433
31.56000 1650.863
31.73000 568.661
31.90000 456.779
32.07000 419.935
32.24000 405.739
32.41000 390.389
32.58000 390.358
32.75000 353.223
32.92000 372.894
33.09000 359.719
33.26000 349.878
33.43000 360.607
33.60000 355.629
33.77000 335.130
33.94000 345.099
34.11000 321.433
34.28000 341.174
34.45000 329.586
34.62000 337.169
34.79000 334.587
34.96000 313.032
35.13000 315.304
35.30000 334.290
35.47000 310.165
35.64000 313.332
35.81000 304.556
35.98000 309.295
36.15000 313.150
36.32000 298.242
36.49000 298.775
36.66000 294.257
36.83000 295.717
37.00000 293.662
37.17000 298.683
37.34000 277.036
37.51000 303.545
37.68000 291.739
37.85000 293.086
38.02000 288.018
38.19000 304.888
38.36000 323.696
38.53000 476.492
38.70000 675.413
38.87000 454.741
39.04000 314.921
39.21000 297.596
39.38000 256.998
39.55000 257.955
39.72000 265.035
39.89000 274.689
40.06000 238.739
40.23000 253.500
40.40000 266.581
40.57000 248.546
40.74000 274.954
40.91000 254.623
41.08000 265.237
41.25000 252.688
41.42000 247.287
41.59000 232.995
41.76000 232.996
41.93000 236.072
42.10000 243.277
42.27000 235.522
42.44000 227.459
42.61000 220.936
42.78000 242.644
42.95000 233.548
43.12000 227.954
43.29000 227.175
43.46000 219.734
43.63000 228.574
43.80000 225.120
43.97000 226.724
44.14000 232.430
44.31000 219.527
44.48000 223.475
44.65000 251.487
44.82000 326.423
44.99000 516.084
45.16000 463.188
45.33000 288.305
45.50000 238.147
45.67000 210.425
45.84000 220.707
46.01000 200.221
46.18000 201.109
46.35000 195.709
46.52000 198.395
46.69000 203.708
46.86000 197.266
47.03000 189.078
47.20000 187.831
47.37000 182.283
47.54000 193.744
47.71000 190.286
47.88000 185.938
48.05000 179.794
48.22000 190.019
48.39000 191.343
48.56000 183.902
48.73000 169.805
48.90000 181.977
49.07000 176.674
49.24000 181.147
49.41000 187.695
49.58000 176.924
49.75000 174.959
49.92000 182.452
50.09000 182.680
50.26000 193.635
50.43000 206.460
50.60000 287.017
50.77000 272.747
50.94000 216.936
51.11000 189.859
51.28000 185.747
51.45000 170.420
51.62000 162.485
51.79000 156.470
51.96000 162.698
52.13000 151.179
52.30000 155.481
52.47000 155.932
52.64000 162.718
52.81000 161.700
52.98000 164.460
53.15000 160.906
53.32000 160.459
53.49000 160.465
53.66000 170.867
53.83000 164.092
54.00000 156.577
54.17000 149.817
54.34000 145.915
54.51000 149.698
54.68000 154.600
54.85000 161.647
55.02000 161.289
55.19000 148.421
55.36000 168.003
55.53000 203.573
55.70000 388.623
55.87000 623.221
56.04000 540.292
56.21000 292.814
56.38000 192.183
56.55000 162.890
56.72000 160.235
56.89000 147.068
57.06000 148.386
57.23000 139.934
57.40000 149.859
57.57000 149.686
57.74000 137.694
57.91000 148.073
58.08000 139.749
58.25000 144.248
58.42000 135.940
58.59000 135.336
58.76000 130.729
58.93000 145.065
59.10000 143.378
59.27000 132.576
59.44000 140.372
59.61000 132.860
59.78000 120.940
59.95000 127.419
60.12000 143.002
60.29000 124.992
60.46000 128.869
60.63000 128.795
60.80000 141.513
60.97000 132.974
61.14000 144.120
61.31000 141.377
61.48000 154.275
61.65000 336.024
61.82000 232.794
61.99000 138.804
62.16000 142.681
62.33000 161.518
62.50000 144.618
62.67000 148.798
62.84000 151.118
63.01000 149.496
63.18000 147.018
63.35000 152.369
63.52000 148.471
63.69000 153.855
63.86000 167.616
64.03000 162.456
64.20000 153.857
64.37000 160.892
64.54000 159.540
64.71000 172.568
64.88000 186.850
65.05000 200.025
65.22000 264.315
65.39000 375.186
65.56000 474.035
65.73000 844.348
65.90000 1342.271
66.07000 411.580
66.24000 342.489
66.41000 508.214
66.58000 374.105
66.75000 353.480
66.92000 358.639
67.09000 371.985
67.26000 412.424
67.43000 441.164
67.60000 502.837
67.77000 525.374
67.94000 571.731
68.11000 635.244
68.28000 688.914
68.45000 826.163
68.62000 1259.697
68.79000 2505.902
68.96000 21082.824
69.13000 83240.227
69.30000 48615.656
69.47000 10893.085
69.64000 1539.620
69.81000 1009.037
69.98000 811.824
70.00000 784.842