File: XRD/XRD/17-09-2025/XY Data/BTO_Mapping_Theta2Theta_09-17-2025_001_26_0-000_15-000.xy
20.00000 560.002
20.17000 554.689
20.34000 552.848
20.51000 539.370
20.68000 546.657
20.85000 554.108
21.02000 556.481
21.19000 530.265
21.36000 554.400
21.53000 540.779
21.70000 566.143
21.87000 646.361
22.04000 737.891
22.21000 671.609
22.38000 547.933
22.55000 530.208
22.72000 506.570
22.89000 526.938
23.06000 486.059
23.23000 516.839
23.40000 494.454
23.57000 490.182
23.74000 508.052
23.91000 490.509
24.08000 477.101
24.25000 489.213
24.42000 477.915
24.59000 483.695
24.76000 468.968
24.93000 468.055
25.10000 482.316
25.27000 461.067
25.44000 456.895
25.61000 470.372
25.78000 449.604
25.95000 460.734
26.12000 460.174
26.29000 440.729
26.46000 453.759
26.63000 447.883
26.80000 445.990
26.97000 451.412
27.14000 435.705
27.31000 450.721
27.48000 428.861
27.65000 435.440
27.82000 413.037
27.99000 424.078
28.16000 420.197
28.33000 438.730
28.50000 419.221
28.67000 433.915
28.84000 405.784
29.01000 419.799
29.18000 410.006
29.35000 431.403
29.52000 410.480
29.69000 403.132
29.86000 419.859
30.03000 439.821
30.20000 435.368
30.37000 424.128
30.54000 449.603
30.71000 426.269
30.88000 479.195
31.05000 629.918
31.22000 1870.922
31.39000 3695.595
31.56000 1855.849
31.73000 604.244
31.90000 435.570
32.07000 415.920
32.24000 398.109
32.41000 392.662
32.58000 388.499
32.75000 368.743
32.92000 359.017
33.09000 355.723
33.26000 342.732
33.43000 346.746
33.60000 333.204
33.77000 328.767
33.94000 322.145
34.11000 321.656
34.28000 338.270
34.45000 344.012
34.62000 338.199
34.79000 330.870
34.96000 319.990
35.13000 316.481
35.30000 314.923
35.47000 315.525
35.64000 304.055
35.81000 322.989
35.98000 295.630
36.15000 298.516
36.32000 295.277
36.49000 301.078
36.66000 301.461
36.83000 296.312
37.00000 305.527
37.17000 298.678
37.34000 298.151
37.51000 297.350
37.68000 295.099
37.85000 293.697
38.02000 288.334
38.19000 311.030
38.36000 329.762
38.53000 484.001
38.70000 827.915
38.87000 644.477
39.04000 324.885
39.21000 269.359
39.38000 277.545
39.55000 254.695
39.72000 246.294
39.89000 262.815
40.06000 268.327
40.23000 243.298
40.40000 256.257
40.57000 247.337
40.74000 259.745
40.91000 235.530
41.08000 245.122
41.25000 251.959
41.42000 240.124
41.59000 238.585
41.76000 235.787
41.93000 224.355
42.10000 233.015
42.27000 221.454
42.44000 233.233
42.61000 243.755
42.78000 221.738
42.95000 236.681
43.12000 229.586
43.29000 219.420
43.46000 223.107
43.63000 216.409
43.80000 216.592
43.97000 214.308
44.14000 206.085
44.31000 215.129
44.48000 224.059
44.65000 227.352
44.82000 268.186
44.99000 361.820
45.16000 405.998
45.33000 298.720
45.50000 241.968
45.67000 225.430
45.84000 215.244
46.01000 206.249
46.18000 203.190
46.35000 207.474
46.52000 194.818
46.69000 201.990
46.86000 195.066
47.03000 184.333
47.20000 181.798
47.37000 193.913
47.54000 188.731
47.71000 181.397
47.88000 179.507
48.05000 187.056
48.22000 175.013
48.39000 184.289
48.56000 180.332
48.73000 184.038
48.90000 177.004
49.07000 168.491
49.24000 179.389
49.41000 177.888
49.58000 175.176
49.75000 182.200
49.92000 178.097
50.09000 181.143
50.26000 181.141
50.43000 191.753
50.60000 242.205
50.77000 273.614
50.94000 214.210
51.11000 195.412
51.28000 168.941
51.45000 161.199
51.62000 164.934
51.79000 168.286
51.96000 160.388
52.13000 169.343
52.30000 162.661
52.47000 161.298
52.64000 149.876
52.81000 161.350
52.98000 157.401
53.15000 166.514
53.32000 160.247
53.49000 166.683
53.66000 142.879
53.83000 157.304
54.00000 148.860
54.17000 149.160
54.34000 152.701
54.51000 151.647
54.68000 152.752
54.85000 148.379
55.02000 151.969
55.19000 165.867
55.36000 157.411
55.53000 205.878
55.70000 300.721
55.87000 570.989
56.04000 607.070
56.21000 326.518
56.38000 191.242
56.55000 166.319
56.72000 159.074
56.89000 148.546
57.06000 149.931
57.23000 154.909
57.40000 152.066
57.57000 154.932
57.74000 147.209
57.91000 150.259
58.08000 135.477
58.25000 138.732
58.42000 130.756
58.59000 134.596
58.76000 123.612
58.93000 141.545
59.10000 128.707
59.27000 127.841
59.44000 137.329
59.61000 130.067
59.78000 146.312
59.95000 137.542
60.12000 127.579
60.29000 130.733
60.46000 129.891
60.63000 135.676
60.80000 121.177
60.97000 133.259
61.14000 139.448
61.31000 136.927
61.48000 154.207
61.65000 281.898
61.82000 206.235
61.99000 138.523
62.16000 142.249
62.33000 140.545
62.50000 142.925
62.67000 139.241
62.84000 147.704
63.01000 143.902
63.18000 153.202
63.35000 154.382
63.52000 157.852
63.69000 154.334
63.86000 144.377
64.03000 157.741
64.20000 154.849
64.37000 163.461
64.54000 181.191
64.71000 173.700
64.88000 170.812
65.05000 205.117
65.22000 237.646
65.39000 324.737
65.56000 435.509
65.73000 757.437
65.90000 1197.630
66.07000 408.948
66.24000 315.110
66.41000 453.062
66.58000 353.717
66.75000 331.247
66.92000 353.377
67.09000 355.330
67.26000 397.902
67.43000 414.386
67.60000 458.968
67.77000 525.861
67.94000 515.926
68.11000 583.122
68.28000 637.023
68.45000 745.742
68.62000 1171.383
68.79000 2162.195
68.96000 16386.953
69.13000 72293.602
69.30000 42278.461
69.47000 9539.821
69.64000 1410.177
69.81000 911.196
69.98000 765.141
70.00000 748.810