File: XRD/XRD/17-09-2025/XY Data/BTO_Mapping_Theta2Theta_09-17-2025_001_10_-30-000_-15-000.xy
20.00000 573.569
20.17000 572.671
20.34000 538.417
20.51000 560.508
20.68000 568.752
20.85000 541.249
21.02000 555.993
21.19000 561.801
21.36000 571.551
21.53000 573.057
21.70000 676.303
21.87000 950.335
22.04000 1005.400
22.21000 678.511
22.38000 570.678
22.55000 539.451
22.72000 524.649
22.89000 533.810
23.06000 522.757
23.23000 485.827
23.40000 513.081
23.57000 524.256
23.74000 507.358
23.91000 497.867
24.08000 494.549
24.25000 507.559
24.42000 503.655
24.59000 506.067
24.76000 477.230
24.93000 485.003
25.10000 468.832
25.27000 484.334
25.44000 481.159
25.61000 481.118
25.78000 478.092
25.95000 482.155
26.12000 467.736
26.29000 454.626
26.46000 448.062
26.63000 461.978
26.80000 451.944
26.97000 449.636
27.14000 464.516
27.31000 455.496
27.48000 450.444
27.65000 446.799
27.82000 437.232
27.99000 461.849
28.16000 454.703
28.33000 444.710
28.50000 417.796
28.67000 437.479
28.84000 441.904
29.01000 442.538
29.18000 426.967
29.35000 433.578
29.52000 435.418
29.69000 442.368
29.86000 457.880
30.03000 481.983
30.20000 445.327
30.37000 452.290
30.54000 463.482
30.71000 486.482
30.88000 576.788
31.05000 1320.442
31.22000 3568.682
31.39000 2688.675
31.56000 883.862
31.73000 519.623
31.90000 458.826
32.07000 427.739
32.24000 411.309
32.41000 397.903
32.58000 396.728
32.75000 371.059
32.92000 383.083
33.09000 369.831
33.26000 361.580
33.43000 356.861
33.60000 363.070
33.77000 343.648
33.94000 352.915
34.11000 332.669
34.28000 334.340
34.45000 345.463
34.62000 308.603
34.79000 311.797
34.96000 327.086
35.13000 316.257
35.30000 312.541
35.47000 308.812
35.64000 318.424
35.81000 302.361
35.98000 294.227
36.15000 329.655
36.32000 308.601
36.49000 309.716
36.66000 289.317
36.83000 310.634
37.00000 299.404
37.17000 310.003
37.34000 292.087
37.51000 314.361
37.68000 286.809
37.85000 290.807
38.02000 306.616
38.19000 333.808
38.36000 377.737
38.53000 481.873
38.70000 428.792
38.87000 333.441
39.04000 303.678
39.21000 290.967
39.38000 271.117
39.55000 256.359
39.72000 264.674
39.89000 260.579
40.06000 265.300
40.23000 257.217
40.40000 259.521
40.57000 254.420
40.74000 266.588
40.91000 254.517
41.08000 241.155
41.25000 254.709
41.42000 246.956
41.59000 250.580
41.76000 249.726
41.93000 250.279
42.10000 232.595
42.27000 254.652
42.44000 250.280
42.61000 253.420
42.78000 244.978
42.95000 244.494
43.12000 230.438
43.29000 236.691
43.46000 240.311
43.63000 221.906
43.80000 232.399
43.97000 236.407
44.14000 231.729
44.31000 250.810
44.48000 308.920
44.65000 449.501
44.82000 657.940
44.99000 651.716
45.16000 427.328
45.33000 312.011
45.50000 243.725
45.67000 231.432
45.84000 223.721
46.01000 206.838
46.18000 220.138
46.35000 213.025
46.52000 214.831
46.69000 205.252
46.86000 202.906
47.03000 212.469
47.20000 210.823
47.37000 186.641
47.54000 191.901
47.71000 188.643
47.88000 185.838
48.05000 191.581
48.22000 196.827
48.39000 198.189
48.56000 181.360
48.73000 177.595
48.90000 192.476
49.07000 179.878
49.24000 189.970
49.41000 172.283
49.58000 184.042
49.75000 185.199
49.92000 180.273
50.09000 171.790
50.26000 224.033
50.43000 297.574
50.60000 288.552
50.77000 249.508
50.94000 190.240
51.11000 191.643
51.28000 176.825
51.45000 178.947
51.62000 165.068
51.79000 159.269
51.96000 165.275
52.13000 177.743
52.30000 174.400
52.47000 172.009
52.64000 158.577
52.81000 168.616
52.98000 154.378
53.15000 166.032
53.32000 169.333
53.49000 161.930
53.66000 163.373
53.83000 170.696
54.00000 155.571
54.17000 156.344
54.34000 158.039
54.51000 164.584
54.68000 160.709
54.85000 162.736
55.02000 163.387
55.19000 193.781
55.36000 227.414
55.53000 376.803
55.70000 522.630
55.87000 455.302
56.04000 287.909
56.21000 212.433
56.38000 163.607
56.55000 156.202
56.72000 152.202
56.89000 146.232
57.06000 143.874
57.23000 152.007
57.40000 139.208
57.57000 147.119
57.74000 145.069
57.91000 142.407
58.08000 144.999
58.25000 138.662
58.42000 141.841
58.59000 148.123
58.76000 133.879
58.93000 140.521
59.10000 145.754
59.27000 136.324
59.44000 135.089
59.61000 133.130
59.78000 132.268
59.95000 133.100
60.12000 136.293
60.29000 133.567
60.46000 140.521
60.63000 133.358
60.80000 138.590
60.97000 131.856
61.14000 141.859
61.31000 140.777
61.48000 157.187
61.65000 357.768
61.82000 223.093
61.99000 147.260
62.16000 144.122
62.33000 139.262
62.50000 143.751
62.67000 139.221
62.84000 144.764
63.01000 161.488
63.18000 160.657
63.35000 154.777
63.52000 148.927
63.69000 158.999
63.86000 151.383
64.03000 155.300
64.20000 162.276
64.37000 174.300
64.54000 167.422
64.71000 194.165
64.88000 224.140
65.05000 294.335
65.22000 404.216
65.39000 395.468
65.56000 375.171
65.73000 819.428
65.90000 1419.129
66.07000 417.534
66.24000 350.434
66.41000 529.129
66.58000 388.144
66.75000 345.896
66.92000 362.499
67.09000 379.042
67.26000 429.922
67.43000 450.042
67.60000 486.100
67.77000 541.289
67.94000 594.578
68.11000 661.281
68.28000 735.218
68.45000 893.098
68.62000 1362.836
68.79000 2674.408
68.96000 24735.900
69.13000 92343.016
69.30000 54290.332
69.47000 12458.469
69.64000 1686.300
69.81000 1044.225
69.98000 819.429
70.00000 803.770