File: XRD/XRD/17-09-2025/XY Data/BTO_Mapping_Theta2Theta_09-17-2025_001_15_45-000_-15-000.xy
20.00000 552.169
20.17000 585.505
20.34000 549.754
20.51000 526.172
20.68000 549.788
20.85000 532.534
21.02000 548.975
21.19000 547.397
21.36000 526.935
21.53000 531.846
21.70000 547.262
21.87000 570.210
22.04000 595.298
22.21000 586.442
22.38000 542.781
22.55000 532.733
22.72000 514.516
22.89000 532.582
23.06000 511.095
23.23000 511.884
23.40000 494.176
23.57000 483.560
23.74000 493.243
23.91000 498.572
24.08000 494.947
24.25000 482.636
24.42000 469.408
24.59000 489.326
24.76000 476.372
24.93000 495.697
25.10000 468.672
25.27000 469.318
25.44000 449.960
25.61000 452.023
25.78000 447.589
25.95000 459.502
26.12000 457.557
26.29000 426.576
26.46000 456.899
26.63000 444.007
26.80000 427.325
26.97000 430.581
27.14000 427.136
27.31000 429.622
27.48000 427.223
27.65000 411.024
27.82000 423.293
27.99000 412.644
28.16000 421.770
28.33000 427.392
28.50000 424.998
28.67000 419.673
28.84000 411.753
29.01000 407.889
29.18000 413.157
29.35000 407.471
29.52000 389.022
29.69000 400.449
29.86000 397.565
30.03000 385.036
30.20000 392.848
30.37000 393.546
30.54000 385.734
30.71000 383.221
30.88000 422.536
31.05000 473.060
31.22000 706.776
31.39000 762.505
31.56000 537.287
31.73000 410.441
31.90000 379.421
32.07000 368.872
32.24000 355.910
32.41000 365.509
32.58000 352.385
32.75000 336.482
32.92000 339.070
33.09000 344.743
33.26000 328.210
33.43000 334.295
33.60000 338.132
33.77000 333.575
33.94000 332.907
34.11000 319.518
34.28000 325.557
34.45000 328.719
34.62000 323.007
34.79000 325.432
34.96000 303.314
35.13000 321.137
35.30000 290.171
35.47000 300.144
35.64000 305.757
35.81000 285.267
35.98000 299.391
36.15000 288.392
36.32000 298.032
36.49000 279.067
36.66000 281.271
36.83000 284.416
37.00000 298.000
37.17000 286.661
37.34000 288.741
37.51000 279.637
37.68000 285.074
37.85000 292.953
38.02000 296.166
38.19000 281.953
38.36000 271.220
38.53000 365.914
38.70000 448.044
38.87000 335.747
39.04000 286.464
39.21000 267.148
39.38000 271.527
39.55000 248.357
39.72000 245.693
39.89000 249.332
40.06000 251.588
40.23000 245.509
40.40000 254.064
40.57000 238.624
40.74000 237.488
40.91000 232.521
41.08000 238.564
41.25000 236.737
41.42000 241.374
41.59000 235.278
41.76000 228.323
41.93000 231.594
42.10000 233.584
42.27000 209.776
42.44000 244.754
42.61000 234.806
42.78000 214.157
42.95000 235.412
43.12000 224.398
43.29000 232.420
43.46000 207.722
43.63000 219.839
43.80000 216.543
43.97000 199.465
44.14000 217.106
44.31000 216.414
44.48000 219.010
44.65000 230.447
44.82000 234.711
44.99000 247.073
45.16000 246.230
45.33000 234.802
45.50000 230.446
45.67000 203.273
45.84000 196.329
46.01000 216.951
46.18000 188.956
46.35000 200.438
46.52000 192.183
46.69000 200.204
46.86000 208.865
47.03000 200.649
47.20000 186.292
47.37000 182.310
47.54000 195.491
47.71000 189.625
47.88000 177.922
48.05000 180.027
48.22000 184.298
48.39000 172.693
48.56000 183.051
48.73000 176.271
48.90000 182.104
49.07000 178.844
49.24000 176.803
49.41000 178.214
49.58000 187.274
49.75000 172.992
49.92000 168.304
50.09000 167.147
50.26000 174.868
50.43000 187.568
50.60000 173.634
50.77000 174.740
50.94000 164.615
51.11000 166.001
51.28000 164.200
51.45000 164.094
51.62000 151.992
51.79000 155.845
51.96000 149.644
52.13000 157.060
52.30000 165.698
52.47000 149.433
52.64000 157.932
52.81000 158.395
52.98000 146.487
53.15000 157.235
53.32000 158.384
53.49000 152.567
53.66000 160.895
53.83000 148.694
54.00000 147.951
54.17000 142.570
54.34000 145.794
54.51000 151.532
54.68000 153.263
54.85000 152.412
55.02000 148.569
55.19000 153.355
55.36000 140.656
55.53000 173.668
55.70000 201.884
55.87000 222.794
56.04000 213.884
56.21000 159.030
56.38000 145.883
56.55000 146.246
56.72000 144.074
56.89000 133.096
57.06000 130.883
57.23000 134.255
57.40000 145.010
57.57000 133.280
57.74000 138.977
57.91000 132.883
58.08000 135.629
58.25000 130.665
58.42000 138.317
58.59000 119.865
58.76000 139.583
58.93000 144.584
59.10000 134.010
59.27000 127.792
59.44000 127.943
59.61000 135.104
59.78000 124.382
59.95000 133.964
60.12000 116.568
60.29000 147.876
60.46000 122.646
60.63000 129.187
60.80000 142.152
60.97000 145.076
61.14000 144.559
61.31000 131.878
61.48000 147.384
61.65000 255.158
61.82000 184.832
61.99000 142.273
62.16000 143.883
62.33000 135.099
62.50000 140.427
62.67000 141.754
62.84000 142.389
63.01000 148.539
63.18000 134.005
63.35000 151.729
63.52000 156.746
63.69000 143.109
63.86000 154.813
64.03000 160.487
64.20000 158.447
64.37000 160.471
64.54000 170.793
64.71000 177.291
64.88000 179.562
65.05000 191.413
65.22000 199.247
65.39000 225.461
65.56000 242.566
65.73000 490.918
65.90000 924.316
66.07000 353.232
66.24000 295.309
66.41000 416.532
66.58000 319.873
66.75000 331.790
66.92000 322.376
67.09000 350.107
67.26000 386.993
67.43000 405.743
67.60000 431.152
67.77000 475.424
67.94000 523.445
68.11000 562.289
68.28000 641.564
68.45000 720.534
68.62000 979.653
68.79000 1784.823
68.96000 10399.731
69.13000 53688.699
69.30000 32020.010
69.47000 7930.348
69.64000 1222.035
69.81000 852.846
69.98000 663.828
70.00000 662.771