File: XRD/XRD/17-09-2025/XY Data/BTO_Mapping_Theta2Theta_09-17-2025_001_05_-15-000_-30-000.xy
20.00000 558.319
20.17000 540.517
20.34000 561.793
20.51000 554.747
20.68000 556.170
20.85000 548.156
21.02000 555.804
21.19000 534.456
21.36000 561.631
21.53000 528.896
21.70000 587.098
21.87000 719.489
22.04000 848.973
22.21000 663.992
22.38000 552.920
22.55000 532.068
22.72000 528.737
22.89000 509.453
23.06000 513.729
23.23000 533.416
23.40000 486.291
23.57000 495.514
23.74000 494.943
23.91000 485.492
24.08000 497.617
24.25000 483.228
24.42000 500.304
24.59000 474.063
24.76000 482.264
24.93000 485.806
25.10000 474.887
25.27000 474.469
25.44000 484.910
25.61000 471.143
25.78000 452.689
25.95000 455.782
26.12000 469.648
26.29000 459.847
26.46000 469.368
26.63000 460.513
26.80000 424.214
26.97000 441.576
27.14000 443.022
27.31000 433.712
27.48000 446.202
27.65000 427.266
27.82000 431.217
27.99000 434.198
28.16000 424.084
28.33000 428.650
28.50000 414.826
28.67000 425.464
28.84000 421.691
29.01000 429.014
29.18000 437.372
29.35000 418.557
29.52000 409.092
29.69000 419.347
29.86000 450.428
30.03000 464.220
30.20000 429.826
30.37000 428.788
30.54000 446.949
30.71000 455.430
30.88000 503.050
31.05000 744.302
31.22000 2452.118
31.39000 4083.266
31.56000 1584.406
31.73000 556.962
31.90000 452.716
32.07000 418.832
32.24000 412.917
32.41000 391.003
32.58000 388.505
32.75000 366.471
32.92000 361.461
33.09000 373.839
33.26000 339.220
33.43000 343.388
33.60000 336.416
33.77000 328.335
33.94000 342.366
34.11000 327.819
34.28000 339.026
34.45000 330.631
34.62000 324.235
34.79000 324.062
34.96000 315.811
35.13000 302.642
35.30000 322.278
35.47000 314.963
35.64000 303.777
35.81000 313.963
35.98000 294.478
36.15000 300.368
36.32000 296.901
36.49000 305.082
36.66000 310.542
36.83000 321.255
37.00000 311.091
37.17000 287.957
37.34000 297.226
37.51000 280.887
37.68000 287.897
37.85000 293.383
38.02000 292.298
38.19000 291.245
38.36000 327.657
38.53000 505.990
38.70000 662.453
38.87000 451.785
39.04000 285.158
39.21000 273.971
39.38000 272.617
39.55000 286.195
39.72000 271.932
39.89000 262.130
40.06000 259.345
40.23000 249.193
40.40000 261.710
40.57000 244.013
40.74000 240.820
40.91000 238.364
41.08000 231.473
41.25000 247.106
41.42000 241.233
41.59000 236.436
41.76000 243.045
41.93000 235.028
42.10000 226.523
42.27000 240.123
42.44000 233.003
42.61000 234.428
42.78000 236.783
42.95000 235.173
43.12000 233.246
43.29000 219.129
43.46000 215.049
43.63000 237.215
43.80000 234.068
43.97000 231.479
44.14000 233.815
44.31000 217.455
44.48000 227.747
44.65000 265.222
44.82000 367.762
44.99000 483.160
45.16000 413.578
45.33000 281.571
45.50000 242.312
45.67000 235.047
45.84000 196.939
46.01000 196.334
46.18000 200.649
46.35000 204.195
46.52000 202.994
46.69000 194.981
46.86000 200.386
47.03000 190.126
47.20000 206.399
47.37000 191.879
47.54000 197.031
47.71000 188.032
47.88000 184.513
48.05000 181.069
48.22000 183.109
48.39000 180.691
48.56000 189.635
48.73000 181.775
48.90000 178.641
49.07000 183.141
49.24000 188.794
49.41000 172.566
49.58000 186.725
49.75000 180.992
49.92000 178.590
50.09000 183.201
50.26000 172.738
50.43000 214.926
50.60000 287.129
50.77000 282.661
50.94000 215.585
51.11000 177.660
51.28000 170.957
51.45000 167.620
51.62000 171.122
51.79000 164.041
51.96000 172.808
52.13000 170.999
52.30000 153.302
52.47000 162.381
52.64000 147.408
52.81000 152.445
52.98000 168.547
53.15000 165.178
53.32000 164.951
53.49000 165.875
53.66000 152.653
53.83000 155.541
54.00000 142.301
54.17000 167.204
54.34000 155.966
54.51000 161.233
54.68000 158.363
54.85000 164.111
55.02000 156.914
55.19000 160.910
55.36000 179.419
55.53000 233.191
55.70000 458.004
55.87000 682.869
56.04000 519.525
56.21000 266.450
56.38000 189.545
56.55000 161.235
56.72000 142.717
56.89000 139.066
57.06000 148.814
57.23000 140.406
57.40000 141.070
57.57000 133.914
57.74000 142.255
57.91000 139.708
58.08000 140.250
58.25000 139.641
58.42000 133.627
58.59000 140.017
58.76000 128.997
58.93000 140.035
59.10000 144.177
59.27000 138.495
59.44000 133.144
59.61000 139.609
59.78000 134.245
59.95000 142.255
60.12000 123.668
60.29000 139.777
60.46000 138.816
60.63000 124.103
60.80000 134.497
60.97000 131.717
61.14000 138.026
61.31000 149.723
61.48000 150.871
61.65000 333.255
61.82000 223.505
61.99000 151.102
62.16000 129.696
62.33000 150.337
62.50000 132.084
62.67000 139.883
62.84000 144.216
63.01000 139.599
63.18000 144.900
63.35000 145.799
63.52000 150.250
63.69000 149.664
63.86000 147.321
64.03000 165.170
64.20000 161.935
64.37000 170.654
64.54000 166.812
64.71000 189.654
64.88000 179.264
65.05000 204.221
65.22000 275.360
65.39000 393.102
65.56000 504.554
65.73000 891.745
65.90000 1325.707
66.07000 417.317
66.24000 350.768
66.41000 538.093
66.58000 377.424
66.75000 327.386
66.92000 367.826
67.09000 393.859
67.26000 415.849
67.43000 448.395
67.60000 482.148
67.77000 518.792
67.94000 578.731
68.11000 644.595
68.28000 735.757
68.45000 857.271
68.62000 1315.327
68.79000 2587.858
68.96000 23710.086
69.13000 85848.078
69.30000 49743.914
69.47000 10764.898
69.64000 1516.318
69.81000 1012.010
69.98000 794.824
70.00000 797.646