File: XRD/XRD/17-09-2025/XY Data/BTO_Mapping_Theta2Theta_09-17-2025_001_33_15-000_30-000.xy
20.00000 558.954
20.17000 538.361
20.34000 553.672
20.51000 562.301
20.68000 557.776
20.85000 536.025
21.02000 544.256
21.19000 562.796
21.36000 550.478
21.53000 529.134
21.70000 530.529
21.87000 564.274
22.04000 629.190
22.21000 610.061
22.38000 555.963
22.55000 519.080
22.72000 512.870
22.89000 506.022
23.06000 507.567
23.23000 516.226
23.40000 492.166
23.57000 498.970
23.74000 491.867
23.91000 503.182
24.08000 497.032
24.25000 495.797
24.42000 493.670
24.59000 498.685
24.76000 483.627
24.93000 484.895
25.10000 480.670
25.27000 478.565
25.44000 461.351
25.61000 449.190
25.78000 455.596
25.95000 438.027
26.12000 454.543
26.29000 449.506
26.46000 443.728
26.63000 454.112
26.80000 444.478
26.97000 445.610
27.14000 423.612
27.31000 422.046
27.48000 452.796
27.65000 435.532
27.82000 424.931
27.99000 437.579
28.16000 417.795
28.33000 437.303
28.50000 408.265
28.67000 422.558
28.84000 413.169
29.01000 390.126
29.18000 411.734
29.35000 406.348
29.52000 392.402
29.69000 385.434
29.86000 409.937
30.03000 416.982
30.20000 433.421
30.37000 423.280
30.54000 415.828
30.71000 436.427
30.88000 457.207
31.05000 561.281
31.22000 1287.518
31.39000 2653.878
31.56000 1594.312
31.73000 551.189
31.90000 425.197
32.07000 402.288
32.24000 385.621
32.41000 390.077
32.58000 362.015
32.75000 363.187
32.92000 360.828
33.09000 329.519
33.26000 341.701
33.43000 330.383
33.60000 336.276
33.77000 331.093
33.94000 334.459
34.11000 341.252
34.28000 340.120
34.45000 349.364
34.62000 328.433
34.79000 328.702
34.96000 313.949
35.13000 327.006
35.30000 301.591
35.47000 311.479
35.64000 308.210
35.81000 293.392
35.98000 287.497
36.15000 303.389
36.32000 281.748
36.49000 285.702
36.66000 292.232
36.83000 298.643
37.00000 310.079
37.17000 298.442
37.34000 286.968
37.51000 283.363
37.68000 285.720
37.85000 292.492
38.02000 290.449
38.19000 297.993
38.36000 321.557
38.53000 498.380
38.70000 1044.845
38.87000 884.451
39.04000 380.928
39.21000 295.027
39.38000 272.952
39.55000 273.247
39.72000 271.079
39.89000 267.685
40.06000 254.918
40.23000 257.140
40.40000 255.529
40.57000 241.420
40.74000 252.909
40.91000 244.921
41.08000 236.797
41.25000 242.759
41.42000 237.600
41.59000 235.720
41.76000 236.826
41.93000 241.691
42.10000 224.455
42.27000 239.248
42.44000 233.564
42.61000 223.563
42.78000 225.937
42.95000 222.283
43.12000 218.510
43.29000 231.225
43.46000 226.024
43.63000 231.765
43.80000 216.347
43.97000 208.034
44.14000 217.431
44.31000 216.791
44.48000 213.136
44.65000 237.439
44.82000 232.771
44.99000 275.929
45.16000 282.944
45.33000 252.005
45.50000 238.128
45.67000 238.818
45.84000 205.710
46.01000 210.595
46.18000 203.301
46.35000 206.365
46.52000 203.746
46.69000 202.491
46.86000 198.343
47.03000 188.960
47.20000 184.154
47.37000 192.070
47.54000 185.989
47.71000 183.394
47.88000 185.767
48.05000 176.803
48.22000 175.810
48.39000 180.711
48.56000 177.557
48.73000 180.930
48.90000 183.001
49.07000 187.011
49.24000 165.879
49.41000 180.742
49.58000 172.381
49.75000 173.055
49.92000 170.920
50.09000 188.744
50.26000 185.662
50.43000 192.591
50.60000 215.491
50.77000 221.121
50.94000 191.346
51.11000 179.769
51.28000 172.716
51.45000 163.788
51.62000 151.727
51.79000 158.630
51.96000 160.759
52.13000 156.713
52.30000 159.863
52.47000 153.813
52.64000 158.681
52.81000 151.296
52.98000 150.731
53.15000 152.936
53.32000 161.589
53.49000 153.498
53.66000 166.764
53.83000 156.578
54.00000 157.173
54.17000 152.555
54.34000 152.129
54.51000 153.641
54.68000 160.966
54.85000 162.607
55.02000 160.384
55.19000 164.449
55.36000 150.107
55.53000 188.077
55.70000 286.502
55.87000 524.955
56.04000 611.886
56.21000 366.008
56.38000 214.710
56.55000 164.905
56.72000 153.889
56.89000 144.620
57.06000 138.774
57.23000 144.374
57.40000 149.365
57.57000 143.150
57.74000 137.704
57.91000 141.328
58.08000 132.006
58.25000 135.927
58.42000 135.561
58.59000 145.655
58.76000 129.491
58.93000 123.935
59.10000 136.722
59.27000 134.875
59.44000 132.690
59.61000 129.176
59.78000 130.114
59.95000 133.091
60.12000 132.755
60.29000 132.700
60.46000 139.245
60.63000 127.557
60.80000 135.539
60.97000 140.712
61.14000 127.413
61.31000 145.797
61.48000 134.501
61.65000 237.010
61.82000 186.970
61.99000 133.238
62.16000 138.012
62.33000 134.592
62.50000 138.701
62.67000 148.416
62.84000 140.461
63.01000 146.613
63.18000 151.811
63.35000 143.330
63.52000 150.401
63.69000 144.170
63.86000 152.519
64.03000 142.655
64.20000 143.196
64.37000 158.776
64.54000 159.717
64.71000 163.202
64.88000 173.297
65.05000 188.852
65.22000 220.576
65.39000 278.370
65.56000 345.948
65.73000 553.294
65.90000 878.395
66.07000 344.592
66.24000 289.609
66.41000 384.547
66.58000 318.571
66.75000 280.423
66.92000 317.340
67.09000 331.529
67.26000 337.423
67.43000 378.600
67.60000 403.418
67.77000 428.434
67.94000 458.697
68.11000 516.623
68.28000 574.740
68.45000 661.547
68.62000 907.167
68.79000 1607.934
68.96000 9162.237
69.13000 47933.680
69.30000 29161.502
69.47000 7203.940
69.64000 1132.630
69.81000 745.266
69.98000 652.452
70.00000 653.744