File: XRD/XRD/17-09-2025/XY Data/BTO_Mapping_Theta2Theta_09-17-2025_001_13_15-000_-15-000.xy
20.00000 530.036
20.17000 564.695
20.34000 539.598
20.51000 558.383
20.68000 553.636
20.85000 539.609
21.02000 550.684
21.19000 531.792
21.36000 564.690
21.53000 549.131
21.70000 544.465
21.87000 585.125
22.04000 654.291
22.21000 631.109
22.38000 550.757
22.55000 529.813
22.72000 510.121
22.89000 504.946
23.06000 516.265
23.23000 496.221
23.40000 497.072
23.57000 499.718
23.74000 494.388
23.91000 495.513
24.08000 494.307
24.25000 471.982
24.42000 479.139
24.59000 487.300
24.76000 477.586
24.93000 460.159
25.10000 466.968
25.27000 458.162
25.44000 460.472
25.61000 458.399
25.78000 435.719
25.95000 469.753
26.12000 465.221
26.29000 442.212
26.46000 442.901
26.63000 426.354
26.80000 442.804
26.97000 434.853
27.14000 432.999
27.31000 432.116
27.48000 427.978
27.65000 433.267
27.82000 431.027
27.99000 425.942
28.16000 429.079
28.33000 423.898
28.50000 426.989
28.67000 418.320
28.84000 408.498
29.01000 404.509
29.18000 398.234
29.35000 413.865
29.52000 414.185
29.69000 409.977
29.86000 390.723
30.03000 441.149
30.20000 422.375
30.37000 406.820
30.54000 421.578
30.71000 432.389
30.88000 472.056
31.05000 595.577
31.22000 1614.969
31.39000 3288.481
31.56000 1790.850
31.73000 584.806
31.90000 456.982
32.07000 409.845
32.24000 397.208
32.41000 381.481
32.58000 375.063
32.75000 351.969
32.92000 346.031
33.09000 348.090
33.26000 335.534
33.43000 335.122
33.60000 340.355
33.77000 344.352
33.94000 331.587
34.11000 318.738
34.28000 327.922
34.45000 314.438
34.62000 321.273
34.79000 314.190
34.96000 321.828
35.13000 312.582
35.30000 312.003
35.47000 304.401
35.64000 316.261
35.81000 306.806
35.98000 291.296
36.15000 304.502
36.32000 293.856
36.49000 301.189
36.66000 303.221
36.83000 296.279
37.00000 293.567
37.17000 295.807
37.34000 296.659
37.51000 289.077
37.68000 291.929
37.85000 306.860
38.02000 298.621
38.19000 308.619
38.36000 324.883
38.53000 530.630
38.70000 981.080
38.87000 757.076
39.04000 366.925
39.21000 286.347
39.38000 282.048
39.55000 278.405
39.72000 260.665
39.89000 268.724
40.06000 257.056
40.23000 248.378
40.40000 261.636
40.57000 256.515
40.74000 257.139
40.91000 242.374
41.08000 236.381
41.25000 254.866
41.42000 252.080
41.59000 233.657
41.76000 236.134
41.93000 243.013
42.10000 243.158
42.27000 232.570
42.44000 220.047
42.61000 237.457
42.78000 232.556
42.95000 226.263
43.12000 215.236
43.29000 225.444
43.46000 224.644
43.63000 231.121
43.80000 217.273
43.97000 218.762
44.14000 208.987
44.31000 231.906
44.48000 213.788
44.65000 231.631
44.82000 238.685
44.99000 300.409
45.16000 326.591
45.33000 268.915
45.50000 228.624
45.67000 224.088
45.84000 202.182
46.01000 200.813
46.18000 209.160
46.35000 210.596
46.52000 209.593
46.69000 198.186
46.86000 201.084
47.03000 186.187
47.20000 187.455
47.37000 194.891
47.54000 187.202
47.71000 180.814
47.88000 177.858
48.05000 185.013
48.22000 191.238
48.39000 184.706
48.56000 170.319
48.73000 174.804
48.90000 179.467
49.07000 181.661
49.24000 165.189
49.41000 173.733
49.58000 172.185
49.75000 175.028
49.92000 169.785
50.09000 182.086
50.26000 172.552
50.43000 183.111
50.60000 235.762
50.77000 265.369
50.94000 208.824
51.11000 178.857
51.28000 166.781
51.45000 161.155
51.62000 163.211
51.79000 162.245
51.96000 157.677
52.13000 168.537
52.30000 153.894
52.47000 158.433
52.64000 161.762
52.81000 169.076
52.98000 150.596
53.15000 155.479
53.32000 160.695
53.49000 164.518
53.66000 163.388
53.83000 150.808
54.00000 151.526
54.17000 155.223
54.34000 148.013
54.51000 147.153
54.68000 143.601
54.85000 147.718
55.02000 148.168
55.19000 144.811
55.36000 157.177
55.53000 188.282
55.70000 297.033
55.87000 542.738
56.04000 624.440
56.21000 364.147
56.38000 205.728
56.55000 156.159
56.72000 156.114
56.89000 145.115
57.06000 145.911
57.23000 139.003
57.40000 138.698
57.57000 147.284
57.74000 148.796
57.91000 147.148
58.08000 131.746
58.25000 143.388
58.42000 146.853
58.59000 133.841
58.76000 138.868
58.93000 141.756
59.10000 141.309
59.27000 135.219
59.44000 137.702
59.61000 126.575
59.78000 132.342
59.95000 131.375
60.12000 126.780
60.29000 126.159
60.46000 133.347
60.63000 146.354
60.80000 138.701
60.97000 129.102
61.14000 126.264
61.31000 131.158
61.48000 138.908
61.65000 257.667
61.82000 178.702
61.99000 136.033
62.16000 146.135
62.33000 130.547
62.50000 140.927
62.67000 130.317
62.84000 135.567
63.01000 132.689
63.18000 149.818
63.35000 156.087
63.52000 143.757
63.69000 153.058
63.86000 146.030
64.03000 165.377
64.20000 154.101
64.37000 158.975
64.54000 154.815
64.71000 173.245
64.88000 182.724
65.05000 193.819
65.22000 214.076
65.39000 313.236
65.56000 401.239
65.73000 654.987
65.90000 955.680
66.07000 336.819
66.24000 280.939
66.41000 375.434
66.58000 308.569
66.75000 309.246
66.92000 303.448
67.09000 324.405
67.26000 330.608
67.43000 372.099
67.60000 415.705
67.77000 438.313
67.94000 496.830
68.11000 508.483
68.28000 568.056
68.45000 699.067
68.62000 952.259
68.79000 1747.054
68.96000 11938.014
69.13000 51008.055
69.30000 29449.070
69.47000 6469.980
69.64000 1135.771
69.81000 778.427
69.98000 632.885
70.00000 637.076