File: XRD/XRD/17-09-2025/XY Data/BTO_Mapping_Theta2Theta_09-17-2025_001_03_15-000_-45-000.xy
20.00000 562.743
20.17000 550.732
20.34000 545.292
20.51000 548.150
20.68000 539.909
20.85000 544.566
21.02000 532.138
21.19000 557.274
21.36000 551.687
21.53000 530.659
21.70000 552.514
21.87000 590.787
22.04000 637.769
22.21000 624.190
22.38000 567.677
22.55000 526.296
22.72000 502.468
22.89000 498.640
23.06000 507.587
23.23000 521.478
23.40000 475.047
23.57000 504.928
23.74000 519.177
23.91000 510.415
24.08000 485.209
24.25000 485.413
24.42000 488.775
24.59000 478.250
24.76000 464.605
24.93000 481.123
25.10000 468.478
25.27000 465.065
25.44000 467.235
25.61000 452.622
25.78000 451.272
25.95000 450.718
26.12000 459.632
26.29000 449.778
26.46000 440.838
26.63000 451.915
26.80000 427.746
26.97000 439.126
27.14000 447.543
27.31000 431.559
27.48000 420.507
27.65000 429.812
27.82000 422.066
27.99000 414.588
28.16000 423.348
28.33000 415.509
28.50000 430.632
28.67000 427.357
28.84000 424.030
29.01000 411.735
29.18000 395.266
29.35000 419.119
29.52000 418.927
29.69000 387.002
29.86000 402.762
30.03000 424.974
30.20000 434.045
30.37000 421.623
30.54000 409.243
30.71000 430.822
30.88000 473.194
31.05000 658.614
31.22000 1578.035
31.39000 2786.672
31.56000 1573.267
31.73000 609.851
31.90000 442.353
32.07000 393.341
32.24000 382.798
32.41000 362.883
32.58000 380.120
32.75000 344.230
32.92000 345.575
33.09000 351.684
33.26000 342.719
33.43000 338.079
33.60000 333.620
33.77000 339.540
33.94000 349.406
34.11000 337.382
34.28000 339.486
34.45000 312.970
34.62000 314.704
34.79000 318.307
34.96000 327.917
35.13000 303.839
35.30000 302.067
35.47000 295.143
35.64000 301.008
35.81000 311.483
35.98000 311.906
36.15000 296.063
36.32000 280.546
36.49000 293.381
36.66000 293.387
36.83000 296.051
37.00000 289.184
37.17000 290.176
37.34000 291.407
37.51000 288.542
37.68000 284.134
37.85000 285.447
38.02000 289.812
38.19000 304.017
38.36000 315.111
38.53000 418.594
38.70000 574.480
38.87000 475.531
39.04000 312.451
39.21000 284.636
39.38000 264.713
39.55000 264.155
39.72000 273.094
39.89000 256.359
40.06000 257.173
40.23000 255.562
40.40000 253.174
40.57000 253.124
40.74000 241.477
40.91000 251.166
41.08000 248.008
41.25000 248.630
41.42000 245.821
41.59000 237.559
41.76000 233.869
41.93000 235.141
42.10000 240.092
42.27000 234.858
42.44000 230.790
42.61000 229.691
42.78000 235.099
42.95000 232.901
43.12000 222.469
43.29000 226.696
43.46000 214.235
43.63000 214.355
43.80000 224.553
43.97000 216.426
44.14000 218.006
44.31000 218.883
44.48000 220.746
44.65000 232.082
44.82000 259.460
44.99000 305.344
45.16000 320.486
45.33000 299.589
45.50000 252.331
45.67000 252.767
45.84000 212.239
46.01000 212.924
46.18000 196.779
46.35000 211.151
46.52000 209.489
46.69000 196.630
46.86000 182.239
47.03000 183.262
47.20000 191.081
47.37000 180.052
47.54000 198.401
47.71000 173.046
47.88000 188.343
48.05000 176.494
48.22000 183.590
48.39000 180.140
48.56000 176.420
48.73000 184.978
48.90000 184.283
49.07000 172.977
49.24000 173.765
49.41000 163.433
49.58000 177.309
49.75000 175.094
49.92000 163.784
50.09000 172.178
50.26000 177.282
50.43000 186.025
50.60000 229.514
50.77000 240.350
50.94000 197.931
51.11000 189.665
51.28000 167.035
51.45000 162.322
51.62000 162.205
51.79000 166.976
51.96000 165.127
52.13000 156.225
52.30000 161.144
52.47000 150.253
52.64000 150.678
52.81000 154.050
52.98000 152.890
53.15000 151.862
53.32000 160.021
53.49000 157.504
53.66000 154.983
53.83000 151.166
54.00000 151.953
54.17000 159.597
54.34000 151.116
54.51000 155.964
54.68000 152.042
54.85000 153.043
55.02000 159.144
55.19000 153.231
55.36000 149.682
55.53000 180.825
55.70000 245.838
55.87000 389.685
56.04000 397.544
56.21000 290.236
56.38000 192.898
56.55000 161.555
56.72000 143.157
56.89000 146.843
57.06000 142.596
57.23000 136.724
57.40000 141.460
57.57000 133.763
57.74000 132.852
57.91000 136.069
58.08000 134.995
58.25000 135.164
58.42000 132.400
58.59000 129.492
58.76000 123.925
58.93000 133.320
59.10000 133.796
59.27000 130.769
59.44000 132.162
59.61000 131.071
59.78000 125.784
59.95000 132.032
60.12000 127.386
60.29000 132.352
60.46000 131.715
60.63000 141.181
60.80000 123.867
60.97000 131.241
61.14000 146.971
61.31000 134.295
61.48000 136.295
61.65000 254.983
61.82000 183.297
61.99000 143.208
62.16000 135.545
62.33000 132.620
62.50000 140.683
62.67000 146.165
62.84000 135.704
63.01000 144.634
63.18000 147.751
63.35000 137.854
63.52000 142.444
63.69000 144.460
63.86000 153.504
64.03000 155.423
64.20000 156.684
64.37000 167.326
64.54000 152.430
64.71000 168.386
64.88000 188.221
65.05000 185.669
65.22000 232.851
65.39000 300.293
65.56000 370.656
65.73000 674.446
65.90000 986.090
66.07000 360.565
66.24000 311.560
66.41000 427.500
66.58000 326.189
66.75000 301.071
66.92000 336.016
67.09000 352.350
67.26000 358.542
67.43000 393.272
67.60000 406.494
67.77000 461.948
67.94000 511.737
68.11000 569.406
68.28000 635.142
68.45000 707.868
68.62000 1022.942
68.79000 1851.529
68.96000 14127.444
69.13000 55182.707
69.30000 31531.619
69.47000 6624.452
69.64000 1176.356
69.81000 802.161
69.98000 636.589
70.00000 647.817