File: XRD/XRD/17-09-2025/XY Data/BTO_Mapping_Theta2Theta_09-17-2025_001_16_-45-000_0-000.xy
20.00000 564.801
20.17000 544.654
20.34000 557.120
20.51000 547.279
20.68000 555.786
20.85000 554.454
21.02000 564.657
21.19000 550.481
21.36000 562.890
21.53000 542.203
21.70000 603.092
21.87000 790.565
22.04000 888.180
22.21000 636.739
22.38000 549.678
22.55000 568.753
22.72000 518.108
22.89000 526.723
23.06000 518.005
23.23000 536.443
23.40000 503.956
23.57000 519.188
23.74000 496.113
23.91000 494.863
24.08000 500.911
24.25000 484.092
24.42000 495.958
24.59000 486.770
24.76000 464.520
24.93000 478.728
25.10000 495.738
25.27000 468.020
25.44000 479.658
25.61000 474.231
25.78000 461.482
25.95000 475.177
26.12000 470.371
26.29000 462.877
26.46000 446.523
26.63000 466.261
26.80000 445.150
26.97000 448.069
27.14000 455.627
27.31000 442.103
27.48000 466.838
27.65000 443.782
27.82000 460.559
27.99000 454.774
28.16000 442.961
28.33000 452.409
28.50000 430.996
28.67000 441.841
28.84000 429.804
29.01000 447.019
29.18000 433.066
29.35000 418.490
29.52000 425.069
29.69000 401.716
29.86000 462.911
30.03000 456.749
30.20000 439.466
30.37000 459.779
30.54000 464.133
30.71000 477.974
30.88000 557.796
31.05000 1605.871
31.22000 4316.270
31.39000 2503.043
31.56000 799.993
31.73000 496.404
31.90000 437.917
32.07000 415.694
32.24000 394.652
32.41000 382.562
32.58000 373.133
32.75000 364.451
32.92000 353.678
33.09000 343.556
33.26000 368.868
33.43000 350.554
33.60000 356.779
33.77000 338.174
33.94000 333.986
34.11000 344.840
34.28000 328.478
34.45000 340.795
34.62000 330.702
34.79000 324.191
34.96000 326.894
35.13000 329.054
35.30000 312.229
35.47000 325.324
35.64000 319.757
35.81000 298.846
35.98000 318.030
36.15000 304.312
36.32000 284.191
36.49000 313.357
36.66000 308.224
36.83000 317.753
37.00000 310.082
37.17000 302.601
37.34000 301.760
37.51000 312.411
37.68000 295.439
37.85000 295.506
38.02000 293.903
38.19000 304.034
38.36000 331.705
38.53000 359.008
38.70000 359.939
38.87000 302.843
39.04000 300.461
39.21000 263.500
39.38000 267.529
39.55000 268.161
39.72000 265.396
39.89000 258.165
40.06000 264.559
40.23000 249.988
40.40000 262.711
40.57000 244.326
40.74000 259.480
40.91000 251.197
41.08000 245.040
41.25000 242.440
41.42000 238.591
41.59000 236.451
41.76000 239.873
41.93000 248.789
42.10000 236.524
42.27000 229.297
42.44000 237.779
42.61000 226.834
42.78000 225.762
42.95000 236.073
43.12000 232.561
43.29000 229.401
43.46000 229.065
43.63000 231.992
43.80000 228.092
43.97000 232.889
44.14000 229.192
44.31000 246.442
44.48000 294.434
44.65000 417.264
44.82000 615.146
44.99000 553.556
45.16000 395.058
45.33000 290.033
45.50000 251.530
45.67000 229.688
45.84000 206.295
46.01000 201.378
46.18000 198.633
46.35000 200.389
46.52000 206.706
46.69000 203.787
46.86000 198.743
47.03000 205.618
47.20000 187.640
47.37000 183.440
47.54000 184.008
47.71000 185.427
47.88000 194.235
48.05000 188.625
48.22000 195.545
48.39000 187.561
48.56000 192.606
48.73000 189.204
48.90000 192.565
49.07000 177.394
49.24000 186.579
49.41000 185.495
49.58000 192.306
49.75000 182.594
49.92000 180.097
50.09000 188.074
50.26000 224.525
50.43000 270.180
50.60000 245.774
50.77000 223.359
50.94000 183.034
51.11000 180.768
51.28000 176.643
51.45000 169.166
51.62000 172.633
51.79000 170.524
51.96000 157.939
52.13000 164.895
52.30000 170.390
52.47000 164.090
52.64000 160.440
52.81000 159.847
52.98000 173.071
53.15000 165.831
53.32000 159.533
53.49000 165.945
53.66000 161.231
53.83000 158.532
54.00000 153.790
54.17000 166.877
54.34000 164.450
54.51000 165.067
54.68000 174.209
54.85000 163.873
55.02000 175.700
55.19000 179.891
55.36000 263.984
55.53000 553.616
55.70000 585.710
55.87000 375.132
56.04000 219.002
56.21000 178.779
56.38000 170.549
56.55000 160.062
56.72000 150.349
56.89000 151.812
57.06000 150.586
57.23000 144.932
57.40000 162.296
57.57000 154.676
57.74000 148.814
57.91000 137.221
58.08000 133.052
58.25000 136.825
58.42000 136.278
58.59000 134.626
58.76000 135.607
58.93000 138.752
59.10000 137.362
59.27000 135.173
59.44000 151.394
59.61000 137.101
59.78000 132.006
59.95000 129.369
60.12000 142.662
60.29000 132.836
60.46000 136.841
60.63000 138.610
60.80000 145.264
60.97000 139.059
61.14000 144.395
61.31000 142.473
61.48000 157.544
61.65000 362.211
61.82000 249.618
61.99000 151.290
62.16000 155.841
62.33000 147.923
62.50000 151.347
62.67000 142.956
62.84000 137.802
63.01000 148.987
63.18000 144.958
63.35000 158.931
63.52000 168.126
63.69000 166.417
63.86000 164.090
64.03000 166.437
64.20000 163.443
64.37000 170.364
64.54000 189.293
64.71000 204.959
64.88000 256.632
65.05000 423.180
65.22000 522.224
65.39000 433.176
65.56000 351.272
65.73000 814.999
65.90000 1527.074
66.07000 474.434
66.24000 376.528
66.41000 588.170
66.58000 395.514
66.75000 365.515
66.92000 400.160
67.09000 414.645
67.26000 446.983
67.43000 484.746
67.60000 524.926
67.77000 546.938
67.94000 612.961
68.11000 663.016
68.28000 762.269
68.45000 904.456
68.62000 1408.167
68.79000 2843.592
68.96000 21192.262
69.13000 98818.117
69.30000 58830.688
69.47000 14140.686
69.64000 1768.322
69.81000 1105.603
69.98000 826.843
70.00000 812.257