File: XRD/XRD/17-09-2025/XY Data/BTO_Mapping_Theta2Theta_09-17-2025_001_31_-15-000_30-000.xy
20.00000 551.644
20.17000 548.784
20.34000 577.870
20.51000 551.898
20.68000 552.870
20.85000 569.353
21.02000 550.450
21.19000 550.916
21.36000 527.035
21.53000 562.221
21.70000 565.796
21.87000 659.949
22.04000 824.726
22.21000 686.447
22.38000 550.325
22.55000 503.987
22.72000 527.186
22.89000 514.216
23.06000 496.822
23.23000 497.605
23.40000 488.373
23.57000 498.541
23.74000 497.316
23.91000 489.722
24.08000 484.960
24.25000 490.036
24.42000 482.043
24.59000 485.461
24.76000 483.270
24.93000 477.023
25.10000 473.004
25.27000 461.179
25.44000 466.549
25.61000 461.882
25.78000 464.743
25.95000 472.161
26.12000 462.962
26.29000 448.589
26.46000 430.771
26.63000 457.756
26.80000 442.315
26.97000 440.639
27.14000 432.754
27.31000 451.397
27.48000 438.420
27.65000 443.277
27.82000 417.300
27.99000 421.756
28.16000 425.742
28.33000 445.896
28.50000 408.935
28.67000 423.905
28.84000 419.416
29.01000 416.587
29.18000 405.600
29.35000 395.775
29.52000 404.809
29.69000 404.574
29.86000 423.693
30.03000 467.719
30.20000 443.250
30.37000 421.785
30.54000 442.777
30.71000 447.273
30.88000 497.947
31.05000 679.724
31.22000 2010.807
31.39000 4144.751
31.56000 2102.269
31.73000 619.900
31.90000 443.603
32.07000 408.473
32.24000 401.675
32.41000 393.195
32.58000 360.111
32.75000 367.581
32.92000 349.898
33.09000 353.383
33.26000 345.694
33.43000 356.760
33.60000 358.878
33.77000 350.732
33.94000 340.168
34.11000 321.130
34.28000 336.053
34.45000 339.224
34.62000 311.893
34.79000 316.542
34.96000 332.164
35.13000 313.393
35.30000 316.524
35.47000 296.259
35.64000 294.548
35.81000 304.013
35.98000 310.966
36.15000 310.392
36.32000 306.291
36.49000 312.182
36.66000 302.630
36.83000 293.932
37.00000 295.530
37.17000 287.970
37.34000 288.006
37.51000 289.146
37.68000 276.293
37.85000 301.049
38.02000 288.773
38.19000 296.261
38.36000 317.995
38.53000 452.900
38.70000 729.697
38.87000 578.605
39.04000 326.276
39.21000 286.316
39.38000 275.748
39.55000 261.400
39.72000 267.775
39.89000 262.316
40.06000 277.281
40.23000 257.105
40.40000 261.627
40.57000 253.636
40.74000 253.524
40.91000 236.988
41.08000 251.378
41.25000 239.851
41.42000 252.875
41.59000 241.132
41.76000 247.767
41.93000 228.607
42.10000 222.047
42.27000 221.980
42.44000 234.662
42.61000 224.640
42.78000 228.461
42.95000 224.380
43.12000 223.564
43.29000 216.974
43.46000 219.003
43.63000 233.364
43.80000 222.850
43.97000 231.136
44.14000 220.431
44.31000 223.483
44.48000 229.634
44.65000 241.909
44.82000 307.201
44.99000 439.760
45.16000 439.160
45.33000 309.915
45.50000 244.900
45.67000 224.147
45.84000 213.515
46.01000 206.503
46.18000 201.621
46.35000 205.767
46.52000 199.402
46.69000 201.928
46.86000 197.648
47.03000 204.053
47.20000 186.988
47.37000 186.522
47.54000 193.824
47.71000 176.601
47.88000 189.872
48.05000 184.857
48.22000 190.473
48.39000 182.788
48.56000 192.959
48.73000 198.788
48.90000 193.232
49.07000 160.844
49.24000 182.308
49.41000 182.543
49.58000 178.451
49.75000 181.563
49.92000 175.194
50.09000 185.918
50.26000 189.113
50.43000 202.254
50.60000 263.231
50.77000 268.019
50.94000 219.018
51.11000 171.139
51.28000 168.500
51.45000 164.920
51.62000 175.640
51.79000 174.490
51.96000 164.255
52.13000 162.624
52.30000 159.231
52.47000 162.086
52.64000 158.457
52.81000 156.559
52.98000 155.462
53.15000 154.492
53.32000 161.456
53.49000 145.739
53.66000 160.242
53.83000 156.112
54.00000 161.488
54.17000 158.858
54.34000 151.195
54.51000 153.284
54.68000 163.025
54.85000 158.228
55.02000 170.930
55.19000 162.055
55.36000 183.725
55.53000 192.785
55.70000 317.734
55.87000 592.271
56.04000 607.348
56.21000 350.551
56.38000 196.326
56.55000 161.864
56.72000 154.860
56.89000 143.801
57.06000 155.477
57.23000 142.934
57.40000 140.398
57.57000 154.421
57.74000 140.330
57.91000 138.522
58.08000 142.955
58.25000 136.564
58.42000 132.826
58.59000 132.852
58.76000 117.657
58.93000 137.844
59.10000 130.147
59.27000 134.624
59.44000 130.816
59.61000 145.482
59.78000 126.504
59.95000 137.819
60.12000 127.402
60.29000 133.221
60.46000 133.946
60.63000 139.054
60.80000 126.272
60.97000 129.335
61.14000 137.402
61.31000 131.761
61.48000 145.930
61.65000 318.905
61.82000 209.864
61.99000 130.244
62.16000 148.990
62.33000 147.393
62.50000 140.862
62.67000 143.659
62.84000 148.977
63.01000 151.649
63.18000 157.005
63.35000 147.787
63.52000 147.612
63.69000 146.195
63.86000 160.303
64.03000 166.112
64.20000 160.842
64.37000 170.276
64.54000 162.344
64.71000 165.760
64.88000 194.104
65.05000 208.692
65.22000 259.792
65.39000 340.086
65.56000 484.010
65.73000 839.190
65.90000 1316.555
66.07000 408.568
66.24000 346.388
66.41000 501.272
66.58000 373.290
66.75000 343.741
66.92000 357.839
67.09000 371.746
67.26000 410.401
67.43000 445.653
67.60000 478.315
67.77000 535.081
67.94000 551.724
68.11000 619.129
68.28000 678.926
68.45000 807.844
68.62000 1243.243
68.79000 2384.383
68.96000 18956.295
69.13000 79770.359
69.30000 47214.121
69.47000 11019.775
69.64000 1553.198
69.81000 981.928
69.98000 755.117
70.00000 757.846