File: XRD/XRD/17-09-2025/XY Data/BTO_Mapping_Theta2Theta_09-17-2025_001_35_-15-000_45-000.xy
20.00000 528.935
20.17000 544.430
20.34000 556.645
20.51000 551.314
20.68000 536.926
20.85000 551.207
21.02000 534.529
21.19000 536.001
21.36000 520.076
21.53000 510.188
21.70000 527.552
21.87000 527.503
22.04000 518.001
22.21000 507.169
22.38000 508.011
22.55000 514.153
22.72000 497.023
22.89000 489.019
23.06000 495.004
23.23000 490.304
23.40000 511.199
23.57000 494.996
23.74000 488.606
23.91000 479.169
24.08000 484.295
24.25000 476.657
24.42000 465.606
24.59000 473.542
24.76000 471.719
24.93000 479.048
25.10000 460.387
25.27000 469.687
25.44000 464.747
25.61000 449.292
25.78000 460.897
25.95000 439.498
26.12000 433.031
26.29000 455.776
26.46000 439.666
26.63000 435.714
26.80000 424.407
26.97000 430.738
27.14000 417.814
27.31000 412.458
27.48000 406.256
27.65000 417.821
27.82000 402.015
27.99000 400.279
28.16000 413.075
28.33000 428.252
28.50000 397.558
28.67000 403.257
28.84000 415.514
29.01000 396.837
29.18000 378.510
29.35000 392.399
29.52000 378.473
29.69000 375.071
29.86000 391.950
30.03000 392.544
30.20000 379.276
30.37000 373.579
30.54000 374.693
30.71000 360.641
30.88000 360.866
31.05000 369.867
31.22000 370.189
31.39000 360.130
31.56000 345.632
31.73000 360.122
31.90000 365.229
32.07000 346.622
32.24000 343.004
32.41000 337.940
32.58000 346.559
32.75000 361.480
32.92000 340.674
33.09000 333.199
33.26000 332.309
33.43000 345.231
33.60000 314.592
33.77000 327.487
33.94000 324.198
34.11000 315.202
34.28000 324.273
34.45000 313.386
34.62000 318.427
34.79000 301.985
34.96000 311.225
35.13000 307.039
35.30000 313.064
35.47000 297.818
35.64000 289.968
35.81000 302.459
35.98000 288.426
36.15000 311.169
36.32000 286.225
36.49000 290.776
36.66000 277.827
36.83000 287.712
37.00000 277.549
37.17000 275.095
37.34000 288.026
37.51000 272.346
37.68000 280.549
37.85000 266.502
38.02000 269.103
38.19000 266.981
38.36000 273.767
38.53000 258.886
38.70000 252.548
38.87000 251.695
39.04000 252.759
39.21000 244.850
39.38000 246.140
39.55000 252.536
39.72000 250.245
39.89000 247.945
40.06000 238.072
40.23000 246.178
40.40000 249.796
40.57000 241.129
40.74000 240.097
40.91000 227.106
41.08000 235.955
41.25000 252.822
41.42000 225.235
41.59000 234.523
41.76000 229.946
41.93000 236.838
42.10000 233.452
42.27000 228.886
42.44000 227.922
42.61000 211.850
42.78000 226.668
42.95000 218.881
43.12000 218.731
43.29000 220.767
43.46000 214.935
43.63000 208.610
43.80000 211.149
43.97000 203.415
44.14000 210.756
44.31000 212.851
44.48000 204.043
44.65000 201.244
44.82000 207.658
44.99000 207.948
45.16000 202.075
45.33000 200.455
45.50000 199.839
45.67000 205.564
45.84000 201.353
46.01000 209.153
46.18000 196.905
46.35000 202.360
46.52000 186.229
46.69000 193.400
46.86000 174.400
47.03000 181.985
47.20000 174.429
47.37000 187.720
47.54000 181.981
47.71000 183.880
47.88000 182.672
48.05000 188.940
48.22000 168.949
48.39000 175.673
48.56000 185.488
48.73000 179.866
48.90000 181.507
49.07000 177.160
49.24000 171.346
49.41000 173.445
49.58000 175.089
49.75000 172.272
49.92000 181.234
50.09000 182.274
50.26000 174.101
50.43000 170.404
50.60000 169.169
50.77000 152.542
50.94000 164.629
51.11000 167.957
51.28000 160.356
51.45000 164.131
51.62000 159.435
51.79000 160.828
51.96000 161.868
52.13000 150.611
52.30000 167.228
52.47000 154.149
52.64000 151.207
52.81000 143.387
52.98000 148.585
53.15000 165.053
53.32000 153.192
53.49000 155.748
53.66000 145.445
53.83000 143.746
54.00000 152.403
54.17000 146.784
54.34000 144.789
54.51000 137.251
54.68000 145.260
54.85000 153.410
55.02000 146.937
55.19000 150.281
55.36000 145.957
55.53000 143.185
55.70000 152.007
55.87000 138.418
56.04000 154.793
56.21000 138.776
56.38000 146.678
56.55000 138.891
56.72000 131.251
56.89000 132.187
57.06000 140.625
57.23000 135.252
57.40000 138.877
57.57000 129.017
57.74000 135.875
57.91000 134.710
58.08000 130.837
58.25000 132.368
58.42000 142.623
58.59000 148.804
58.76000 135.711
58.93000 134.991
59.10000 135.131
59.27000 131.715
59.44000 126.414
59.61000 136.743
59.78000 134.781
59.95000 124.318
60.12000 128.422
60.29000 131.907
60.46000 131.239
60.63000 128.036
60.80000 127.233
60.97000 135.420
61.14000 132.111
61.31000 139.912
61.48000 139.625
61.65000 239.454
61.82000 199.412
61.99000 141.034
62.16000 146.900
62.33000 141.261
62.50000 140.412
62.67000 137.423
62.84000 149.962
63.01000 130.210
63.18000 142.417
63.35000 154.004
63.52000 142.264
63.69000 149.430
63.86000 159.511
64.03000 153.095
64.20000 165.711
64.37000 165.803
64.54000 168.039
64.71000 168.017
64.88000 176.203
65.05000 182.781
65.22000 191.873
65.39000 198.893
65.56000 232.395
65.73000 478.574
65.90000 907.751
66.07000 333.635
66.24000 302.418
66.41000 426.017
66.58000 321.674
66.75000 320.774
66.92000 347.760
67.09000 360.817
67.26000 384.119
67.43000 427.504
67.60000 461.586
67.77000 496.146
67.94000 544.643
68.11000 590.730
68.28000 661.138
68.45000 759.988
68.62000 1047.671
68.79000 1926.605
68.96000 12004.192
69.13000 56251.180
69.30000 33527.090
69.47000 8088.084
69.64000 1267.880
69.81000 890.299
69.98000 713.178
70.00000 700.141