File: XRD/XRD/17-09-2025/XY Data/BTO_Mapping_Theta2Theta_09-17-2025_001_30_-30-000_30-000.xy
20.00000 549.852
20.17000 562.534
20.34000 552.971
20.51000 535.868
20.68000 531.002
20.85000 538.493
21.02000 552.254
21.19000 544.871
21.36000 530.820
21.53000 543.633
21.70000 558.872
21.87000 716.353
22.04000 843.286
22.21000 665.929
22.38000 558.862
22.55000 537.099
22.72000 519.822
22.89000 497.594
23.06000 509.521
23.23000 500.147
23.40000 510.845
23.57000 506.315
23.74000 504.949
23.91000 483.871
24.08000 498.212
24.25000 493.882
24.42000 499.166
24.59000 496.918
24.76000 459.207
24.93000 463.708
25.10000 464.691
25.27000 479.548
25.44000 479.671
25.61000 465.109
25.78000 481.667
25.95000 457.161
26.12000 467.065
26.29000 449.649
26.46000 468.745
26.63000 441.362
26.80000 438.610
26.97000 457.411
27.14000 430.204
27.31000 445.455
27.48000 435.170
27.65000 438.684
27.82000 437.846
27.99000 437.214
28.16000 431.135
28.33000 430.288
28.50000 428.425
28.67000 433.299
28.84000 409.594
29.01000 423.160
29.18000 409.428
29.35000 415.509
29.52000 411.834
29.69000 408.877
29.86000 433.848
30.03000 456.250
30.20000 429.891
30.37000 438.458
30.54000 434.737
30.71000 453.938
30.88000 518.739
31.05000 753.046
31.22000 2482.333
31.39000 4185.865
31.56000 1653.812
31.73000 570.079
31.90000 442.478
32.07000 415.878
32.24000 399.737
32.41000 384.314
32.58000 383.160
32.75000 369.620
32.92000 357.043
33.09000 368.116
33.26000 354.911
33.43000 332.338
33.60000 340.288
33.77000 340.890
33.94000 344.433
34.11000 341.562
34.28000 335.882
34.45000 336.760
34.62000 304.536
34.79000 329.845
34.96000 305.246
35.13000 316.796
35.30000 320.931
35.47000 312.852
35.64000 310.356
35.81000 309.206
35.98000 323.046
36.15000 318.552
36.32000 293.649
36.49000 298.237
36.66000 297.085
36.83000 304.174
37.00000 300.551
37.17000 292.482
37.34000 288.292
37.51000 287.185
37.68000 292.275
37.85000 285.355
38.02000 294.267
38.19000 297.011
38.36000 330.713
38.53000 449.083
38.70000 577.666
38.87000 436.086
39.04000 313.840
39.21000 291.286
39.38000 273.343
39.55000 274.429
39.72000 272.085
39.89000 283.472
40.06000 260.117
40.23000 258.070
40.40000 252.687
40.57000 246.175
40.74000 255.619
40.91000 243.422
41.08000 255.559
41.25000 231.415
41.42000 237.078
41.59000 245.912
41.76000 231.905
41.93000 244.874
42.10000 242.318
42.27000 235.134
42.44000 215.039
42.61000 230.158
42.78000 228.335
42.95000 229.633
43.12000 234.681
43.29000 232.937
43.46000 238.168
43.63000 228.665
43.80000 211.947
43.97000 228.520
44.14000 214.309
44.31000 212.037
44.48000 229.631
44.65000 256.734
44.82000 358.456
44.99000 494.314
45.16000 420.220
45.33000 295.330
45.50000 226.455
45.67000 228.882
45.84000 219.118
46.01000 219.531
46.18000 213.668
46.35000 199.096
46.52000 199.957
46.69000 197.604
46.86000 196.199
47.03000 197.165
47.20000 207.989
47.37000 194.094
47.54000 197.174
47.71000 199.402
47.88000 176.028
48.05000 189.572
48.22000 178.901
48.39000 182.439
48.56000 173.928
48.73000 186.134
48.90000 182.616
49.07000 184.184
49.24000 187.315
49.41000 178.111
49.58000 171.441
49.75000 177.307
49.92000 186.184
50.09000 182.408
50.26000 196.262
50.43000 208.890
50.60000 279.461
50.77000 296.484
50.94000 208.355
51.11000 196.860
51.28000 178.015
51.45000 168.722
51.62000 164.463
51.79000 170.968
51.96000 168.511
52.13000 166.342
52.30000 166.700
52.47000 158.967
52.64000 153.561
52.81000 161.067
52.98000 151.815
53.15000 170.395
53.32000 173.456
53.49000 161.153
53.66000 147.168
53.83000 148.459
54.00000 165.698
54.17000 160.434
54.34000 155.453
54.51000 154.936
54.68000 163.911
54.85000 162.758
55.02000 155.057
55.19000 157.278
55.36000 175.559
55.53000 240.381
55.70000 439.017
55.87000 633.600
56.04000 509.026
56.21000 284.463
56.38000 184.605
56.55000 164.187
56.72000 160.831
56.89000 149.820
57.06000 148.663
57.23000 144.442
57.40000 145.550
57.57000 147.636
57.74000 141.994
57.91000 138.716
58.08000 138.892
58.25000 137.666
58.42000 127.927
58.59000 136.632
58.76000 145.723
58.93000 140.628
59.10000 134.547
59.27000 129.792
59.44000 135.409
59.61000 134.007
59.78000 134.848
59.95000 126.349
60.12000 126.905
60.29000 124.857
60.46000 138.937
60.63000 130.805
60.80000 138.277
60.97000 138.499
61.14000 137.789
61.31000 147.036
61.48000 147.364
61.65000 326.418
61.82000 238.011
61.99000 154.759
62.16000 138.738
62.33000 141.363
62.50000 138.008
62.67000 155.882
62.84000 153.173
63.01000 149.711
63.18000 152.374
63.35000 153.403
63.52000 160.846
63.69000 144.930
63.86000 155.900
64.03000 153.009
64.20000 170.037
64.37000 175.303
64.54000 162.992
64.71000 188.154
64.88000 192.611
65.05000 216.866
65.22000 277.924
65.39000 390.248
65.56000 492.317
65.73000 853.422
65.90000 1390.467
66.07000 440.576
66.24000 355.182
66.41000 517.025
66.58000 381.131
66.75000 359.889
66.92000 364.255
67.09000 388.688
67.26000 429.218
67.43000 452.274
67.60000 492.780
67.77000 528.924
67.94000 584.255
68.11000 638.610
68.28000 701.716
68.45000 874.688
68.62000 1297.694
68.79000 2623.291
68.96000 21304.920
69.13000 88690.102
69.30000 53357.859
69.47000 13100.298
69.64000 1671.816
69.81000 1032.729
69.98000 814.743
70.00000 814.943