File: XRD/11-09-2025/XY Data/01092025_BTO_omega_0_5_001_02_25-000_0-000.xy
20.00000 15.133
20.16000 19.316
20.32000 10.145
20.48000 18.216
20.64000 16.396
20.80000 7.067
20.96000 7.059
21.12000 14.266
21.28000 16.214
21.44000 17.396
21.60000 16.163
21.76000 10.133
21.92000 11.153
22.08000 15.227
22.24000 22.209
22.40000 16.194
22.56000 17.263
22.72000 15.424
22.88000 17.176
23.04000 15.399
23.20000 13.129
23.36000 11.041
23.52000 18.251
23.68000 12.197
23.84000 21.292
24.00000 18.167
24.16000 14.271
24.32000 22.114
24.48000 17.366
24.64000 26.980
24.80000 21.199
24.96000 20.281
25.12000 18.211
25.28000 19.099
25.44000 22.434
25.60000 22.277
25.76000 26.391
25.92000 30.506
26.08000 26.534
26.24000 30.691
26.40000 15.229
26.56000 30.609
26.72000 28.222
26.88000 34.337
27.04000 33.268
27.20000 28.253
27.36000 27.448
27.52000 27.628
27.68000 26.641
27.84000 23.232
28.00000 30.565
28.16000 33.505
28.32000 28.401
28.48000 20.046
28.64000 27.504
28.80000 23.256
28.96000 34.561
29.12000 20.273
29.28000 20.204
29.44000 21.374
29.60000 26.345
29.76000 21.352
29.92000 38.601
30.08000 16.190
30.24000 22.247
30.40000 20.336
30.56000 17.278
30.72000 24.447
30.88000 19.323
31.04000 18.216
31.20000 26.418
31.36000 14.191
31.52000 22.140
31.68000 11.177
31.84000 17.109
32.00000 15.249
32.16000 21.498
32.32000 6.104
32.48000 16.016
32.64000 14.200
32.80000 9.003
32.96000 8.199
33.12000 10.074
33.28000 20.437
33.44000 13.050
33.60000 7.112
33.76000 12.292
33.92000 8.267
34.08000 12.150
34.24000 8.065
34.40000 10.142
34.56000 8.121
34.72000 7.924
34.88000 5.097
35.04000 13.227
35.20000 8.168
35.36000 7.045
35.52000 9.115
35.68000 2.034
35.84000 10.074
36.00000 12.022
36.16000 7.132
36.32000 8.037
36.48000 12.232
36.64000 7.022
36.80000 5.086
36.96000 4.117
37.12000 14.224
37.28000 11.187
37.44000 7.986
37.60000 7.057
37.76000 6.150
37.92000 10.993
38.08000 9.122
38.24000 6.072
38.40000 7.120
38.56000 10.101
38.72000 13.395
38.88000 12.162
39.04000 13.095
39.20000 12.060
39.36000 8.179
39.52000 11.251
39.68000 8.959
39.84000 10.150
40.00000 7.082
40.16000 12.138
40.32000 16.033
40.48000 6.040
40.64000 7.965
40.80000 14.315
40.96000 6.118
41.12000 5.062
41.28000 11.105
41.44000 7.038
41.60000 10.036
41.76000 11.214
41.92000 12.171
42.08000 7.019
42.24000 15.043
42.40000 13.155
42.56000 10.052
42.72000 8.104
42.88000 10.161
43.04000 8.174
43.20000 9.111
43.36000 12.162
43.52000 14.122
43.68000 14.250
43.84000 12.372
44.00000 8.078
44.16000 10.107
44.32000 8.043
44.48000 13.243
44.64000 14.215
44.80000 8.207
44.96000 9.094
45.12000 10.088
45.28000 10.077
45.44000 10.090
45.60000 10.146
45.76000 12.163
45.92000 9.262
46.08000 8.212
46.24000 13.197
46.40000 10.062
46.56000 5.046
46.72000 12.119
46.88000 14.065
47.04000 7.130
47.20000 13.274
47.36000 9.030
47.52000 8.153
47.68000 7.170
47.84000 10.060
48.00000 7.115
48.16000 5.915
48.32000 15.088
48.48000 9.255
48.64000 8.103
48.80000 11.102
48.96000 4.029
49.12000 7.174
49.28000 7.097
49.44000 11.049
49.60000 9.202
49.76000 6.024
49.92000 10.154
50.08000 7.197
50.24000 6.021
50.40000 4.114
50.56000 12.289
50.72000 12.127
50.88000 4.054
51.04000 8.093
51.20000 9.052
51.36000 4.060
51.52000 9.025
51.68000 4.005
51.84000 10.125
52.00000 9.163
52.16000 12.049
52.32000 6.123
52.48000 6.039
52.64000 3.002
52.80000 5.133
52.96000 6.094
53.12000 14.130
53.28000 5.115
53.44000 8.052
53.60000 9.029
53.76000 9.074
53.92000 5.072
54.08000 6.118
54.24000 4.063
54.40000 13.214
54.56000 5.957
54.72000 10.031
54.88000 10.161
55.04000 7.085
55.20000 7.082
55.36000 10.168
55.52000 9.090
55.68000 3.053
55.84000 3.069
56.00000 9.052
56.16000 9.029
56.32000 7.206
56.48000 6.075
56.64000 7.026
56.80000 7.068
56.96000 9.125
57.12000 10.072
57.28000 7.263
57.44000 6.080
57.60000 8.157
57.76000 8.230
57.92000 7.072
58.08000 8.162
58.24000 4.922
58.40000 6.124
58.56000 7.055
58.72000 5.121
58.88000 6.074
59.04000 5.020
59.20000 3.053
59.36000 6.058
59.52000 5.973
59.68000 2.956
59.84000 3.079
60.00000 4.957
60.16000 9.140
60.32000 4.117
60.48000 3.019
60.64000 3.117
60.80000 7.071
60.96000 9.054
61.12000 3.051
61.28000 7.952
61.44000 5.077
61.60000 0.000
61.76000 6.077
61.92000 3.028
62.08000 5.085
62.24000 7.003
62.40000 3.042
62.56000 4.074
62.72000 7.105
62.88000 5.091
63.04000 7.133
63.20000 5.084
63.36000 6.043
63.52000 8.017
63.68000 3.030
63.84000 0.993
64.00000 4.007
64.16000 2.971
64.32000 7.188
64.48000 3.078
64.64000 2.060
64.80000 2.044
64.96000 3.017
65.00000 1.008