File: XRD/11-09-2025/XY Data/01092025_BTO_omega_1_001_30_-12-500_0-000.xy
20.00000 22.275
20.16000 27.321
20.32000 22.270
20.48000 16.299
20.64000 15.373
20.80000 8.201
20.96000 23.352
21.12000 18.265
21.28000 19.299
21.44000 18.083
21.60000 17.089
21.76000 16.122
21.92000 22.317
22.08000 19.224
22.24000 19.141
22.40000 20.349
22.56000 23.449
22.72000 13.154
22.88000 19.280
23.04000 19.122
23.20000 25.429
23.36000 28.364
23.52000 32.333
23.68000 17.122
23.84000 22.217
24.00000 23.279
24.16000 27.186
24.32000 31.671
24.48000 34.419
24.64000 25.389
24.80000 28.308
24.96000 35.371
25.12000 38.347
25.28000 22.318
25.44000 30.454
25.60000 35.338
25.76000 50.704
25.92000 28.280
26.08000 35.342
26.24000 40.541
26.40000 46.692
26.56000 31.540
26.72000 37.643
26.88000 25.509
27.04000 41.496
27.20000 57.697
27.36000 32.547
27.52000 37.603
27.68000 38.489
27.84000 44.698
28.00000 48.813
28.16000 32.458
28.32000 32.352
28.48000 25.330
28.64000 43.580
28.80000 35.615
28.96000 32.660
29.12000 20.322
29.28000 40.592
29.44000 28.301
29.60000 27.240
29.76000 28.561
29.92000 30.169
30.08000 25.303
30.24000 21.243
30.40000 20.400
30.56000 34.526
30.72000 30.332
30.88000 25.624
31.04000 25.261
31.20000 21.306
31.36000 16.203
31.52000 29.160
31.68000 32.420
31.84000 21.380
32.00000 15.036
32.16000 29.411
32.32000 26.160
32.48000 27.243
32.64000 24.388
32.80000 23.381
32.96000 21.103
33.12000 11.165
33.28000 21.297
33.44000 21.157
33.60000 18.114
33.76000 14.148
33.92000 16.143
34.08000 14.294
34.24000 15.275
34.40000 7.155
34.56000 17.345
34.72000 17.159
34.88000 10.081
35.04000 19.180
35.20000 17.080
35.36000 12.049
35.52000 10.296
35.68000 7.103
35.84000 9.117
36.00000 14.227
36.16000 19.202
36.32000 9.166
36.48000 15.177
36.64000 21.205
36.80000 14.251
36.96000 16.251
37.12000 18.246
37.28000 19.078
37.44000 13.071
37.60000 11.193
37.76000 14.243
37.92000 15.126
38.08000 13.985
38.24000 10.129
38.40000 12.045
38.56000 14.189
38.72000 9.222
38.88000 12.226
39.04000 14.208
39.20000 7.122
39.36000 16.290
39.52000 17.156
39.68000 11.301
39.84000 12.184
40.00000 14.378
40.16000 19.234
40.32000 13.110
40.48000 17.251
40.64000 21.246
40.80000 12.423
40.96000 21.223
41.12000 13.182
41.28000 6.053
41.44000 22.232
41.60000 13.317
41.76000 12.076
41.92000 16.218
42.08000 14.124
42.24000 10.173
42.40000 15.210
42.56000 24.542
42.72000 10.046
42.88000 12.179
43.04000 12.045
43.20000 10.161
43.36000 17.306
43.52000 18.220
43.68000 17.017
43.84000 19.150
44.00000 20.302
44.16000 14.075
44.32000 21.347
44.48000 12.104
44.64000 15.292
44.80000 16.281
44.96000 10.188
45.12000 13.118
45.28000 16.186
45.44000 15.258
45.60000 13.275
45.76000 16.165
45.92000 18.357
46.08000 15.069
46.24000 16.120
46.40000 10.029
46.56000 15.261
46.72000 14.101
46.88000 21.190
47.04000 16.253
47.20000 14.261
47.36000 11.081
47.52000 15.321
47.68000 13.077
47.84000 10.041
48.00000 10.136
48.16000 6.118
48.32000 5.027
48.48000 12.201
48.64000 16.256
48.80000 9.056
48.96000 9.085
49.12000 20.318
49.28000 18.221
49.44000 13.133
49.60000 14.215
49.76000 16.177
49.92000 16.247
50.08000 14.284
50.24000 11.153
50.40000 9.153
50.56000 13.180
50.72000 12.216
50.88000 9.285
51.04000 12.202
51.20000 11.162
51.36000 21.410
51.52000 13.195
51.68000 12.150
51.84000 14.289
52.00000 8.133
52.16000 6.027
52.32000 6.127
52.48000 9.046
52.64000 11.139
52.80000 7.091
52.96000 6.033
53.12000 18.390
53.28000 16.079
53.44000 16.293
53.60000 15.088
53.76000 3.146
53.92000 13.179
54.08000 9.185
54.24000 13.176
54.40000 8.135
54.56000 11.131
54.72000 8.078
54.88000 4.055
55.04000 8.168
55.20000 13.173
55.36000 11.055
55.52000 8.189
55.68000 14.107
55.84000 7.130
56.00000 10.144
56.16000 13.102
56.32000 11.130
56.48000 17.212
56.64000 12.172
56.80000 9.190
56.96000 12.227
57.12000 16.335
57.28000 10.115
57.44000 4.075
57.60000 10.455
57.76000 12.163
57.92000 5.165
58.08000 6.147
58.24000 13.055
58.40000 4.042
58.56000 9.018
58.72000 10.085
58.88000 8.022
59.04000 14.184
59.20000 7.055
59.36000 11.217
59.52000 5.956
59.68000 15.147
59.84000 5.068
60.00000 5.055
60.16000 5.071
60.32000 10.189
60.48000 13.078
60.64000 5.012
60.80000 4.065
60.96000 8.087
61.12000 4.153
61.28000 9.104
61.44000 11.188
61.60000 8.121
61.76000 7.106
61.92000 10.124
62.08000 9.103
62.24000 7.007
62.40000 9.032
62.56000 9.155
62.72000 13.147
62.88000 9.107
63.04000 5.981
63.20000 6.048
63.36000 11.060
63.52000 4.048
63.68000 13.059
63.84000 12.303
64.00000 6.154
64.16000 8.071
64.32000 10.223
64.48000 10.015
64.64000 16.030
64.80000 6.161
64.96000 8.077
65.00000 6.118