File: XRD/11-09-2025/XY Data/01092025_BTO_omega_0_5_001_07_-7-794_9-773.xy
20.00000 17.204
20.16000 22.472
20.32000 23.617
20.48000 17.395
20.64000 24.388
20.80000 22.112
20.96000 18.323
21.12000 28.417
21.28000 27.258
21.44000 26.356
21.60000 22.354
21.76000 23.246
21.92000 25.082
22.08000 34.654
22.24000 38.544
22.40000 31.375
22.56000 21.383
22.72000 31.698
22.88000 20.065
23.04000 34.262
23.20000 29.220
23.36000 25.505
23.52000 21.208
23.68000 40.183
23.84000 30.395
24.00000 28.282
24.16000 32.392
24.32000 27.513
24.48000 37.511
24.64000 23.341
24.80000 33.616
24.96000 36.663
25.12000 45.731
25.28000 50.451
25.44000 35.645
25.60000 36.737
25.76000 58.955
25.92000 48.553
26.08000 45.535
26.24000 44.469
26.40000 54.418
26.56000 53.746
26.72000 63.610
26.88000 52.549
27.04000 52.681
27.20000 49.708
27.36000 60.706
27.52000 51.523
27.68000 60.753
27.84000 60.661
28.00000 57.847
28.16000 65.615
28.32000 56.051
28.48000 59.695
28.64000 44.564
28.80000 55.743
28.96000 45.618
29.12000 68.878
29.28000 50.449
29.44000 49.674
29.60000 46.932
29.76000 43.655
29.92000 45.629
30.08000 44.422
30.24000 39.497
30.40000 36.490
30.56000 33.572
30.72000 37.533
30.88000 29.264
31.04000 29.449
31.20000 25.366
31.36000 30.347
31.52000 28.459
31.68000 35.560
31.84000 42.581
32.00000 33.520
32.16000 37.524
32.32000 35.524
32.48000 23.306
32.64000 35.180
32.80000 24.274
32.96000 30.522
33.12000 23.240
33.28000 21.360
33.44000 21.333
33.60000 20.237
33.76000 21.328
33.92000 10.113
34.08000 23.270
34.24000 21.389
34.40000 22.369
34.56000 25.422
34.72000 26.604
34.88000 14.198
35.04000 19.564
35.20000 28.164
35.36000 15.080
35.52000 18.294
35.68000 16.137
35.84000 13.120
36.00000 17.192
36.16000 19.280
36.32000 15.134
36.48000 22.149
36.64000 18.141
36.80000 27.233
36.96000 22.284
37.12000 25.149
37.28000 18.188
37.44000 17.210
37.60000 22.446
37.76000 17.040
37.92000 13.181
38.08000 17.157
38.24000 18.078
38.40000 25.315
38.56000 23.459
38.72000 14.236
38.88000 22.264
39.04000 20.343
39.20000 18.246
39.36000 20.336
39.52000 22.325
39.68000 18.332
39.84000 17.291
40.00000 32.423
40.16000 20.331
40.32000 20.130
40.48000 19.264
40.64000 13.216
40.80000 19.332
40.96000 22.204
41.12000 24.270
41.28000 19.051
41.44000 22.188
41.60000 23.413
41.76000 26.399
41.92000 23.485
42.08000 22.286
42.24000 14.051
42.40000 15.136
42.56000 20.315
42.72000 18.205
42.88000 33.773
43.04000 21.167
43.20000 31.256
43.36000 24.326
43.52000 18.256
43.68000 15.141
43.84000 27.352
44.00000 26.381
44.16000 18.307
44.32000 15.320
44.48000 22.327
44.64000 25.368
44.80000 28.491
44.96000 15.125
45.12000 23.514
45.28000 12.091
45.44000 29.268
45.60000 18.106
45.76000 24.366
45.92000 18.119
46.08000 23.315
46.24000 22.193
46.40000 17.378
46.56000 20.522
46.72000 20.362
46.88000 22.615
47.04000 25.568
47.20000 18.126
47.36000 15.155
47.52000 29.456
47.68000 16.340
47.84000 17.255
48.00000 19.194
48.16000 23.406
48.32000 25.408
48.48000 18.158
48.64000 21.293
48.80000 21.478
48.96000 15.256
49.12000 28.267
49.28000 18.456
49.44000 16.386
49.60000 18.376
49.76000 21.431
49.92000 15.179
50.08000 28.382
50.24000 17.273
50.40000 17.347
50.56000 19.471
50.72000 23.215
50.88000 16.062
51.04000 8.108
51.20000 20.315
51.36000 18.196
51.52000 17.161
51.68000 15.176
51.84000 23.377
52.00000 19.213
52.16000 15.253
52.32000 17.114
52.48000 12.071
52.64000 10.136
52.80000 13.279
52.96000 18.233
53.12000 12.935
53.28000 16.185
53.44000 14.219
53.60000 14.276
53.76000 20.384
53.92000 13.255
54.08000 14.229
54.24000 15.115
54.40000 11.125
54.56000 13.130
54.72000 15.344
54.88000 11.097
55.04000 8.069
55.20000 17.304
55.36000 18.345
55.52000 17.209
55.68000 12.057
55.84000 12.117
56.00000 14.192
56.16000 16.134
56.32000 12.159
56.48000 7.087
56.64000 9.144
56.80000 12.167
56.96000 13.062
57.12000 14.205
57.28000 15.125
57.44000 16.110
57.60000 11.150
57.76000 10.171
57.92000 17.352
58.08000 12.179
58.24000 19.371
58.40000 12.134
58.56000 11.011
58.72000 12.209
58.88000 10.135
59.04000 8.079
59.20000 12.156
59.36000 15.130
59.52000 9.062
59.68000 12.184
59.84000 9.169
60.00000 14.214
60.16000 12.137
60.32000 12.137
60.48000 5.056
60.64000 5.074
60.80000 11.244
60.96000 8.068
61.12000 10.155
61.28000 7.146
61.44000 10.060
61.60000 4.982
61.76000 12.206
61.92000 8.145
62.08000 8.079
62.24000 5.055
62.40000 10.061
62.56000 14.252
62.72000 11.222
62.88000 6.015
63.04000 11.181
63.20000 8.074
63.36000 9.163
63.52000 11.081
63.68000 4.992
63.84000 6.069
64.00000 12.123
64.16000 7.022
64.32000 5.973
64.48000 7.999
64.64000 5.061
64.80000 9.075
64.96000 10.175
65.00000 12.129