File: XRD/11-09-2025/XY Data/01092025_BTO_omega_1_001_13_15-587_-19-546.xy
20.00000 171.658
20.16000 172.277
20.32000 156.673
20.48000 164.708
20.64000 142.504
20.80000 133.650
20.96000 130.550
21.12000 130.496
21.28000 103.162
21.44000 100.164
21.60000 114.230
21.76000 108.199
21.92000 86.967
22.08000 97.209
22.24000 90.912
22.40000 89.652
22.56000 70.707
22.72000 57.627
22.88000 44.382
23.04000 53.360
23.20000 57.663
23.36000 39.454
23.52000 59.636
23.68000 40.526
23.84000 34.478
24.00000 31.615
24.16000 32.208
24.32000 33.307
24.48000 24.330
24.64000 17.383
24.80000 36.345
24.96000 26.219
25.12000 16.118
25.28000 23.339
25.44000 29.376
25.60000 12.052
25.76000 20.319
25.92000 15.163
26.08000 21.182
26.24000 17.066
26.40000 18.152
26.56000 22.049
26.72000 10.055
26.88000 14.124
27.04000 11.033
27.20000 17.316
27.36000 11.164
27.52000 10.101
27.68000 8.111
27.84000 15.107
28.00000 10.126
28.16000 15.137
28.32000 10.004
28.48000 8.164
28.64000 16.342
28.80000 6.066
28.96000 12.165
29.12000 8.209
29.28000 7.089
29.44000 14.098
29.60000 13.194
29.76000 11.056
29.92000 10.171
30.08000 13.238
30.24000 11.098
30.40000 14.224
30.56000 2.986
30.72000 10.066
30.88000 9.144
31.04000 13.067
31.20000 10.158
31.36000 9.154
31.52000 7.052
31.68000 5.019
31.84000 4.957
32.00000 7.147
32.16000 15.076
32.32000 10.250
32.48000 5.114
32.64000 12.064
32.80000 9.145
32.96000 11.243
33.12000 5.036
33.28000 8.090
33.44000 4.083
33.60000 4.968
33.76000 5.951
33.92000 7.026
34.08000 3.003
34.24000 7.180
34.40000 5.071
34.56000 4.062
34.72000 6.162
34.88000 5.951
35.04000 3.034
35.20000 6.061
35.36000 6.120
35.52000 4.018
35.68000 6.009
35.84000 4.123
36.00000 3.003
36.16000 3.066
36.32000 4.007
36.48000 7.220
36.64000 5.005
36.80000 7.113
36.96000 3.008
37.12000 3.001
37.28000 2.990
37.44000 6.035
37.60000 5.004
37.76000 4.057
37.92000 6.123
38.08000 5.061
38.24000 4.039
38.40000 4.993
38.56000 6.106
38.72000 3.090
38.88000 7.156
39.04000 7.147
39.20000 5.108
39.36000 5.006
39.52000 3.994
39.68000 5.125
39.84000 2.026
40.00000 5.035
40.16000 7.197
40.32000 4.040
40.48000 1.048
40.64000 5.069
40.80000 5.113
40.96000 5.087
41.12000 4.000
41.28000 5.095
41.44000 11.013
41.60000 3.093
41.76000 3.034
41.92000 4.003
42.08000 3.044
42.24000 5.061
42.40000 7.153
42.56000 7.040
42.72000 8.190
42.88000 0.987
43.04000 3.059
43.20000 4.060
43.36000 1.989
43.52000 2.038
43.68000 7.163
43.84000 3.091
44.00000 2.003
44.16000 3.031
44.32000 3.987
44.48000 0.000
44.64000 0.000
44.80000 2.000
44.96000 4.017
45.12000 5.051
45.28000 3.010
45.44000 4.094
45.60000 2.041
45.76000 4.013
45.92000 5.108
46.08000 1.006
46.24000 2.092
46.40000 1.021
46.56000 4.104
46.72000 3.099
46.88000 6.091
47.04000 0.000
47.20000 3.042
47.36000 5.001
47.52000 0.000
47.68000 2.046
47.84000 5.092
48.00000 2.029
48.16000 2.019
48.32000 2.041
48.48000 2.067
48.64000 2.073
48.80000 4.111
48.96000 3.076
49.12000 0.991
49.28000 4.059
49.44000 2.037
49.60000 4.991
49.76000 1.996
49.92000 5.094
50.08000 1.007
50.24000 5.116
50.40000 3.021
50.56000 5.034
50.72000 1.024
50.88000 0.996
51.04000 2.068
51.20000 4.042
51.36000 3.971
51.52000 2.963
51.68000 3.056
51.84000 2.006
52.00000 3.044
52.16000 6.074
52.32000 1.993
52.48000 2.015
52.64000 1.064
52.80000 1.000
52.96000 0.000
53.12000 2.014
53.28000 3.004
53.44000 2.032
53.60000 2.992
53.76000 2.055
53.92000 0.993
54.08000 4.050
54.24000 6.146
54.40000 2.002
54.56000 1.009
54.72000 3.077
54.88000 1.021
55.04000 7.106
55.20000 4.074
55.36000 3.033
55.52000 0.000
55.68000 3.031
55.84000 1.012
56.00000 2.973
56.16000 5.116
56.32000 0.987
56.48000 6.027
56.64000 2.034
56.80000 2.031
56.96000 3.106
57.12000 2.026
57.28000 3.058
57.44000 3.097
57.60000 4.024
57.76000 4.024
57.92000 0.000
58.08000 2.038
58.24000 5.038
58.40000 5.081
58.56000 1.999
58.72000 0.000
58.88000 1.965
59.04000 1.997
59.20000 0.999
59.36000 4.045
59.52000 2.004
59.68000 2.075
59.84000 1.970
60.00000 1.003
60.16000 2.037
60.32000 1.983
60.48000 3.009
60.64000 0.000
60.80000 3.007
60.96000 3.004
61.12000 0.969
61.28000 1.999
61.44000 2.056
61.60000 3.013
61.76000 1.082
61.92000 3.051
62.08000 0.000
62.24000 1.052
62.40000 2.032
62.56000 1.041
62.72000 4.019
62.88000 3.034
63.04000 2.007
63.20000 0.000
63.36000 3.011
63.52000 2.982
63.68000 0.000
63.84000 3.077
64.00000 2.958
64.16000 0.976
64.32000 0.000
64.48000 2.040
64.64000 0.000
64.80000 2.060
64.96000 0.000
65.00000 0.998