File: XRD/11-09-2025/XY Data/01092025_BTO_omega_1_001_43_-33-786_16-271.xy
20.00000 15.261
20.16000 19.308
20.32000 21.198
20.48000 21.220
20.64000 29.186
20.80000 15.142
20.96000 19.191
21.12000 22.389
21.28000 23.281
21.44000 23.289
21.60000 13.287
21.76000 20.341
21.92000 21.228
22.08000 21.251
22.24000 29.356
22.40000 15.193
22.56000 30.458
22.72000 29.363
22.88000 16.100
23.04000 33.542
23.20000 21.260
23.36000 21.330
23.52000 23.342
23.68000 26.349
23.84000 28.472
24.00000 24.194
24.16000 18.400
24.32000 28.270
24.48000 27.331
24.64000 17.145
24.80000 32.244
24.96000 28.315
25.12000 25.283
25.28000 36.413
25.44000 21.209
25.60000 38.232
25.76000 31.208
25.92000 38.672
26.08000 26.494
26.24000 48.441
26.40000 42.500
26.56000 38.288
26.72000 35.652
26.88000 38.322
27.04000 40.632
27.20000 46.666
27.36000 39.451
27.52000 36.375
27.68000 42.488
27.84000 27.352
28.00000 38.314
28.16000 47.549
28.32000 34.218
28.48000 40.437
28.64000 52.925
28.80000 42.252
28.96000 45.661
29.12000 44.728
29.28000 21.385
29.44000 31.618
29.60000 35.437
29.76000 32.263
29.92000 32.428
30.08000 26.234
30.24000 32.414
30.40000 29.503
30.56000 23.190
30.72000 26.448
30.88000 27.375
31.04000 34.397
31.20000 33.447
31.36000 17.276
31.52000 19.319
31.68000 31.171
31.84000 24.206
32.00000 26.634
32.16000 31.384
32.32000 23.377
32.48000 23.258
32.64000 18.225
32.80000 18.191
32.96000 21.231
33.12000 18.185
33.28000 18.158
33.44000 18.293
33.60000 15.188
33.76000 10.165
33.92000 12.180
34.08000 18.192
34.24000 17.224
34.40000 16.105
34.56000 14.348
34.72000 13.077
34.88000 20.257
35.04000 20.245
35.20000 15.032
35.36000 20.055
35.52000 10.025
35.68000 11.307
35.84000 16.239
36.00000 9.065
36.16000 20.174
36.32000 19.236
36.48000 26.377
36.64000 22.309
36.80000 12.241
36.96000 14.264
37.12000 12.109
37.28000 21.240
37.44000 14.200
37.60000 8.118
37.76000 12.193
37.92000 20.238
38.08000 23.258
38.24000 18.215
38.40000 15.174
38.56000 13.973
38.72000 8.081
38.88000 22.198
39.04000 9.185
39.20000 13.194
39.36000 18.285
39.52000 21.336
39.68000 14.072
39.84000 23.284
40.00000 19.172
40.16000 11.175
40.32000 14.178
40.48000 21.227
40.64000 12.107
40.80000 16.149
40.96000 23.364
41.12000 23.536
41.28000 21.209
41.44000 13.225
41.60000 13.115
41.76000 17.076
41.92000 14.143
42.08000 14.156
42.24000 12.152
42.40000 19.352
42.56000 13.160
42.72000 12.209
42.88000 16.117
43.04000 19.210
43.20000 9.327
43.36000 10.116
43.52000 20.267
43.68000 20.222
43.84000 19.220
44.00000 18.310
44.16000 7.041
44.32000 10.220
44.48000 20.283
44.64000 15.242
44.80000 14.220
44.96000 21.296
45.12000 17.112
45.28000 17.282
45.44000 17.209
45.60000 19.286
45.76000 15.152
45.92000 12.190
46.08000 17.145
46.24000 21.424
46.40000 19.241
46.56000 19.276
46.72000 25.337
46.88000 18.232
47.04000 10.118
47.20000 10.233
47.36000 15.188
47.52000 20.353
47.68000 19.175
47.84000 12.065
48.00000 16.085
48.16000 21.398
48.32000 17.091
48.48000 13.029
48.64000 5.112
48.80000 14.158
48.96000 12.118
49.12000 18.136
49.28000 10.052
49.44000 10.138
49.60000 7.058
49.76000 13.320
49.92000 19.364
50.08000 21.438
50.24000 16.097
50.40000 9.121
50.56000 10.080
50.72000 14.275
50.88000 26.078
51.04000 18.061
51.20000 12.137
51.36000 19.201
51.52000 17.082
51.68000 20.056
51.84000 18.367
52.00000 28.290
52.16000 10.132
52.32000 14.226
52.48000 11.085
52.64000 9.098
52.80000 14.375
52.96000 10.152
53.12000 9.223
53.28000 10.193
53.44000 9.142
53.60000 8.228
53.76000 16.320
53.92000 6.029
54.08000 12.085
54.24000 7.102
54.40000 18.282
54.56000 8.178
54.72000 6.137
54.88000 12.118
55.04000 6.064
55.20000 14.157
55.36000 11.190
55.52000 17.087
55.68000 6.113
55.84000 11.279
56.00000 7.096
56.16000 11.215
56.32000 12.166
56.48000 13.233
56.64000 13.168
56.80000 8.161
56.96000 15.248
57.12000 17.145
57.28000 12.054
57.44000 10.012
57.60000 18.419
57.76000 13.157
57.92000 11.952
58.08000 11.160
58.24000 6.977
58.40000 8.051
58.56000 6.083
58.72000 7.046
58.88000 3.062
59.04000 12.149
59.20000 14.244
59.36000 10.153
59.52000 13.212
59.68000 7.119
59.84000 10.054
60.00000 7.030
60.16000 5.084
60.32000 9.108
60.48000 9.192
60.64000 9.213
60.80000 12.064
60.96000 9.109
61.12000 6.094
61.28000 3.070
61.44000 9.067
61.60000 8.096
61.76000 12.251
61.92000 8.053
62.08000 6.086
62.24000 11.242
62.40000 9.044
62.56000 7.021
62.72000 9.099
62.88000 6.074
63.04000 7.020
63.20000 16.330
63.36000 8.084
63.52000 14.180
63.68000 14.211
63.84000 9.166
64.00000 6.066
64.16000 6.059
64.32000 6.110
64.48000 14.081
64.64000 13.286
64.80000 9.011
64.96000 9.099
65.00000 13.228