File: XRD/11-09-2025/XY Data/01092025_BTO_omega_1_001_18_2-782_-12-187.xy
20.00000 38.449
20.16000 40.307
20.32000 37.477
20.48000 23.092
20.64000 48.632
20.80000 32.564
20.96000 37.431
21.12000 38.727
21.28000 36.367
21.44000 28.525
21.60000 33.203
21.76000 27.427
21.92000 34.330
22.08000 30.258
22.24000 25.382
22.40000 28.308
22.56000 25.269
22.72000 21.154
22.88000 21.309
23.04000 25.188
23.20000 36.238
23.36000 25.906
23.52000 21.252
23.68000 31.376
23.84000 20.242
24.00000 18.085
24.16000 20.504
24.32000 18.324
24.48000 18.405
24.64000 13.089
24.80000 15.069
24.96000 20.373
25.12000 19.221
25.28000 18.075
25.44000 11.205
25.60000 12.074
25.76000 16.250
25.92000 17.253
26.08000 14.207
26.24000 14.288
26.40000 8.996
26.56000 8.099
26.72000 14.175
26.88000 9.169
27.04000 8.180
27.20000 15.160
27.36000 13.245
27.52000 11.210
27.68000 11.072
27.84000 12.241
28.00000 15.170
28.16000 10.129
28.32000 8.184
28.48000 6.142
28.64000 11.136
28.80000 12.128
28.96000 6.066
29.12000 9.128
29.28000 10.136
29.44000 10.064
29.60000 11.120
29.76000 7.173
29.92000 10.138
30.08000 7.164
30.24000 10.084
30.40000 6.981
30.56000 7.086
30.72000 5.160
30.88000 11.172
31.04000 7.905
31.20000 6.086
31.36000 5.020
31.52000 8.214
31.68000 5.013
31.84000 7.168
32.00000 11.181
32.16000 11.094
32.32000 4.993
32.48000 5.105
32.64000 6.067
32.80000 3.020
32.96000 5.060
33.12000 7.121
33.28000 6.980
33.44000 4.074
33.60000 5.126
33.76000 7.133
33.92000 7.111
34.08000 2.040
34.24000 5.109
34.40000 4.069
34.56000 9.178
34.72000 3.023
34.88000 7.097
35.04000 2.980
35.20000 11.118
35.36000 3.989
35.52000 1.014
35.68000 5.084
35.84000 15.270
36.00000 6.103
36.16000 4.940
36.32000 3.961
36.48000 7.086
36.64000 3.046
36.80000 2.993
36.96000 2.144
37.12000 4.058
37.28000 1.995
37.44000 5.012
37.60000 6.045
37.76000 2.011
37.92000 5.072
38.08000 7.992
38.24000 6.039
38.40000 7.166
38.56000 7.099
38.72000 5.035
38.88000 1.051
39.04000 2.077
39.20000 6.183
39.36000 5.059
39.52000 5.029
39.68000 8.059
39.84000 6.056
40.00000 7.014
40.16000 4.067
40.32000 5.098
40.48000 4.976
40.64000 7.156
40.80000 5.019
40.96000 3.035
41.12000 7.115
41.28000 2.025
41.44000 3.075
41.60000 5.059
41.76000 1.032
41.92000 6.073
42.08000 3.027
42.24000 6.010
42.40000 2.043
42.56000 1.979
42.72000 2.036
42.88000 5.092
43.04000 2.030
43.20000 4.141
43.36000 2.991
43.52000 3.044
43.68000 0.996
43.84000 1.085
44.00000 2.989
44.16000 6.979
44.32000 4.087
44.48000 5.212
44.64000 3.001
44.80000 1.035
44.96000 4.066
45.12000 0.979
45.28000 5.030
45.44000 2.972
45.60000 2.036
45.76000 2.017
45.92000 0.000
46.08000 3.016
46.24000 1.011
46.40000 1.010
46.56000 4.076
46.72000 3.042
46.88000 0.988
47.04000 3.046
47.20000 8.121
47.36000 1.028
47.52000 4.077
47.68000 3.987
47.84000 5.087
48.00000 4.101
48.16000 2.046
48.32000 3.005
48.48000 6.080
48.64000 4.000
48.80000 0.000
48.96000 1.000
49.12000 7.083
49.28000 3.044
49.44000 3.001
49.60000 1.006
49.76000 3.065
49.92000 2.081
50.08000 2.042
50.24000 0.000
50.40000 1.088
50.56000 1.042
50.72000 2.051
50.88000 3.011
51.04000 3.076
51.20000 3.019
51.36000 1.042
51.52000 1.039
51.68000 0.995
51.84000 1.054
52.00000 4.959
52.16000 1.025
52.32000 2.007
52.48000 1.057
52.64000 1.050
52.80000 2.039
52.96000 4.018
53.12000 2.995
53.28000 3.022
53.44000 1.015
53.60000 1.050
53.76000 2.030
53.92000 2.003
54.08000 1.987
54.24000 0.000
54.40000 2.005
54.56000 1.000
54.72000 2.103
54.88000 1.989
55.04000 1.040
55.20000 5.105
55.36000 0.994
55.52000 2.977
55.68000 2.071
55.84000 4.021
56.00000 3.022
56.16000 2.011
56.32000 3.971
56.48000 0.000
56.64000 0.986
56.80000 3.058
56.96000 3.056
57.12000 1.007
57.28000 0.000
57.44000 2.035
57.60000 0.989
57.76000 3.029
57.92000 0.993
58.08000 0.000
58.24000 2.073
58.40000 1.008
58.56000 2.010
58.72000 1.013
58.88000 1.035
59.04000 0.000
59.20000 0.981
59.36000 3.018
59.52000 1.986
59.68000 0.000
59.84000 1.990
60.00000 3.081
60.16000 2.004
60.32000 1.989
60.48000 1.025
60.64000 4.038
60.80000 1.021
60.96000 1.069
61.12000 1.006
61.28000 0.000
61.44000 0.997
61.60000 4.056
61.76000 0.000
61.92000 1.011
62.08000 0.000
62.24000 2.013
62.40000 3.047
62.56000 2.028
62.72000 1.009
62.88000 0.978
63.04000 0.995
63.20000 2.029
63.36000 1.029
63.52000 1.985
63.68000 0.985
63.84000 0.000
64.00000 0.993
64.16000 1.035
64.32000 0.000
64.48000 3.097
64.64000 2.043
64.80000 1.053
64.96000 0.999
65.00000 1.989