File: XRD/11-09-2025/XY Data/01092025_BTO_omega_1_001_23_11-262_-5-424.xy
20.00000 21.250
20.16000 6.101
20.32000 14.227
20.48000 15.167
20.64000 20.253
20.80000 12.111
20.96000 13.140
21.12000 11.121
21.28000 15.447
21.44000 10.154
21.60000 11.223
21.76000 11.086
21.92000 12.237
22.08000 8.114
22.24000 7.033
22.40000 12.250
22.56000 14.034
22.72000 9.121
22.88000 10.192
23.04000 6.130
23.20000 10.146
23.36000 10.157
23.52000 13.308
23.68000 6.998
23.84000 8.046
24.00000 14.217
24.16000 10.158
24.32000 8.032
24.48000 10.054
24.64000 10.197
24.80000 5.017
24.96000 8.117
25.12000 9.002
25.28000 16.278
25.44000 8.075
25.60000 4.971
25.76000 8.061
25.92000 9.054
26.08000 8.078
26.24000 5.162
26.40000 8.106
26.56000 6.101
26.72000 4.038
26.88000 3.025
27.04000 7.078
27.20000 8.005
27.36000 6.033
27.52000 4.084
27.68000 7.075
27.84000 13.021
28.00000 7.015
28.16000 5.086
28.32000 7.173
28.48000 12.153
28.64000 9.213
28.80000 8.090
28.96000 1.024
29.12000 4.013
29.28000 5.165
29.44000 5.987
29.60000 7.149
29.76000 14.309
29.92000 2.004
30.08000 7.046
30.24000 5.030
30.40000 5.036
30.56000 6.035
30.72000 4.121
30.88000 8.143
31.04000 9.172
31.20000 11.086
31.36000 5.048
31.52000 4.006
31.68000 2.016
31.84000 9.200
32.00000 6.033
32.16000 3.041
32.32000 6.167
32.48000 3.986
32.64000 4.041
32.80000 3.042
32.96000 8.045
33.12000 3.073
33.28000 3.024
33.44000 9.094
33.60000 5.103
33.76000 5.047
33.92000 4.033
34.08000 4.008
34.24000 4.055
34.40000 3.076
34.56000 5.176
34.72000 5.122
34.88000 2.101
35.04000 3.077
35.20000 1.063
35.36000 3.071
35.52000 3.033
35.68000 5.126
35.84000 1.013
36.00000 3.081
36.16000 1.041
36.32000 5.126
36.48000 1.984
36.64000 1.988
36.80000 7.118
36.96000 1.983
37.12000 4.975
37.28000 1.967
37.44000 4.997
37.60000 2.066
37.76000 3.094
37.92000 3.100
38.08000 1.024
38.24000 4.081
38.40000 3.013
38.56000 1.005
38.72000 4.024
38.88000 3.018
39.04000 0.000
39.20000 1.036
39.36000 3.988
39.52000 2.014
39.68000 0.995
39.84000 0.000
40.00000 5.054
40.16000 2.004
40.32000 2.057
40.48000 5.035
40.64000 2.060
40.80000 2.033
40.96000 3.001
41.12000 2.027
41.28000 3.048
41.44000 4.006
41.60000 1.976
41.76000 3.085
41.92000 0.995
42.08000 5.016
42.24000 2.051
42.40000 3.034
42.56000 5.116
42.72000 1.048
42.88000 5.087
43.04000 2.011
43.20000 1.035
43.36000 3.005
43.52000 4.027
43.68000 3.098
43.84000 0.993
44.00000 1.002
44.16000 2.054
44.32000 1.993
44.48000 5.027
44.64000 4.061
44.80000 1.014
44.96000 1.005
45.12000 3.027
45.28000 2.009
45.44000 0.000
45.60000 3.093
45.76000 0.990
45.92000 1.947
46.08000 2.013
46.24000 1.005
46.40000 4.134
46.56000 3.082
46.72000 3.001
46.88000 2.060
47.04000 1.996
47.20000 0.995
47.36000 4.020
47.52000 6.005
47.68000 4.093
47.84000 0.000
48.00000 7.051
48.16000 1.022
48.32000 3.036
48.48000 0.994
48.64000 1.006
48.80000 2.047
48.96000 3.957
49.12000 1.020
49.28000 2.014
49.44000 2.004
49.60000 1.991
49.76000 2.059
49.92000 3.038
50.08000 2.080
50.24000 0.000
50.40000 1.999
50.56000 3.040
50.72000 3.997
50.88000 2.993
51.04000 0.000
51.20000 2.020
51.36000 1.989
51.52000 0.987
51.68000 0.000
51.84000 3.059
52.00000 4.050
52.16000 0.000
52.32000 0.000
52.48000 0.000
52.64000 0.000
52.80000 1.027
52.96000 1.017
53.12000 0.000
53.28000 1.033
53.44000 0.000
53.60000 0.000
53.76000 3.094
53.92000 2.999
54.08000 0.000
54.24000 1.018
54.40000 3.017
54.56000 3.007
54.72000 3.039
54.88000 1.032
55.04000 3.022
55.20000 0.988
55.36000 0.984
55.52000 1.024
55.68000 2.003
55.84000 3.984
56.00000 1.042
56.16000 1.039
56.32000 0.986
56.48000 1.006
56.64000 1.021
56.80000 1.011
56.96000 0.000
57.12000 1.017
57.28000 2.019
57.44000 2.045
57.60000 0.000
57.76000 2.038
57.92000 0.000
58.08000 0.000
58.24000 1.985
58.40000 3.060
58.56000 0.000
58.72000 0.990
58.88000 4.069
59.04000 0.000
59.20000 0.984
59.36000 3.099
59.52000 0.000
59.68000 0.990
59.84000 0.999
60.00000 2.016
60.16000 1.012
60.32000 3.090
60.48000 0.000
60.64000 2.066
60.80000 2.011
60.96000 4.035
61.12000 0.000
61.28000 0.971
61.44000 0.000
61.60000 2.037
61.76000 2.077
61.92000 1.016
62.08000 2.024
62.24000 1.988
62.40000 1.986
62.56000 2.009
62.72000 0.000
62.88000 1.014
63.04000 1.038
63.20000 1.003
63.36000 0.000
63.52000 0.000
63.68000 1.034
63.84000 1.994
64.00000 0.000
64.16000 0.973
64.32000 0.000
64.48000 0.996
64.64000 1.002
64.80000 2.051
64.96000 2.060
65.00000 3.078