File: XRD/11-09-2025/XY Data/01092025_BTO_omega_0_5_001_20_-5-563_24-373.xy
20.00000 18.327
20.16000 18.303
20.32000 15.107
20.48000 24.128
20.64000 15.186
20.80000 24.310
20.96000 15.187
21.12000 17.219
21.28000 22.410
21.44000 20.160
21.60000 21.444
21.76000 25.628
21.92000 18.292
22.08000 31.580
22.24000 33.356
22.40000 29.236
22.56000 22.190
22.72000 22.277
22.88000 23.330
23.04000 28.267
23.20000 23.298
23.36000 23.345
23.52000 32.505
23.68000 41.584
23.84000 33.631
24.00000 31.420
24.16000 43.689
24.32000 31.448
24.48000 39.509
24.64000 36.287
24.80000 31.437
24.96000 44.399
25.12000 43.262
25.28000 45.692
25.44000 37.475
25.60000 42.278
25.76000 41.400
25.92000 41.469
26.08000 41.474
26.24000 53.715
26.40000 45.379
26.56000 66.882
26.72000 73.216
26.88000 52.770
27.04000 64.041
27.20000 67.815
27.36000 62.807
27.52000 61.874
27.68000 56.988
27.84000 50.520
28.00000 68.508
28.16000 52.703
28.32000 64.587
28.48000 57.730
28.64000 56.820
28.80000 64.412
28.96000 64.779
29.12000 64.235
29.28000 51.720
29.44000 45.865
29.60000 50.649
29.76000 52.904
29.92000 41.585
30.08000 50.559
30.24000 40.686
30.40000 32.669
30.56000 36.680
30.72000 38.771
30.88000 38.473
31.04000 28.306
31.20000 31.341
31.36000 37.587
31.52000 34.591
31.68000 36.668
31.84000 29.299
32.00000 32.321
32.16000 30.532
32.32000 34.376
32.48000 31.300
32.64000 28.367
32.80000 35.214
32.96000 25.256
33.12000 23.158
33.28000 29.646
33.44000 21.299
33.60000 27.258
33.76000 15.276
33.92000 12.328
34.08000 20.412
34.24000 20.226
34.40000 24.304
34.56000 28.473
34.72000 21.307
34.88000 17.147
35.04000 13.110
35.20000 25.328
35.36000 15.160
35.52000 11.265
35.68000 23.178
35.84000 15.239
36.00000 15.076
36.16000 31.321
36.32000 14.119
36.48000 11.176
36.64000 20.180
36.80000 21.279
36.96000 18.375
37.12000 15.319
37.28000 23.268
37.44000 21.380
37.60000 24.095
37.76000 23.188
37.92000 20.263
38.08000 16.231
38.24000 23.197
38.40000 11.164
38.56000 23.224
38.72000 22.230
38.88000 23.260
39.04000 26.580
39.20000 19.290
39.36000 21.460
39.52000 13.154
39.68000 29.440
39.84000 17.280
40.00000 16.105
40.16000 23.496
40.32000 19.225
40.48000 25.373
40.64000 29.063
40.80000 30.451
40.96000 16.407
41.12000 23.290
41.28000 13.103
41.44000 13.095
41.60000 26.367
41.76000 18.446
41.92000 25.529
42.08000 24.235
42.24000 17.282
42.40000 17.193
42.56000 16.245
42.72000 24.314
42.88000 23.167
43.04000 23.334
43.20000 25.346
43.36000 23.221
43.52000 33.499
43.68000 18.278
43.84000 23.276
44.00000 18.121
44.16000 25.511
44.32000 19.465
44.48000 21.218
44.64000 19.214
44.80000 19.214
44.96000 22.214
45.12000 20.377
45.28000 23.558
45.44000 24.500
45.60000 26.367
45.76000 19.113
45.92000 22.109
46.08000 12.219
46.24000 17.343
46.40000 25.559
46.56000 22.047
46.72000 18.363
46.88000 12.131
47.04000 21.236
47.20000 22.261
47.36000 15.127
47.52000 14.153
47.68000 16.190
47.84000 21.389
48.00000 20.436
48.16000 21.213
48.32000 20.398
48.48000 14.027
48.64000 22.420
48.80000 18.313
48.96000 18.182
49.12000 21.469
49.28000 21.228
49.44000 8.942
49.60000 14.037
49.76000 10.132
49.92000 18.196
50.08000 22.146
50.24000 15.193
50.40000 21.164
50.56000 14.316
50.72000 16.273
50.88000 15.172
51.04000 18.165
51.20000 20.180
51.36000 17.109
51.52000 18.041
51.68000 19.293
51.84000 15.180
52.00000 11.145
52.16000 18.109
52.32000 25.262
52.48000 18.337
52.64000 11.225
52.80000 12.078
52.96000 23.223
53.12000 12.992
53.28000 18.193
53.44000 13.114
53.60000 12.212
53.76000 12.006
53.92000 14.256
54.08000 25.401
54.24000 16.323
54.40000 14.228
54.56000 10.984
54.72000 16.289
54.88000 10.145
55.04000 16.265
55.20000 13.226
55.36000 13.180
55.52000 6.980
55.68000 11.123
55.84000 11.087
56.00000 10.203
56.16000 11.107
56.32000 22.242
56.48000 13.174
56.64000 15.390
56.80000 13.111
56.96000 10.192
57.12000 10.112
57.28000 6.093
57.44000 13.143
57.60000 10.054
57.76000 14.200
57.92000 14.320
58.08000 12.107
58.24000 12.170
58.40000 18.318
58.56000 10.160
58.72000 10.103
58.88000 7.113
59.04000 12.096
59.20000 13.115
59.36000 9.147
59.52000 8.083
59.68000 9.178
59.84000 8.099
60.00000 9.118
60.16000 6.069
60.32000 12.326
60.48000 5.124
60.64000 13.220
60.80000 13.242
60.96000 8.030
61.12000 10.103
61.28000 6.117
61.44000 14.162
61.60000 11.185
61.76000 10.168
61.92000 7.036
62.08000 9.136
62.24000 10.280
62.40000 7.983
62.56000 7.049
62.72000 8.179
62.88000 8.024
63.04000 7.015
63.20000 18.287
63.36000 10.154
63.52000 7.038
63.68000 6.143
63.84000 7.166
64.00000 10.122
64.16000 14.979
64.32000 11.094
64.48000 9.040
64.64000 6.073
64.80000 12.141
64.96000 16.089
65.00000 5.018