File: XRD/11-09-2025/XY Data/01092025_BTO_omega_1_001_46_45-048_21-694.xy
20.00000 8.126
20.16000 13.136
20.32000 18.102
20.48000 13.336
20.64000 14.249
20.80000 15.188
20.96000 16.177
21.12000 11.226
21.28000 16.185
21.44000 15.338
21.60000 19.408
21.76000 16.261
21.92000 12.188
22.08000 13.113
22.24000 12.079
22.40000 12.095
22.56000 13.221
22.72000 13.163
22.88000 11.372
23.04000 14.199
23.20000 13.087
23.36000 15.201
23.52000 16.228
23.68000 12.088
23.84000 12.283
24.00000 12.093
24.16000 15.073
24.32000 18.168
24.48000 18.285
24.64000 19.202
24.80000 17.292
24.96000 16.224
25.12000 11.181
25.28000 11.194
25.44000 22.287
25.60000 21.157
25.76000 24.198
25.92000 16.313
26.08000 24.345
26.24000 26.241
26.40000 22.277
26.56000 23.335
26.72000 19.241
26.88000 24.135
27.04000 26.534
27.20000 26.484
27.36000 22.556
27.52000 35.498
27.68000 25.304
27.84000 25.549
28.00000 21.202
28.16000 21.212
28.32000 29.468
28.48000 22.479
28.64000 24.217
28.80000 26.278
28.96000 17.203
29.12000 24.439
29.28000 28.501
29.44000 26.152
29.60000 26.481
29.76000 16.117
29.92000 23.294
30.08000 18.235
30.24000 12.121
30.40000 29.451
30.56000 16.403
30.72000 12.153
30.88000 18.221
31.04000 15.184
31.20000 14.183
31.36000 12.145
31.52000 14.180
31.68000 13.337
31.84000 20.238
32.00000 12.046
32.16000 13.241
32.32000 9.157
32.48000 12.090
32.64000 12.154
32.80000 13.333
32.96000 14.349
33.12000 8.026
33.28000 7.119
33.44000 7.118
33.60000 7.106
33.76000 0.981
33.92000 13.195
34.08000 11.022
34.24000 7.126
34.40000 18.047
34.56000 2.938
34.72000 9.086
34.88000 9.148
35.04000 10.135
35.20000 8.061
35.36000 7.125
35.52000 4.101
35.68000 12.098
35.84000 10.201
36.00000 7.175
36.16000 6.042
36.32000 6.999
36.48000 7.124
36.64000 9.089
36.80000 6.002
36.96000 12.152
37.12000 3.040
37.28000 9.089
37.44000 6.015
37.60000 14.093
37.76000 12.135
37.92000 1.999
38.08000 6.999
38.24000 15.234
38.40000 4.056
38.56000 6.046
38.72000 11.224
38.88000 13.257
39.04000 12.063
39.20000 3.058
39.36000 6.058
39.52000 8.177
39.68000 4.137
39.84000 7.155
40.00000 13.292
40.16000 10.092
40.32000 13.119
40.48000 7.134
40.64000 8.956
40.80000 6.147
40.96000 6.149
41.12000 14.247
41.28000 9.122
41.44000 14.095
41.60000 10.152
41.76000 9.175
41.92000 9.101
42.08000 22.530
42.24000 13.083
42.40000 14.213
42.56000 13.284
42.72000 12.230
42.88000 7.122
43.04000 11.069
43.20000 7.092
43.36000 11.214
43.52000 8.068
43.68000 11.114
43.84000 10.117
44.00000 11.278
44.16000 8.035
44.32000 17.208
44.48000 9.239
44.64000 12.079
44.80000 5.058
44.96000 17.186
45.12000 11.101
45.28000 7.116
45.44000 10.086
45.60000 8.257
45.76000 13.178
45.92000 12.143
46.08000 7.229
46.24000 12.149
46.40000 11.047
46.56000 15.157
46.72000 11.151
46.88000 13.138
47.04000 13.122
47.20000 7.095
47.36000 12.116
47.52000 10.320
47.68000 14.203
47.84000 16.367
48.00000 14.114
48.16000 18.206
48.32000 8.129
48.48000 13.159
48.64000 9.066
48.80000 10.095
48.96000 6.164
49.12000 10.157
49.28000 12.019
49.44000 4.997
49.60000 4.058
49.76000 11.163
49.92000 10.122
50.08000 8.160
50.24000 12.315
50.40000 11.253
50.56000 11.304
50.72000 9.128
50.88000 8.170
51.04000 7.084
51.20000 16.224
51.36000 13.120
51.52000 7.198
51.68000 12.203
51.84000 11.183
52.00000 9.155
52.16000 7.165
52.32000 9.051
52.48000 17.229
52.64000 10.176
52.80000 11.328
52.96000 10.134
53.12000 6.024
53.28000 6.134
53.44000 16.313
53.60000 6.100
53.76000 10.144
53.92000 12.129
54.08000 3.094
54.24000 6.090
54.40000 11.241
54.56000 10.247
54.72000 8.053
54.88000 10.226
55.04000 11.082
55.20000 4.071
55.36000 12.134
55.52000 11.222
55.68000 5.158
55.84000 11.065
56.00000 12.033
56.16000 6.120
56.32000 5.997
56.48000 8.142
56.64000 9.146
56.80000 10.096
56.96000 12.230
57.12000 8.978
57.28000 9.245
57.44000 4.101
57.60000 6.965
57.76000 5.041
57.92000 6.986
58.08000 4.160
58.24000 5.005
58.40000 13.207
58.56000 9.154
58.72000 7.123
58.88000 12.141
59.04000 7.075
59.20000 11.109
59.36000 8.226
59.52000 8.217
59.68000 5.984
59.84000 7.047
60.00000 4.057
60.16000 10.098
60.32000 1.069
60.48000 6.051
60.64000 7.993
60.80000 8.019
60.96000 6.082
61.12000 6.998
61.28000 6.003
61.44000 12.340
61.60000 4.003
61.76000 11.116
61.92000 5.012
62.08000 10.242
62.24000 9.099
62.40000 9.059
62.56000 7.253
62.72000 10.241
62.88000 12.107
63.04000 10.117
63.20000 8.112
63.36000 7.181
63.52000 8.172
63.68000 9.157
63.84000 5.011
64.00000 7.968
64.16000 4.104
64.32000 5.094
64.48000 11.281
64.64000 4.945
64.80000 8.141
64.96000 10.031
65.00000 5.145