File: XRD/11-09-2025/XY Data/01092025_BTO_omega_0_5_001_08_7-794_9-773.xy
20.00000 20.239
20.16000 22.369
20.32000 14.279
20.48000 23.361
20.64000 27.585
20.80000 24.418
20.96000 21.189
21.12000 12.977
21.28000 21.240
21.44000 14.182
21.60000 14.111
21.76000 24.267
21.92000 28.448
22.08000 25.354
22.24000 14.069
22.40000 12.357
22.56000 20.163
22.72000 18.431
22.88000 21.360
23.04000 28.478
23.20000 26.209
23.36000 23.213
23.52000 35.346
23.68000 15.141
23.84000 22.233
24.00000 40.562
24.16000 33.577
24.32000 34.793
24.48000 39.577
24.64000 36.386
24.80000 29.365
24.96000 39.662
25.12000 34.535
25.28000 31.479
25.44000 45.620
25.60000 46.640
25.76000 43.517
25.92000 51.777
26.08000 51.562
26.24000 45.586
26.40000 67.033
26.56000 68.219
26.72000 59.483
26.88000 59.886
27.04000 59.641
27.20000 54.590
27.36000 61.730
27.52000 66.735
27.68000 61.833
27.84000 43.620
28.00000 56.621
28.16000 58.694
28.32000 64.736
28.48000 56.984
28.64000 56.813
28.80000 66.990
28.96000 61.663
29.12000 45.533
29.28000 39.689
29.44000 47.429
29.60000 51.583
29.76000 43.576
29.92000 48.484
30.08000 42.568
30.24000 30.262
30.40000 37.518
30.56000 38.580
30.72000 35.651
30.88000 30.322
31.04000 26.314
31.20000 41.048
31.36000 39.648
31.52000 30.401
31.68000 32.457
31.84000 28.295
32.00000 21.541
32.16000 37.404
32.32000 44.683
32.48000 25.209
32.64000 25.320
32.80000 23.242
32.96000 21.439
33.12000 26.201
33.28000 17.150
33.44000 23.311
33.60000 15.333
33.76000 19.175
33.92000 23.389
34.08000 16.246
34.24000 19.517
34.40000 19.061
34.56000 16.246
34.72000 16.226
34.88000 22.279
35.04000 18.349
35.20000 15.126
35.36000 23.284
35.52000 18.350
35.68000 15.395
35.84000 16.156
36.00000 19.254
36.16000 16.045
36.32000 18.343
36.48000 18.058
36.64000 19.168
36.80000 30.403
36.96000 17.157
37.12000 12.116
37.28000 24.230
37.44000 21.092
37.60000 23.968
37.76000 21.237
37.92000 15.185
38.08000 14.261
38.24000 28.324
38.40000 23.528
38.56000 17.231
38.72000 12.113
38.88000 13.100
39.04000 20.384
39.20000 24.165
39.36000 23.290
39.52000 30.203
39.68000 17.182
39.84000 19.175
40.00000 18.244
40.16000 12.237
40.32000 30.294
40.48000 20.263
40.64000 21.171
40.80000 16.314
40.96000 29.244
41.12000 19.330
41.28000 21.273
41.44000 20.190
41.60000 27.373
41.76000 29.416
41.92000 22.205
42.08000 29.589
42.24000 15.245
42.40000 15.290
42.56000 31.458
42.72000 22.067
42.88000 26.237
43.04000 12.087
43.20000 20.357
43.36000 23.246
43.52000 27.510
43.68000 15.164
43.84000 28.518
44.00000 25.463
44.16000 16.043
44.32000 20.287
44.48000 18.208
44.64000 18.974
44.80000 25.285
44.96000 17.253
45.12000 14.184
45.28000 20.416
45.44000 25.134
45.60000 29.412
45.76000 15.135
45.92000 17.341
46.08000 18.119
46.24000 16.072
46.40000 21.395
46.56000 15.302
46.72000 21.422
46.88000 20.179
47.04000 27.380
47.20000 23.189
47.36000 18.264
47.52000 17.172
47.68000 24.341
47.84000 17.196
48.00000 20.487
48.16000 15.017
48.32000 19.344
48.48000 18.195
48.64000 24.254
48.80000 22.332
48.96000 21.309
49.12000 14.057
49.28000 20.417
49.44000 21.162
49.60000 17.247
49.76000 20.253
49.92000 14.268
50.08000 14.126
50.24000 19.314
50.40000 21.302
50.56000 23.544
50.72000 14.019
50.88000 16.137
51.04000 12.161
51.20000 24.279
51.36000 19.423
51.52000 17.386
51.68000 10.020
51.84000 19.308
52.00000 22.017
52.16000 15.465
52.32000 8.991
52.48000 13.173
52.64000 13.159
52.80000 23.336
52.96000 7.138
53.12000 17.283
53.28000 18.255
53.44000 19.360
53.60000 10.072
53.76000 15.193
53.92000 14.124
54.08000 14.191
54.24000 12.225
54.40000 13.179
54.56000 16.164
54.72000 10.197
54.88000 12.311
55.04000 11.159
55.20000 10.124
55.36000 16.239
55.52000 9.166
55.68000 13.066
55.84000 13.185
56.00000 10.087
56.16000 7.062
56.32000 10.234
56.48000 10.195
56.64000 8.156
56.80000 17.301
56.96000 16.084
57.12000 13.178
57.28000 14.329
57.44000 18.362
57.60000 7.932
57.76000 11.286
57.92000 13.216
58.08000 10.038
58.24000 12.362
58.40000 13.096
58.56000 6.059
58.72000 11.050
58.88000 9.010
59.04000 7.996
59.20000 6.121
59.36000 14.164
59.52000 17.254
59.68000 10.145
59.84000 10.216
60.00000 10.089
60.16000 12.069
60.32000 15.277
60.48000 11.035
60.64000 10.229
60.80000 13.127
60.96000 9.132
61.12000 9.209
61.28000 10.071
61.44000 10.104
61.60000 8.189
61.76000 8.162
61.92000 6.106
62.08000 4.991
62.24000 8.030
62.40000 13.198
62.56000 11.105
62.72000 13.097
62.88000 8.074
63.04000 13.156
63.20000 4.117
63.36000 12.382
63.52000 11.180
63.68000 3.084
63.84000 8.114
64.00000 6.018
64.16000 9.088
64.32000 9.136
64.48000 7.981
64.64000 9.124
64.80000 5.046
64.96000 3.030
65.00000 9.129