File: XRD/11-09-2025/XY Data/01092025_BTO_omega_0_5_001_15_-15-587_19-546.xy
20.00000 21.192
20.16000 27.073
20.32000 15.350
20.48000 25.374
20.64000 10.159
20.80000 27.461
20.96000 23.195
21.12000 18.188
21.28000 19.104
21.44000 22.323
21.60000 31.894
21.76000 18.153
21.92000 25.299
22.08000 19.366
22.24000 19.237
22.40000 24.344
22.56000 29.412
22.72000 32.278
22.88000 33.700
23.04000 14.176
23.20000 33.451
23.36000 22.271
23.52000 35.301
23.68000 27.377
23.84000 33.437
24.00000 31.580
24.16000 26.427
24.32000 27.381
24.48000 30.337
24.64000 37.608
24.80000 41.574
24.96000 45.713
25.12000 45.515
25.28000 42.552
25.44000 33.490
25.60000 39.493
25.76000 45.421
25.92000 46.480
26.08000 46.819
26.24000 42.731
26.40000 57.754
26.56000 54.691
26.72000 49.645
26.88000 56.729
27.04000 49.866
27.20000 57.680
27.36000 62.933
27.52000 63.543
27.68000 55.779
27.84000 63.959
28.00000 64.299
28.16000 48.650
28.32000 46.727
28.48000 48.734
28.64000 44.561
28.80000 58.720
28.96000 55.991
29.12000 42.572
29.28000 53.597
29.44000 43.302
29.60000 49.574
29.76000 46.295
29.92000 40.406
30.08000 44.475
30.24000 53.971
30.40000 41.502
30.56000 44.644
30.72000 45.684
30.88000 34.621
31.04000 37.365
31.20000 28.377
31.36000 27.431
31.52000 29.629
31.68000 28.309
31.84000 21.498
32.00000 29.564
32.16000 22.213
32.32000 22.257
32.48000 35.539
32.64000 24.115
32.80000 18.224
32.96000 24.953
33.12000 17.227
33.28000 21.359
33.44000 20.239
33.60000 22.167
33.76000 14.103
33.92000 19.335
34.08000 14.145
34.24000 17.266
34.40000 19.227
34.56000 21.408
34.72000 17.254
34.88000 18.107
35.04000 15.114
35.20000 20.278
35.36000 20.256
35.52000 16.094
35.68000 10.054
35.84000 23.247
36.00000 21.189
36.16000 14.163
36.32000 25.341
36.48000 19.302
36.64000 19.349
36.80000 16.180
36.96000 19.032
37.12000 15.111
37.28000 20.307
37.44000 13.976
37.60000 22.427
37.76000 14.116
37.92000 25.508
38.08000 24.278
38.24000 25.224
38.40000 15.176
38.56000 17.152
38.72000 26.207
38.88000 22.183
39.04000 31.359
39.20000 23.236
39.36000 34.561
39.52000 27.430
39.68000 18.111
39.84000 29.385
40.00000 19.200
40.16000 24.415
40.32000 20.226
40.48000 22.003
40.64000 18.354
40.80000 28.656
40.96000 21.494
41.12000 16.534
41.28000 27.488
41.44000 24.262
41.60000 21.524
41.76000 27.348
41.92000 24.427
42.08000 18.289
42.24000 17.211
42.40000 20.377
42.56000 19.182
42.72000 23.254
42.88000 16.194
43.04000 22.354
43.20000 27.382
43.36000 15.141
43.52000 17.300
43.68000 23.289
43.84000 25.311
44.00000 26.342
44.16000 15.207
44.32000 27.457
44.48000 19.163
44.64000 15.062
44.80000 27.411
44.96000 21.242
45.12000 24.234
45.28000 35.444
45.44000 24.237
45.60000 20.241
45.76000 24.761
45.92000 24.377
46.08000 21.047
46.24000 18.221
46.40000 25.249
46.56000 21.384
46.72000 22.045
46.88000 26.337
47.04000 16.177
47.20000 22.519
47.36000 18.144
47.52000 23.419
47.68000 23.368
47.84000 19.127
48.00000 20.119
48.16000 21.404
48.32000 21.268
48.48000 21.269
48.64000 13.312
48.80000 18.236
48.96000 25.318
49.12000 20.414
49.28000 20.133
49.44000 19.090
49.60000 16.196
49.76000 16.210
49.92000 13.056
50.08000 15.160
50.24000 21.526
50.40000 21.124
50.56000 13.409
50.72000 13.261
50.88000 14.222
51.04000 19.083
51.20000 8.064
51.36000 25.259
51.52000 18.994
51.68000 9.989
51.84000 16.184
52.00000 15.246
52.16000 14.261
52.32000 18.119
52.48000 18.205
52.64000 18.403
52.80000 18.255
52.96000 10.011
53.12000 10.266
53.28000 9.167
53.44000 17.220
53.60000 20.388
53.76000 7.149
53.92000 15.154
54.08000 17.246
54.24000 10.140
54.40000 15.292
54.56000 21.025
54.72000 7.154
54.88000 20.184
55.04000 11.092
55.20000 15.157
55.36000 14.235
55.52000 11.139
55.68000 16.102
55.84000 18.265
56.00000 8.935
56.16000 12.352
56.32000 10.173
56.48000 14.135
56.64000 11.089
56.80000 11.145
56.96000 10.110
57.12000 17.453
57.28000 10.137
57.44000 4.082
57.60000 10.090
57.76000 7.981
57.92000 14.147
58.08000 17.277
58.24000 12.130
58.40000 15.228
58.56000 12.058
58.72000 16.147
58.88000 12.130
59.04000 12.170
59.20000 17.169
59.36000 7.094
59.52000 6.981
59.68000 16.138
59.84000 13.271
60.00000 7.043
60.16000 7.189
60.32000 12.257
60.48000 10.187
60.64000 7.143
60.80000 8.161
60.96000 9.162
61.12000 6.167
61.28000 8.091
61.44000 8.206
61.60000 15.358
61.76000 10.162
61.92000 3.091
62.08000 11.082
62.24000 6.093
62.40000 12.188
62.56000 3.990
62.72000 5.104
62.88000 5.049
63.04000 4.098
63.20000 10.021
63.36000 6.178
63.52000 15.150
63.68000 11.133
63.84000 8.033
64.00000 8.030
64.16000 8.045
64.32000 13.204
64.48000 10.128
64.64000 9.119
64.80000 11.193
64.96000 15.099
65.00000 8.065