File: XRD/11-09-2025/XY Data/01092025_BTO_deposition_001_01_9-010_4-339.xy
20.00000 8.223
20.16000 8.201
20.32000 10.187
20.48000 5.184
20.64000 7.197
20.80000 17.547
20.96000 4.148
21.12000 9.377
21.28000 9.132
21.44000 8.257
21.60000 10.204
21.76000 8.211
21.92000 11.313
22.08000 9.291
22.24000 13.374
22.40000 10.342
22.56000 5.103
22.72000 5.181
22.88000 15.363
23.04000 13.340
23.20000 10.161
23.36000 13.405
23.52000 7.270
23.68000 8.174
23.84000 14.450
24.00000 13.386
24.16000 15.517
24.32000 11.339
24.48000 9.338
24.64000 14.391
24.80000 11.349
24.96000 15.587
25.12000 18.663
25.28000 23.654
25.44000 11.406
25.60000 11.317
25.76000 20.624
25.92000 19.695
26.08000 14.638
26.24000 24.735
26.40000 9.242
26.56000 23.767
26.72000 17.557
26.88000 18.760
27.04000 22.914
27.20000 23.864
27.36000 15.667
27.52000 21.569
27.68000 12.407
27.84000 21.819
28.00000 27.964
28.16000 10.484
28.32000 19.785
28.48000 19.669
28.64000 24.800
28.80000 24.593
28.96000 24.796
29.12000 12.372
29.28000 8.239
29.44000 16.609
29.60000 16.774
29.76000 15.298
29.92000 10.353
30.08000 18.715
30.24000 8.224
30.40000 16.565
30.56000 15.587
30.72000 11.344
30.88000 9.301
31.04000 7.260
31.20000 9.318
31.36000 8.348
31.52000 12.427
31.68000 9.333
31.84000 2.012
32.00000 14.461
32.16000 6.159
32.32000 8.354
32.48000 6.299
32.64000 7.145
32.80000 10.278
32.96000 8.378
33.12000 4.096
33.28000 14.564
33.44000 7.218
33.60000 16.465
33.76000 4.162
33.92000 12.442
34.08000 7.190
34.24000 7.282
34.40000 9.338
34.56000 8.321
34.72000 4.096
34.88000 4.183
35.04000 7.181
35.20000 8.202
35.36000 4.207
35.52000 16.506
35.68000 12.343
35.84000 8.239
36.00000 4.131
36.16000 5.185
36.32000 7.164
36.48000 9.275
36.64000 11.382
36.80000 7.248
36.96000 7.222
37.12000 3.115
37.28000 10.432
37.44000 7.261
37.60000 10.256
37.76000 8.153
37.92000 4.049
38.08000 7.170
38.24000 7.189
38.40000 9.155
38.56000 7.326
38.72000 7.439
38.88000 11.364
39.04000 7.312
39.20000 12.427
39.36000 9.312
39.52000 10.169
39.68000 10.322
39.84000 4.147
40.00000 8.315
40.16000 5.137
40.32000 7.179
40.48000 11.178
40.64000 4.163
40.80000 11.236
40.96000 5.271
41.12000 9.378
41.28000 4.194
41.44000 2.084
41.60000 5.170
41.76000 5.103
41.92000 8.203
42.08000 12.392
42.24000 12.379
42.40000 10.420
42.56000 7.345
42.72000 8.286
42.88000 8.215
43.04000 5.127
43.20000 4.159
43.36000 5.089
43.52000 7.237
43.68000 7.177
43.84000 10.186
44.00000 6.124
44.16000 11.369
44.32000 9.263
44.48000 5.110
44.64000 9.222
44.80000 5.164
44.96000 8.348
45.12000 7.273
45.28000 9.172
45.44000 10.381
45.60000 6.247
45.76000 11.357
45.92000 11.378
46.08000 8.282
46.24000 6.241
46.40000 6.061
46.56000 7.157
46.72000 8.269
46.88000 8.337
47.04000 7.175
47.20000 6.225
47.36000 3.093
47.52000 6.176
47.68000 8.263
47.84000 7.288
48.00000 5.168
48.16000 4.139
48.32000 5.194
48.48000 2.096
48.64000 8.387
48.80000 7.228
48.96000 15.338
49.12000 5.205
49.28000 8.296
49.44000 3.092
49.60000 7.226
49.76000 6.215
49.92000 8.268
50.08000 9.519
50.24000 6.122
50.40000 7.412
50.56000 0.000
50.72000 5.242
50.88000 2.049
51.04000 6.287
51.20000 3.051
51.36000 7.191
51.52000 6.136
51.68000 6.153
51.84000 6.264
52.00000 10.230
52.16000 7.244
52.32000 8.278
52.48000 5.187
52.64000 12.514
52.80000 6.326
52.96000 6.228
53.12000 6.092
53.28000 11.348
53.44000 12.442
53.60000 234.748
53.76000 493.908
53.92000 216.295
54.08000 5.196
54.24000 5.150
54.40000 8.197
54.56000 14.469
54.72000 5.187
54.88000 17.627
55.04000 16.611
55.20000 15.421
55.36000 15.522
55.52000 20.653
55.68000 8.317
55.84000 12.511
56.00000 11.382
56.16000 11.270
56.32000 10.338
56.48000 8.327
56.64000 13.358
56.80000 7.208
56.96000 5.223
57.12000 13.455
57.28000 9.181
57.44000 4.109
57.60000 5.169
57.76000 4.058
57.92000 4.082
58.08000 8.255
58.24000 4.138
58.40000 3.090
58.56000 5.121
58.72000 1.052
58.88000 6.109
59.04000 5.216
59.20000 6.149
59.36000 4.173
59.52000 3.042
59.68000 2.052
59.84000 4.153
60.00000 3.097
60.16000 2.034
60.32000 1.037
60.48000 2.072
60.64000 8.323
60.80000 7.331
60.96000 3.094
61.12000 2.089
61.28000 6.220
61.44000 7.185
61.60000 8.199
61.76000 4.174
61.92000 7.242
62.08000 3.072
62.24000 6.333
62.40000 4.107
62.56000 4.120
62.72000 3.103
62.88000 5.202
63.04000 3.086
63.20000 3.080
63.36000 6.208
63.52000 0.998
63.68000 8.218
63.84000 4.142
64.00000 5.168
64.16000 1.048
64.32000 1.035
64.48000 1.059
64.64000 4.071
64.80000 4.160
64.96000 4.115
65.00000 2.067