File: XRD/11-09-2025/XY Data/01092025_BTO_omega_0_5_001_05_11-262_5-424.xy
20.00000 19.207
20.16000 19.209
20.32000 17.301
20.48000 16.290
20.64000 17.102
20.80000 26.438
20.96000 18.071
21.12000 28.257
21.28000 20.313
21.44000 21.179
21.60000 24.223
21.76000 21.241
21.92000 17.275
22.08000 19.289
22.24000 26.280
22.40000 32.746
22.56000 22.391
22.72000 25.199
22.88000 28.398
23.04000 18.327
23.20000 22.412
23.36000 26.448
23.52000 39.606
23.68000 35.418
23.84000 32.422
24.00000 34.293
24.16000 30.259
24.32000 35.420
24.48000 30.217
24.64000 37.263
24.80000 50.880
24.96000 34.458
25.12000 39.595
25.28000 39.418
25.44000 37.422
25.60000 38.477
25.76000 43.698
25.92000 48.398
26.08000 48.698
26.24000 44.494
26.40000 54.787
26.56000 46.497
26.72000 57.654
26.88000 71.836
27.04000 71.117
27.20000 63.816
27.36000 63.189
27.52000 42.575
27.68000 55.963
27.84000 61.828
28.00000 59.781
28.16000 52.471
28.32000 57.807
28.48000 56.686
28.64000 42.422
28.80000 59.719
28.96000 63.748
29.12000 60.825
29.28000 60.711
29.44000 52.069
29.60000 45.554
29.76000 48.731
29.92000 45.634
30.08000 47.799
30.24000 49.612
30.40000 39.589
30.56000 38.749
30.72000 38.526
30.88000 47.466
31.04000 37.526
31.20000 41.513
31.36000 30.277
31.52000 43.710
31.68000 25.547
31.84000 24.190
32.00000 31.427
32.16000 24.346
32.32000 29.387
32.48000 24.244
32.64000 19.353
32.80000 35.475
32.96000 29.237
33.12000 30.233
33.28000 27.538
33.44000 21.276
33.60000 19.377
33.76000 23.512
33.92000 25.190
34.08000 16.113
34.24000 23.180
34.40000 21.303
34.56000 17.292
34.72000 14.087
34.88000 23.188
35.04000 24.313
35.20000 15.133
35.36000 13.154
35.52000 11.200
35.68000 14.153
35.84000 16.139
36.00000 19.288
36.16000 18.250
36.32000 18.071
36.48000 13.041
36.64000 26.095
36.80000 18.263
36.96000 24.249
37.12000 25.311
37.28000 19.374
37.44000 22.536
37.60000 22.359
37.76000 18.292
37.92000 22.328
38.08000 35.437
38.24000 32.096
38.40000 9.014
38.56000 23.522
38.72000 15.234
38.88000 24.335
39.04000 23.134
39.20000 17.191
39.36000 22.286
39.52000 21.199
39.68000 29.273
39.84000 23.169
40.00000 20.103
40.16000 18.098
40.32000 30.698
40.48000 18.422
40.64000 15.329
40.80000 21.188
40.96000 22.266
41.12000 20.276
41.28000 22.394
41.44000 24.282
41.60000 25.327
41.76000 25.295
41.92000 25.357
42.08000 17.386
42.24000 17.049
42.40000 18.284
42.56000 15.337
42.72000 20.218
42.88000 22.214
43.04000 28.702
43.20000 14.044
43.36000 22.194
43.52000 26.543
43.68000 26.211
43.84000 20.292
44.00000 23.163
44.16000 23.316
44.32000 21.392
44.48000 24.493
44.64000 24.264
44.80000 22.401
44.96000 19.111
45.12000 18.215
45.28000 21.295
45.44000 21.389
45.60000 13.099
45.76000 25.322
45.92000 22.283
46.08000 23.322
46.24000 23.410
46.40000 22.309
46.56000 20.208
46.72000 28.493
46.88000 17.240
47.04000 22.042
47.20000 22.228
47.36000 21.334
47.52000 21.130
47.68000 20.369
47.84000 19.370
48.00000 17.179
48.16000 28.484
48.32000 19.228
48.48000 16.249
48.64000 21.370
48.80000 23.283
48.96000 20.217
49.12000 18.363
49.28000 21.391
49.44000 21.288
49.60000 9.261
49.76000 22.238
49.92000 17.277
50.08000 12.235
50.24000 16.210
50.40000 18.203
50.56000 25.330
50.72000 19.056
50.88000 18.151
51.04000 14.131
51.20000 19.130
51.36000 16.163
51.52000 16.091
51.68000 13.139
51.84000 22.096
52.00000 19.277
52.16000 18.460
52.32000 17.343
52.48000 16.385
52.64000 12.260
52.80000 18.228
52.96000 14.111
53.12000 10.057
53.28000 22.139
53.44000 12.132
53.60000 11.171
53.76000 13.150
53.92000 10.026
54.08000 11.055
54.24000 16.416
54.40000 9.158
54.56000 11.166
54.72000 6.093
54.88000 9.956
55.04000 15.178
55.20000 13.144
55.36000 14.283
55.52000 16.244
55.68000 16.331
55.84000 6.070
56.00000 16.371
56.16000 19.257
56.32000 18.180
56.48000 13.103
56.64000 11.101
56.80000 9.001
56.96000 14.410
57.12000 7.167
57.28000 17.289
57.44000 8.051
57.60000 11.160
57.76000 12.214
57.92000 19.342
58.08000 16.110
58.24000 9.228
58.40000 11.134
58.56000 7.158
58.72000 14.327
58.88000 9.263
59.04000 7.104
59.20000 11.047
59.36000 9.113
59.52000 10.101
59.68000 13.034
59.84000 9.157
60.00000 11.092
60.16000 14.342
60.32000 13.242
60.48000 4.086
60.64000 9.130
60.80000 14.059
60.96000 5.001
61.12000 10.066
61.28000 6.155
61.44000 9.297
61.60000 16.153
61.76000 8.113
61.92000 11.081
62.08000 11.234
62.24000 12.157
62.40000 14.268
62.56000 8.042
62.72000 5.001
62.88000 9.102
63.04000 8.998
63.20000 9.103
63.36000 10.129
63.52000 7.100
63.68000 7.050
63.84000 7.017
64.00000 10.072
64.16000 8.114
64.32000 10.030
64.48000 7.039
64.64000 13.062
64.80000 4.057
64.96000 8.097
65.00000 4.969