File: XRD/11-09-2025/XY Data/01092025_BTO_omega_1_001_31_-25-000_0-000.xy
20.00000 15.199
20.16000 16.171
20.32000 21.167
20.48000 17.373
20.64000 14.188
20.80000 18.222
20.96000 16.230
21.12000 19.173
21.28000 18.044
21.44000 18.088
21.60000 16.283
21.76000 28.420
21.92000 18.198
22.08000 18.438
22.24000 29.547
22.40000 16.191
22.56000 22.031
22.72000 34.505
22.88000 14.111
23.04000 14.165
23.20000 26.180
23.36000 20.286
23.52000 27.442
23.68000 22.260
23.84000 14.412
24.00000 20.173
24.16000 16.462
24.32000 33.461
24.48000 24.299
24.64000 25.459
24.80000 31.258
24.96000 31.417
25.12000 37.559
25.28000 31.605
25.44000 33.544
25.60000 27.542
25.76000 36.767
25.92000 39.742
26.08000 38.491
26.24000 36.495
26.40000 38.295
26.56000 34.311
26.72000 28.359
26.88000 29.029
27.04000 42.403
27.20000 32.377
27.36000 38.573
27.52000 39.314
27.68000 37.421
27.84000 31.445
28.00000 33.376
28.16000 35.587
28.32000 29.446
28.48000 31.280
28.64000 34.740
28.80000 29.355
28.96000 29.285
29.12000 33.484
29.28000 28.491
29.44000 26.293
29.60000 27.483
29.76000 29.492
29.92000 18.258
30.08000 36.248
30.24000 31.237
30.40000 27.285
30.56000 16.126
30.72000 23.293
30.88000 30.175
31.04000 19.261
31.20000 15.125
31.36000 14.176
31.52000 19.418
31.68000 21.216
31.84000 20.093
32.00000 25.489
32.16000 28.352
32.32000 23.335
32.48000 22.379
32.64000 26.296
32.80000 19.993
32.96000 15.240
33.12000 17.405
33.28000 20.202
33.44000 14.202
33.60000 13.033
33.76000 16.298
33.92000 9.078
34.08000 18.017
34.24000 10.037
34.40000 20.178
34.56000 14.332
34.72000 12.198
34.88000 20.198
35.04000 20.288
35.20000 13.021
35.36000 13.247
35.52000 14.326
35.68000 18.276
35.84000 13.091
36.00000 14.311
36.16000 10.242
36.32000 22.404
36.48000 12.159
36.64000 10.164
36.80000 16.265
36.96000 16.270
37.12000 10.981
37.28000 14.295
37.44000 11.088
37.60000 12.179
37.76000 20.182
37.92000 14.248
38.08000 11.197
38.24000 13.140
38.40000 18.294
38.56000 17.244
38.72000 9.084
38.88000 7.121
39.04000 21.143
39.20000 19.316
39.36000 10.152
39.52000 12.110
39.68000 18.080
39.84000 18.251
40.00000 21.195
40.16000 13.151
40.32000 10.198
40.48000 9.075
40.64000 17.181
40.80000 11.103
40.96000 15.263
41.12000 10.211
41.28000 11.114
41.44000 13.123
41.60000 9.067
41.76000 11.121
41.92000 10.155
42.08000 15.412
42.24000 15.159
42.40000 15.177
42.56000 15.282
42.72000 14.160
42.88000 14.201
43.04000 13.072
43.20000 13.017
43.36000 18.311
43.52000 9.048
43.68000 14.285
43.84000 15.117
44.00000 19.249
44.16000 20.111
44.32000 17.329
44.48000 19.205
44.64000 17.342
44.80000 15.251
44.96000 10.102
45.12000 8.096
45.28000 7.073
45.44000 10.125
45.60000 10.128
45.76000 12.161
45.92000 18.177
46.08000 27.330
46.24000 16.230
46.40000 23.351
46.56000 19.435
46.72000 13.227
46.88000 11.313
47.04000 17.162
47.20000 17.328
47.36000 9.189
47.52000 7.997
47.68000 14.040
47.84000 13.106
48.00000 16.225
48.16000 10.198
48.32000 20.516
48.48000 13.235
48.64000 21.204
48.80000 10.171
48.96000 16.124
49.12000 13.219
49.28000 16.149
49.44000 13.182
49.60000 12.040
49.76000 14.221
49.92000 11.055
50.08000 12.216
50.24000 10.078
50.40000 12.328
50.56000 12.127
50.72000 12.343
50.88000 13.128
51.04000 10.225
51.20000 13.216
51.36000 11.199
51.52000 8.169
51.68000 16.289
51.84000 15.142
52.00000 13.074
52.16000 11.066
52.32000 18.237
52.48000 14.180
52.64000 11.239
52.80000 7.066
52.96000 11.020
53.12000 12.209
53.28000 12.128
53.44000 6.093
53.60000 17.254
53.76000 12.192
53.92000 17.339
54.08000 5.950
54.24000 7.098
54.40000 16.234
54.56000 12.147
54.72000 17.031
54.88000 14.264
55.04000 9.089
55.20000 7.149
55.36000 11.236
55.52000 13.147
55.68000 10.180
55.84000 9.086
56.00000 11.003
56.16000 12.105
56.32000 9.119
56.48000 10.044
56.64000 7.064
56.80000 9.267
56.96000 12.147
57.12000 6.088
57.28000 4.055
57.44000 14.135
57.60000 9.016
57.76000 8.103
57.92000 12.194
58.08000 10.060
58.24000 15.231
58.40000 9.027
58.56000 14.233
58.72000 13.176
58.88000 6.048
59.04000 7.142
59.20000 7.138
59.36000 9.062
59.52000 10.155
59.68000 7.096
59.84000 14.268
60.00000 8.164
60.16000 6.093
60.32000 10.174
60.48000 8.035
60.64000 9.099
60.80000 10.135
60.96000 3.064
61.12000 8.092
61.28000 8.009
61.44000 9.089
61.60000 5.135
61.76000 10.141
61.92000 9.090
62.08000 4.049
62.24000 9.103
62.40000 11.177
62.56000 4.090
62.72000 7.083
62.88000 6.055
63.04000 3.044
63.20000 12.136
63.36000 9.050
63.52000 8.079
63.68000 11.019
63.84000 7.040
64.00000 7.050
64.16000 2.984
64.32000 7.102
64.48000 9.251
64.64000 4.002
64.80000 8.120
64.96000 6.039
65.00000 8.025