File: XRD/11-09-2025/XY Data/01092025_BTO_deposition_001_02_-9-010_4-339.xy
20.00000 9.288
20.16000 6.194
20.32000 9.355
20.48000 10.370
20.64000 14.336
20.80000 10.378
20.96000 13.440
21.12000 11.335
21.28000 13.471
21.44000 14.490
21.60000 11.396
21.76000 13.554
21.92000 4.167
22.08000 7.227
22.24000 7.140
22.40000 11.468
22.56000 9.296
22.72000 5.107
22.88000 9.274
23.04000 6.249
23.20000 16.604
23.36000 13.405
23.52000 9.313
23.68000 3.066
23.84000 11.490
24.00000 10.351
24.16000 7.246
24.32000 15.428
24.48000 9.388
24.64000 16.349
24.80000 10.262
24.96000 11.356
25.12000 9.359
25.28000 13.397
25.44000 13.467
25.60000 12.430
25.76000 20.623
25.92000 28.875
26.08000 14.438
26.24000 15.415
26.40000 19.606
26.56000 8.229
26.72000 15.436
26.88000 12.358
27.04000 19.500
27.20000 16.585
27.36000 15.354
27.52000 8.319
27.68000 24.949
27.84000 26.778
28.00000 19.671
28.16000 14.483
28.32000 20.903
28.48000 14.454
28.64000 20.651
28.80000 15.416
28.96000 14.471
29.12000 20.812
29.28000 14.451
29.44000 12.501
29.60000 15.401
29.76000 15.545
29.92000 14.466
30.08000 13.316
30.24000 10.335
30.40000 21.820
30.56000 10.335
30.72000 7.259
30.88000 12.467
31.04000 7.211
31.20000 19.596
31.36000 13.258
31.52000 5.059
31.68000 14.392
31.84000 13.423
32.00000 12.562
32.16000 4.132
32.32000 7.294
32.48000 15.524
32.64000 7.190
32.80000 7.200
32.96000 8.227
33.12000 7.189
33.28000 10.368
33.44000 6.089
33.60000 3.149
33.76000 8.269
33.92000 7.166
34.08000 4.149
34.24000 11.304
34.40000 4.067
34.56000 7.234
34.72000 13.588
34.88000 7.280
35.04000 4.099
35.20000 10.357
35.36000 3.112
35.52000 6.128
35.68000 6.179
35.84000 5.206
36.00000 4.065
36.16000 6.099
36.32000 11.298
36.48000 6.175
36.64000 5.130
36.80000 5.176
36.96000 7.206
37.12000 9.246
37.28000 7.191
37.44000 6.303
37.60000 3.234
37.76000 10.222
37.92000 4.133
38.08000 6.269
38.24000 3.050
38.40000 5.109
38.56000 7.187
38.72000 7.277
38.88000 4.079
39.04000 10.516
39.20000 1.019
39.36000 7.248
39.52000 7.283
39.68000 6.178
39.84000 7.297
40.00000 10.280
40.16000 9.308
40.32000 6.269
40.48000 8.381
40.64000 4.076
40.80000 5.098
40.96000 4.089
41.12000 7.092
41.28000 9.256
41.44000 11.471
41.60000 2.048
41.76000 12.360
41.92000 3.092
42.08000 10.196
42.24000 8.144
42.40000 7.226
42.56000 6.259
42.72000 9.419
42.88000 9.302
43.04000 3.034
43.20000 9.113
43.36000 7.148
43.52000 6.183
43.68000 3.094
43.84000 3.091
44.00000 8.262
44.16000 6.174
44.32000 5.125
44.48000 11.483
44.64000 6.220
44.80000 7.249
44.96000 3.069
45.12000 6.207
45.28000 6.159
45.44000 8.196
45.60000 3.096
45.76000 4.101
45.92000 9.365
46.08000 8.200
46.24000 6.235
46.40000 10.216
46.56000 7.226
46.72000 5.091
46.88000 9.210
47.04000 5.125
47.20000 3.111
47.36000 8.229
47.52000 9.306
47.68000 6.247
47.84000 7.200
48.00000 7.281
48.16000 5.118
48.32000 4.125
48.48000 8.168
48.64000 9.358
48.80000 5.080
48.96000 5.183
49.12000 6.214
49.28000 11.358
49.44000 8.371
49.60000 7.341
49.76000 7.348
49.92000 5.116
50.08000 7.278
50.24000 11.341
50.40000 8.250
50.56000 5.108
50.72000 6.250
50.88000 4.137
51.04000 4.103
51.20000 4.155
51.36000 5.059
51.52000 4.178
51.68000 5.152
51.84000 6.227
52.00000 6.205
52.16000 7.144
52.32000 3.093
52.48000 3.170
52.64000 8.334
52.80000 5.151
52.96000 5.170
53.12000 10.222
53.28000 4.155
53.44000 27.866
53.60000 377.790
53.76000 553.247
53.92000 196.607
54.08000 5.127
54.24000 9.283
54.40000 10.371
54.56000 7.348
54.72000 17.538
54.88000 9.273
55.04000 13.630
55.20000 14.576
55.36000 18.502
55.52000 21.873
55.68000 14.374
55.84000 11.465
56.00000 15.560
56.16000 8.311
56.32000 12.415
56.48000 10.324
56.64000 6.110
56.80000 6.210
56.96000 5.115
57.12000 6.191
57.28000 4.141
57.44000 4.140
57.60000 5.166
57.76000 9.349
57.92000 9.353
58.08000 12.335
58.24000 6.121
58.40000 3.120
58.56000 8.162
58.72000 7.278
58.88000 7.217
59.04000 4.143
59.20000 4.046
59.36000 7.178
59.52000 6.200
59.68000 6.236
59.84000 1.051
60.00000 8.251
60.16000 6.184
60.32000 6.225
60.48000 5.166
60.64000 5.142
60.80000 2.022
60.96000 1.006
61.12000 2.090
61.28000 3.079
61.44000 7.318
61.60000 5.212
61.76000 4.090
61.92000 5.123
62.08000 3.049
62.24000 3.039
62.40000 11.274
62.56000 2.044
62.72000 3.101
62.88000 2.046
63.04000 5.341
63.20000 3.104
63.36000 8.267
63.52000 6.188
63.68000 6.296
63.84000 4.098
64.00000 2.055
64.16000 3.173
64.32000 7.180
64.48000 6.261
64.64000 5.154
64.80000 3.072
64.96000 4.167
65.00000 3.045