File: XRD/11-09-2025/XY Data/01092025_BTO_omega_1_001_17_-2-782_-12-187.xy
20.00000 39.316
20.16000 41.309
20.32000 39.445
20.48000 41.583
20.64000 50.452
20.80000 18.129
20.96000 26.256
21.12000 32.251
21.28000 30.164
21.44000 40.159
21.60000 27.351
21.76000 29.309
21.92000 31.400
22.08000 33.272
22.24000 32.346
22.40000 28.421
22.56000 18.208
22.72000 26.346
22.88000 17.052
23.04000 18.253
23.20000 25.338
23.36000 27.424
23.52000 24.496
23.68000 32.478
23.84000 25.174
24.00000 12.090
24.16000 22.296
24.32000 10.993
24.48000 22.186
24.64000 23.293
24.80000 14.039
24.96000 22.155
25.12000 14.251
25.28000 11.181
25.44000 6.053
25.60000 15.158
25.76000 9.205
25.92000 19.417
26.08000 16.225
26.24000 17.252
26.40000 16.135
26.56000 9.118
26.72000 18.316
26.88000 12.054
27.04000 13.107
27.20000 13.175
27.36000 13.133
27.52000 10.139
27.68000 19.370
27.84000 11.186
28.00000 6.041
28.16000 5.098
28.32000 8.096
28.48000 16.240
28.64000 4.098
28.80000 5.066
28.96000 12.241
29.12000 7.001
29.28000 6.984
29.44000 12.220
29.60000 5.997
29.76000 11.209
29.92000 8.130
30.08000 10.182
30.24000 9.042
30.40000 13.158
30.56000 9.214
30.72000 10.033
30.88000 2.015
31.04000 12.190
31.20000 7.077
31.36000 13.196
31.52000 5.952
31.68000 8.061
31.84000 4.152
32.00000 9.148
32.16000 8.095
32.32000 9.166
32.48000 5.022
32.64000 10.104
32.80000 6.064
32.96000 7.148
33.12000 6.052
33.28000 6.045
33.44000 3.011
33.60000 6.167
33.76000 7.094
33.92000 8.157
34.08000 5.083
34.24000 8.075
34.40000 5.107
34.56000 4.080
34.72000 6.021
34.88000 5.036
35.04000 5.113
35.20000 3.077
35.36000 6.188
35.52000 8.022
35.68000 5.089
35.84000 7.057
36.00000 2.000
36.16000 7.116
36.32000 11.201
36.48000 4.072
36.64000 3.991
36.80000 4.106
36.96000 0.995
37.12000 5.120
37.28000 6.075
37.44000 6.081
37.60000 3.050
37.76000 6.037
37.92000 6.042
38.08000 2.028
38.24000 8.173
38.40000 4.043
38.56000 8.122
38.72000 3.073
38.88000 5.053
39.04000 3.965
39.20000 5.071
39.36000 4.075
39.52000 4.119
39.68000 9.054
39.84000 4.059
40.00000 3.038
40.16000 1.028
40.32000 4.066
40.48000 4.126
40.64000 4.012
40.80000 2.109
40.96000 1.996
41.12000 1.030
41.28000 1.973
41.44000 3.042
41.60000 7.012
41.76000 5.162
41.92000 4.088
42.08000 0.000
42.24000 5.996
42.40000 5.008
42.56000 3.068
42.72000 1.975
42.88000 3.059
43.04000 1.000
43.20000 4.063
43.36000 1.030
43.52000 3.003
43.68000 3.983
43.84000 2.037
44.00000 1.994
44.16000 1.976
44.32000 1.017
44.48000 5.020
44.64000 1.007
44.80000 4.011
44.96000 2.983
45.12000 2.030
45.28000 2.004
45.44000 1.995
45.60000 6.166
45.76000 5.096
45.92000 3.163
46.08000 4.123
46.24000 2.014
46.40000 2.067
46.56000 1.023
46.72000 6.027
46.88000 3.028
47.04000 3.952
47.20000 1.994
47.36000 1.002
47.52000 3.035
47.68000 3.000
47.84000 4.000
48.00000 2.997
48.16000 1.028
48.32000 1.993
48.48000 2.003
48.64000 2.070
48.80000 7.101
48.96000 1.043
49.12000 8.119
49.28000 0.976
49.44000 0.000
49.60000 0.980
49.76000 2.051
49.92000 0.000
50.08000 3.073
50.24000 2.037
50.40000 1.976
50.56000 0.000
50.72000 4.180
50.88000 0.000
51.04000 3.007
51.20000 3.011
51.36000 3.036
51.52000 1.025
51.68000 0.000
51.84000 3.035
52.00000 2.048
52.16000 0.976
52.32000 1.980
52.48000 4.059
52.64000 1.048
52.80000 4.997
52.96000 3.027
53.12000 2.996
53.28000 2.031
53.44000 2.008
53.60000 0.000
53.76000 3.032
53.92000 1.972
54.08000 1.006
54.24000 2.999
54.40000 0.000
54.56000 1.007
54.72000 3.048
54.88000 2.005
55.04000 1.020
55.20000 4.054
55.36000 1.036
55.52000 2.007
55.68000 0.000
55.84000 3.036
56.00000 3.006
56.16000 1.060
56.32000 1.015
56.48000 0.976
56.64000 2.041
56.80000 4.053
56.96000 0.000
57.12000 1.033
57.28000 0.000
57.44000 0.000
57.60000 2.065
57.76000 0.969
57.92000 1.013
58.08000 1.012
58.24000 0.000
58.40000 2.037
58.56000 4.050
58.72000 1.049
58.88000 2.029
59.04000 1.981
59.20000 1.987
59.36000 1.051
59.52000 2.018
59.68000 1.977
59.84000 1.014
60.00000 1.062
60.16000 4.088
60.32000 2.011
60.48000 2.054
60.64000 0.000
60.80000 1.034
60.96000 1.024
61.12000 0.000
61.28000 0.980
61.44000 0.999
61.60000 0.000
61.76000 0.000
61.92000 1.015
62.08000 2.004
62.24000 3.025
62.40000 3.107
62.56000 2.063
62.72000 0.991
62.88000 1.025
63.04000 0.000
63.20000 1.016
63.36000 1.975
63.52000 1.022
63.68000 1.032
63.84000 6.023
64.00000 0.988
64.16000 2.049
64.32000 3.054
64.48000 0.000
64.64000 0.000
64.80000 0.997
64.96000 1.986
65.00000 1.025