File: XRD/11-09-2025/XY Data/01092025_BTO_omega_1_001_29_50-000_0-000.xy
20.00000 14.192
20.16000 13.127
20.32000 6.976
20.48000 14.372
20.64000 13.115
20.80000 9.125
20.96000 16.358
21.12000 13.247
21.28000 12.183
21.44000 10.036
21.60000 20.397
21.76000 13.194
21.92000 14.387
22.08000 13.291
22.24000 10.139
22.40000 9.193
22.56000 13.017
22.72000 11.132
22.88000 16.378
23.04000 12.228
23.20000 15.161
23.36000 13.118
23.52000 14.179
23.68000 20.104
23.84000 9.224
24.00000 21.409
24.16000 12.283
24.32000 10.131
24.48000 11.324
24.64000 20.226
24.80000 10.091
24.96000 19.227
25.12000 14.126
25.28000 19.250
25.44000 14.211
25.60000 11.113
25.76000 12.328
25.92000 13.167
26.08000 26.353
26.24000 11.111
26.40000 16.198
26.56000 7.071
26.72000 8.062
26.88000 17.164
27.04000 12.185
27.20000 14.074
27.36000 14.080
27.52000 5.969
27.68000 15.242
27.84000 12.144
28.00000 15.159
28.16000 11.060
28.32000 9.096
28.48000 9.121
28.64000 12.156
28.80000 10.087
28.96000 8.054
29.12000 13.312
29.28000 14.037
29.44000 14.286
29.60000 11.127
29.76000 12.005
29.92000 13.208
30.08000 15.991
30.24000 10.155
30.40000 12.238
30.56000 16.143
30.72000 6.071
30.88000 11.267
31.04000 13.016
31.20000 9.049
31.36000 11.263
31.52000 10.199
31.68000 10.068
31.84000 5.055
32.00000 10.144
32.16000 9.265
32.32000 7.083
32.48000 7.176
32.64000 5.073
32.80000 8.992
32.96000 2.029
33.12000 6.117
33.28000 9.234
33.44000 2.020
33.60000 6.153
33.76000 4.033
33.92000 5.112
34.08000 10.092
34.24000 7.241
34.40000 3.069
34.56000 6.089
34.72000 4.026
34.88000 7.063
35.04000 5.063
35.20000 6.069
35.36000 6.989
35.52000 6.157
35.68000 4.050
35.84000 5.140
36.00000 9.098
36.16000 6.201
36.32000 6.124
36.48000 7.116
36.64000 6.176
36.80000 3.046
36.96000 4.088
37.12000 6.211
37.28000 1.023
37.44000 7.158
37.60000 8.014
37.76000 3.109
37.92000 5.018
38.08000 5.085
38.24000 9.065
38.40000 7.027
38.56000 4.210
38.72000 3.038
38.88000 3.093
39.04000 2.023
39.20000 7.137
39.36000 8.147
39.52000 9.238
39.68000 4.067
39.84000 6.043
40.00000 4.038
40.16000 12.206
40.32000 9.091
40.48000 6.023
40.64000 5.106
40.80000 8.148
40.96000 2.047
41.12000 3.032
41.28000 5.142
41.44000 7.249
41.60000 9.221
41.76000 6.067
41.92000 7.183
42.08000 2.047
42.24000 6.033
42.40000 3.049
42.56000 5.023
42.72000 6.102
42.88000 8.177
43.04000 6.115
43.20000 8.108
43.36000 4.207
43.52000 6.071
43.68000 7.142
43.84000 9.217
44.00000 2.024
44.16000 2.034
44.32000 4.034
44.48000 9.054
44.64000 7.157
44.80000 8.013
44.96000 5.031
45.12000 7.111
45.28000 3.071
45.44000 6.984
45.60000 3.107
45.76000 3.031
45.92000 2.023
46.08000 6.178
46.24000 11.091
46.40000 2.048
46.56000 6.105
46.72000 3.052
46.88000 2.072
47.04000 4.076
47.20000 5.041
47.36000 7.197
47.52000 6.005
47.68000 3.055
47.84000 7.115
48.00000 5.051
48.16000 9.071
48.32000 2.033
48.48000 8.117
48.64000 6.059
48.80000 6.142
48.96000 4.033
49.12000 7.153
49.28000 12.267
49.44000 3.070
49.60000 3.043
49.76000 7.058
49.92000 4.047
50.08000 3.048
50.24000 7.089
50.40000 7.123
50.56000 4.121
50.72000 3.018
50.88000 6.072
51.04000 5.068
51.20000 11.322
51.36000 7.123
51.52000 5.154
51.68000 4.141
51.84000 5.005
52.00000 4.092
52.16000 4.070
52.32000 2.986
52.48000 3.100
52.64000 10.089
52.80000 9.006
52.96000 8.250
53.12000 3.151
53.28000 8.089
53.44000 9.144
53.60000 6.146
53.76000 3.030
53.92000 5.033
54.08000 5.042
54.24000 7.077
54.40000 5.017
54.56000 4.998
54.72000 7.037
54.88000 4.019
55.04000 4.097
55.20000 6.007
55.36000 4.026
55.52000 5.202
55.68000 2.024
55.84000 5.146
56.00000 2.016
56.16000 9.079
56.32000 4.072
56.48000 5.126
56.64000 3.045
56.80000 1.011
56.96000 2.045
57.12000 3.991
57.28000 5.098
57.44000 3.017
57.60000 5.998
57.76000 8.215
57.92000 8.137
58.08000 4.103
58.24000 0.997
58.40000 2.075
58.56000 4.020
58.72000 3.054
58.88000 5.079
59.04000 2.037
59.20000 5.092
59.36000 4.012
59.52000 1.012
59.68000 4.115
59.84000 4.000
60.00000 4.029
60.16000 1.002
60.32000 4.192
60.48000 0.000
60.64000 6.105
60.80000 2.012
60.96000 4.099
61.12000 4.069
61.28000 2.076
61.44000 0.000
61.60000 1.016
61.76000 4.985
61.92000 5.072
62.08000 4.162
62.24000 5.047
62.40000 5.094
62.56000 2.993
62.72000 0.999
62.88000 4.072
63.04000 4.020
63.20000 3.028
63.36000 2.013
63.52000 4.119
63.68000 5.011
63.84000 4.122
64.00000 6.025
64.16000 5.073
64.32000 0.000
64.48000 2.086
64.64000 2.023
64.80000 3.142
64.96000 2.972
65.00000 6.131