File: XRD/11-09-2025/XY Data/01092025_BTO_omega_1_001_32_-37-500_0-000.xy
20.00000 13.187
20.16000 25.506
20.32000 25.304
20.48000 23.233
20.64000 19.342
20.80000 17.450
20.96000 14.266
21.12000 24.252
21.28000 19.176
21.44000 15.123
21.60000 22.282
21.76000 26.187
21.92000 16.199
22.08000 19.253
22.24000 24.262
22.40000 30.502
22.56000 19.195
22.72000 28.393
22.88000 28.405
23.04000 18.196
23.20000 24.386
23.36000 18.064
23.52000 20.240
23.68000 22.347
23.84000 35.536
24.00000 23.407
24.16000 26.267
24.32000 24.232
24.48000 30.329
24.64000 21.254
24.80000 22.260
24.96000 24.104
25.12000 27.216
25.28000 33.173
25.44000 27.355
25.60000 26.116
25.76000 28.492
25.92000 23.415
26.08000 27.107
26.24000 45.691
26.40000 39.158
26.56000 34.193
26.72000 28.427
26.88000 30.418
27.04000 31.372
27.20000 34.407
27.36000 22.207
27.52000 37.657
27.68000 29.236
27.84000 25.205
28.00000 37.622
28.16000 44.375
28.32000 29.301
28.48000 49.643
28.64000 39.360
28.80000 30.685
28.96000 34.546
29.12000 38.507
29.28000 34.561
29.44000 28.277
29.60000 26.366
29.76000 28.299
29.92000 21.367
30.08000 24.473
30.24000 29.366
30.40000 35.645
30.56000 20.259
30.72000 25.427
30.88000 14.057
31.04000 21.408
31.20000 21.596
31.36000 20.214
31.52000 23.477
31.68000 22.073
31.84000 26.067
32.00000 25.348
32.16000 29.374
32.32000 19.443
32.48000 25.129
32.64000 23.519
32.80000 15.143
32.96000 16.181
33.12000 13.160
33.28000 20.160
33.44000 21.223
33.60000 16.117
33.76000 16.135
33.92000 14.059
34.08000 19.411
34.24000 11.229
34.40000 17.133
34.56000 15.069
34.72000 12.054
34.88000 12.186
35.04000 8.101
35.20000 9.131
35.36000 18.294
35.52000 11.126
35.68000 19.354
35.84000 12.181
36.00000 14.263
36.16000 9.169
36.32000 7.073
36.48000 12.331
36.64000 15.394
36.80000 15.163
36.96000 11.185
37.12000 20.294
37.28000 10.247
37.44000 9.104
37.60000 12.014
37.76000 17.208
37.92000 12.105
38.08000 10.132
38.24000 12.158
38.40000 14.197
38.56000 14.012
38.72000 12.142
38.88000 12.293
39.04000 11.318
39.20000 11.047
39.36000 17.234
39.52000 17.156
39.68000 20.043
39.84000 19.320
40.00000 14.995
40.16000 23.117
40.32000 16.195
40.48000 15.276
40.64000 15.133
40.80000 9.174
40.96000 8.011
41.12000 9.193
41.28000 10.147
41.44000 10.150
41.60000 12.116
41.76000 8.064
41.92000 21.496
42.08000 13.030
42.24000 17.113
42.40000 21.338
42.56000 15.242
42.72000 8.043
42.88000 9.111
43.04000 12.017
43.20000 9.147
43.36000 11.246
43.52000 20.526
43.68000 15.090
43.84000 15.223
44.00000 20.562
44.16000 15.114
44.32000 16.347
44.48000 14.130
44.64000 13.113
44.80000 21.061
44.96000 14.101
45.12000 13.081
45.28000 12.130
45.44000 8.067
45.60000 8.987
45.76000 11.037
45.92000 21.392
46.08000 10.188
46.24000 17.123
46.40000 24.286
46.56000 17.325
46.72000 11.183
46.88000 16.267
47.04000 15.221
47.20000 9.254
47.36000 18.147
47.52000 10.035
47.68000 15.112
47.84000 16.141
48.00000 12.034
48.16000 12.154
48.32000 10.183
48.48000 8.243
48.64000 10.194
48.80000 15.084
48.96000 14.201
49.12000 12.214
49.28000 14.319
49.44000 13.112
49.60000 8.055
49.76000 9.124
49.92000 21.126
50.08000 10.121
50.24000 15.190
50.40000 18.241
50.56000 14.202
50.72000 12.276
50.88000 11.186
51.04000 17.277
51.20000 12.129
51.36000 8.108
51.52000 12.215
51.68000 10.152
51.84000 9.171
52.00000 10.098
52.16000 15.180
52.32000 5.067
52.48000 14.219
52.64000 11.251
52.80000 13.169
52.96000 10.173
53.12000 5.056
53.28000 11.001
53.44000 9.123
53.60000 11.088
53.76000 11.193
53.92000 7.193
54.08000 9.162
54.24000 12.192
54.40000 13.063
54.56000 10.124
54.72000 11.971
54.88000 7.035
55.04000 12.083
55.20000 6.128
55.36000 12.154
55.52000 11.936
55.68000 13.258
55.84000 11.072
56.00000 6.119
56.16000 12.101
56.32000 9.257
56.48000 11.107
56.64000 5.087
56.80000 10.144
56.96000 7.124
57.12000 7.146
57.28000 6.968
57.44000 6.131
57.60000 6.123
57.76000 12.114
57.92000 9.151
58.08000 15.111
58.24000 10.158
58.40000 10.224
58.56000 18.206
58.72000 5.073
58.88000 6.092
59.04000 5.003
59.20000 7.095
59.36000 9.131
59.52000 10.054
59.68000 5.224
59.84000 4.011
60.00000 8.021
60.16000 10.237
60.32000 11.276
60.48000 5.005
60.64000 6.961
60.80000 10.268
60.96000 9.130
61.12000 5.986
61.28000 8.053
61.44000 8.074
61.60000 14.077
61.76000 11.240
61.92000 6.110
62.08000 6.000
62.24000 10.206
62.40000 8.059
62.56000 6.028
62.72000 5.976
62.88000 5.061
63.04000 9.129
63.20000 5.025
63.36000 1.997
63.52000 6.028
63.68000 5.000
63.84000 10.074
64.00000 2.043
64.16000 11.209
64.32000 5.124
64.48000 6.002
64.64000 10.058
64.80000 10.190
64.96000 7.047
65.00000 7.090