File: XRD/11-09-2025/XY Data/01092025_BTO_omega_1_001_22_-7-794_-9-773.xy
20.00000 16.170
20.16000 16.222
20.32000 19.304
20.48000 14.086
20.64000 13.263
20.80000 13.174
20.96000 13.113
21.12000 19.388
21.28000 4.045
21.44000 17.230
21.60000 18.332
21.76000 17.457
21.92000 13.262
22.08000 22.345
22.24000 18.250
22.40000 11.054
22.56000 23.224
22.72000 14.282
22.88000 10.052
23.04000 12.138
23.20000 12.050
23.36000 14.186
23.52000 10.142
23.68000 12.244
23.84000 10.156
24.00000 14.070
24.16000 4.983
24.32000 14.127
24.48000 11.060
24.64000 13.232
24.80000 14.302
24.96000 11.093
25.12000 9.999
25.28000 10.142
25.44000 10.092
25.60000 14.108
25.76000 13.132
25.92000 5.067
26.08000 8.137
26.24000 14.110
26.40000 10.180
26.56000 9.059
26.72000 9.202
26.88000 16.179
27.04000 10.185
27.20000 7.022
27.36000 9.158
27.52000 9.036
27.68000 10.137
27.84000 9.121
28.00000 15.342
28.16000 11.235
28.32000 12.278
28.48000 10.209
28.64000 12.110
28.80000 4.091
28.96000 5.032
29.12000 9.210
29.28000 4.117
29.44000 10.106
29.60000 9.144
29.76000 13.231
29.92000 7.023
30.08000 10.213
30.24000 11.237
30.40000 20.300
30.56000 5.054
30.72000 10.059
30.88000 10.180
31.04000 9.074
31.20000 9.125
31.36000 7.077
31.52000 5.019
31.68000 3.997
31.84000 7.232
32.00000 4.089
32.16000 10.010
32.32000 3.962
32.48000 7.145
32.64000 4.070
32.80000 5.065
32.96000 3.095
33.12000 4.062
33.28000 6.039
33.44000 2.021
33.60000 6.099
33.76000 5.095
33.92000 9.148
34.08000 3.204
34.24000 10.988
34.40000 9.116
34.56000 4.042
34.72000 1.999
34.88000 7.038
35.04000 9.070
35.20000 6.088
35.36000 11.200
35.52000 11.213
35.68000 6.036
35.84000 4.047
36.00000 2.023
36.16000 5.040
36.32000 5.001
36.48000 8.026
36.64000 8.078
36.80000 3.033
36.96000 9.192
37.12000 2.033
37.28000 9.123
37.44000 5.121
37.60000 8.065
37.76000 2.027
37.92000 4.113
38.08000 3.985
38.24000 2.981
38.40000 2.997
38.56000 3.070
38.72000 4.088
38.88000 5.998
39.04000 3.977
39.20000 5.092
39.36000 3.059
39.52000 4.061
39.68000 8.134
39.84000 2.986
40.00000 3.020
40.16000 3.075
40.32000 2.002
40.48000 6.092
40.64000 0.000
40.80000 7.061
40.96000 3.086
41.12000 7.110
41.28000 2.017
41.44000 1.982
41.60000 5.106
41.76000 4.029
41.92000 2.050
42.08000 4.994
42.24000 2.057
42.40000 2.988
42.56000 9.985
42.72000 1.000
42.88000 0.000
43.04000 3.100
43.20000 1.980
43.36000 5.070
43.52000 3.038
43.68000 0.000
43.84000 6.108
44.00000 1.003
44.16000 2.031
44.32000 4.942
44.48000 6.089
44.64000 4.128
44.80000 1.092
44.96000 3.994
45.12000 4.030
45.28000 2.996
45.44000 2.991
45.60000 2.025
45.76000 1.999
45.92000 2.020
46.08000 8.084
46.24000 2.053
46.40000 0.000
46.56000 1.054
46.72000 2.073
46.88000 3.058
47.04000 0.000
47.20000 2.052
47.36000 2.056
47.52000 2.002
47.68000 2.078
47.84000 3.018
48.00000 1.987
48.16000 2.001
48.32000 0.000
48.48000 2.028
48.64000 2.035
48.80000 0.996
48.96000 4.081
49.12000 3.111
49.28000 5.002
49.44000 3.048
49.60000 0.980
49.76000 0.000
49.92000 2.085
50.08000 3.065
50.24000 4.092
50.40000 4.096
50.56000 3.075
50.72000 3.038
50.88000 2.026
51.04000 3.085
51.20000 1.990
51.36000 0.000
51.52000 0.996
51.68000 2.012
51.84000 0.000
52.00000 0.999
52.16000 2.055
52.32000 1.992
52.48000 2.012
52.64000 1.012
52.80000 3.068
52.96000 3.119
53.12000 2.003
53.28000 2.019
53.44000 0.000
53.60000 0.000
53.76000 0.000
53.92000 1.011
54.08000 0.992
54.24000 2.025
54.40000 3.011
54.56000 2.084
54.72000 0.974
54.88000 2.005
55.04000 0.000
55.20000 1.013
55.36000 3.035
55.52000 2.025
55.68000 0.000
55.84000 0.000
56.00000 2.024
56.16000 1.975
56.32000 0.997
56.48000 2.052
56.64000 2.005
56.80000 1.023
56.96000 1.011
57.12000 0.000
57.28000 1.014
57.44000 1.029
57.60000 0.000
57.76000 0.000
57.92000 3.042
58.08000 0.986
58.24000 2.980
58.40000 1.041
58.56000 1.002
58.72000 1.992
58.88000 1.991
59.04000 3.074
59.20000 2.038
59.36000 0.989
59.52000 3.007
59.68000 1.953
59.84000 2.086
60.00000 0.000
60.16000 1.011
60.32000 0.000
60.48000 1.979
60.64000 2.026
60.80000 0.000
60.96000 0.998
61.12000 2.003
61.28000 0.000
61.44000 3.011
61.60000 0.000
61.76000 3.055
61.92000 1.994
62.08000 2.105
62.24000 0.000
62.40000 3.095
62.56000 0.000
62.72000 1.040
62.88000 2.005
63.04000 1.032
63.20000 0.000
63.36000 0.989
63.52000 3.992
63.68000 0.980
63.84000 1.027
64.00000 0.000
64.16000 2.024
64.32000 2.037
64.48000 2.036
64.64000 1.998
64.80000 2.044
64.96000 0.987
65.00000 0.000