File: XRD/11-09-2025/XY Data/01092025_BTO_omega_1_001_14_-15-587_-19-546.xy
20.00000 156.334
20.16000 139.753
20.32000 145.355
20.48000 152.282
20.64000 140.250
20.80000 140.111
20.96000 125.108
21.12000 122.147
21.28000 104.206
21.44000 101.989
21.60000 117.970
21.76000 91.787
21.92000 99.581
22.08000 88.590
22.24000 62.683
22.40000 71.659
22.56000 66.695
22.72000 63.768
22.88000 48.576
23.04000 47.477
23.20000 41.454
23.36000 35.364
23.52000 36.254
23.68000 31.325
23.84000 29.159
24.00000 31.448
24.16000 17.075
24.32000 35.406
24.48000 31.308
24.64000 26.309
24.80000 24.355
24.96000 24.375
25.12000 24.482
25.28000 25.276
25.44000 14.301
25.60000 20.276
25.76000 21.145
25.92000 16.204
26.08000 16.081
26.24000 21.359
26.40000 17.189
26.56000 15.205
26.72000 13.085
26.88000 13.154
27.04000 15.115
27.20000 20.278
27.36000 14.279
27.52000 17.236
27.68000 14.060
27.84000 13.132
28.00000 7.994
28.16000 19.242
28.32000 17.058
28.48000 10.241
28.64000 18.272
28.80000 7.239
28.96000 10.086
29.12000 8.101
29.28000 12.263
29.44000 10.052
29.60000 10.121
29.76000 8.967
29.92000 10.192
30.08000 9.136
30.24000 10.064
30.40000 8.076
30.56000 11.174
30.72000 11.225
30.88000 9.120
31.04000 6.140
31.20000 10.233
31.36000 9.111
31.52000 9.137
31.68000 8.063
31.84000 9.177
32.00000 9.082
32.16000 9.027
32.32000 6.023
32.48000 10.041
32.64000 6.033
32.80000 9.221
32.96000 5.995
33.12000 8.943
33.28000 12.038
33.44000 3.950
33.60000 5.005
33.76000 6.054
33.92000 5.071
34.08000 6.067
34.24000 7.055
34.40000 4.058
34.56000 11.186
34.72000 6.114
34.88000 9.330
35.04000 8.112
35.20000 6.091
35.36000 4.063
35.52000 1.985
35.68000 9.183
35.84000 2.033
36.00000 7.202
36.16000 3.035
36.32000 1.971
36.48000 9.073
36.64000 10.057
36.80000 7.141
36.96000 8.166
37.12000 6.157
37.28000 7.140
37.44000 7.091
37.60000 4.087
37.76000 10.092
37.92000 7.123
38.08000 5.085
38.24000 0.000
38.40000 4.962
38.56000 7.998
38.72000 5.958
38.88000 3.034
39.04000 2.989
39.20000 0.996
39.36000 3.095
39.52000 4.165
39.68000 3.018
39.84000 2.999
40.00000 6.984
40.16000 4.032
40.32000 6.040
40.48000 5.043
40.64000 4.072
40.80000 3.036
40.96000 2.054
41.12000 5.024
41.28000 4.086
41.44000 2.055
41.60000 5.106
41.76000 10.209
41.92000 1.994
42.08000 4.050
42.24000 6.099
42.40000 2.976
42.56000 2.993
42.72000 5.017
42.88000 4.045
43.04000 6.069
43.20000 4.072
43.36000 3.077
43.52000 5.007
43.68000 9.072
43.84000 5.104
44.00000 2.980
44.16000 5.051
44.32000 8.068
44.48000 5.043
44.64000 5.078
44.80000 3.005
44.96000 4.032
45.12000 3.027
45.28000 0.000
45.44000 5.989
45.60000 3.047
45.76000 3.080
45.92000 1.992
46.08000 2.031
46.24000 2.049
46.40000 3.067
46.56000 3.033
46.72000 4.010
46.88000 4.088
47.04000 2.045
47.20000 1.988
47.36000 3.023
47.52000 2.094
47.68000 0.000
47.84000 6.077
48.00000 1.018
48.16000 3.093
48.32000 2.052
48.48000 1.989
48.64000 2.981
48.80000 5.169
48.96000 2.060
49.12000 3.029
49.28000 3.038
49.44000 0.986
49.60000 1.999
49.76000 4.068
49.92000 0.987
50.08000 6.057
50.24000 4.093
50.40000 6.155
50.56000 5.012
50.72000 2.994
50.88000 2.025
51.04000 4.011
51.20000 1.993
51.36000 2.047
51.52000 2.025
51.68000 3.103
51.84000 4.059
52.00000 0.000
52.16000 2.003
52.32000 0.980
52.48000 2.990
52.64000 5.121
52.80000 0.000
52.96000 1.014
53.12000 3.020
53.28000 1.045
53.44000 3.013
53.60000 0.000
53.76000 3.086
53.92000 1.994
54.08000 0.995
54.24000 1.022
54.40000 0.981
54.56000 7.076
54.72000 3.047
54.88000 1.983
55.04000 0.990
55.20000 1.065
55.36000 2.990
55.52000 4.079
55.68000 6.009
55.84000 1.028
56.00000 4.004
56.16000 1.978
56.32000 3.086
56.48000 0.000
56.64000 3.040
56.80000 5.065
56.96000 2.021
57.12000 2.000
57.28000 6.042
57.44000 3.092
57.60000 0.000
57.76000 3.020
57.92000 0.979
58.08000 2.034
58.24000 2.095
58.40000 4.180
58.56000 2.062
58.72000 5.016
58.88000 2.043
59.04000 1.959
59.20000 4.159
59.36000 3.025
59.52000 1.068
59.68000 1.036
59.84000 1.031
60.00000 2.028
60.16000 0.995
60.32000 1.053
60.48000 1.012
60.64000 3.008
60.80000 0.998
60.96000 4.066
61.12000 2.972
61.28000 1.025
61.44000 0.987
61.60000 2.015
61.76000 1.027
61.92000 0.000
62.08000 3.016
62.24000 0.000
62.40000 1.992
62.56000 0.991
62.72000 3.060
62.88000 2.975
63.04000 0.993
63.20000 2.050
63.36000 1.017
63.52000 5.035
63.68000 0.000
63.84000 1.990
64.00000 3.009
64.16000 4.078
64.32000 5.108
64.48000 1.091
64.64000 0.000
64.80000 0.000
64.96000 2.081
65.00000 1.020