File: XRD/11-09-2025/XY Data/01092025_BTO_omega_1_001_24_-11-262_-5-424.xy
20.00000 11.117
20.16000 13.225
20.32000 10.046
20.48000 4.059
20.64000 14.351
20.80000 12.034
20.96000 11.189
21.12000 10.091
21.28000 9.087
21.44000 11.098
21.60000 17.245
21.76000 11.151
21.92000 15.064
22.08000 11.233
22.24000 14.280
22.40000 8.091
22.56000 13.229
22.72000 11.158
22.88000 10.976
23.04000 14.190
23.20000 13.174
23.36000 9.052
23.52000 5.956
23.68000 11.183
23.84000 8.092
24.00000 7.113
24.16000 4.991
24.32000 10.117
24.48000 10.104
24.64000 5.087
24.80000 8.106
24.96000 10.135
25.12000 5.048
25.28000 11.259
25.44000 9.077
25.60000 7.037
25.76000 12.119
25.92000 12.280
26.08000 9.093
26.24000 9.243
26.40000 1.978
26.56000 3.994
26.72000 13.242
26.88000 8.154
27.04000 7.013
27.20000 5.993
27.36000 5.006
27.52000 7.180
27.68000 8.046
27.84000 8.155
28.00000 8.188
28.16000 8.141
28.32000 4.124
28.48000 1.031
28.64000 1.010
28.80000 11.293
28.96000 3.069
29.12000 3.966
29.28000 2.041
29.44000 6.093
29.60000 9.138
29.76000 4.098
29.92000 6.169
30.08000 6.134
30.24000 5.102
30.40000 13.118
30.56000 4.071
30.72000 1.015
30.88000 2.033
31.04000 6.065
31.20000 0.995
31.36000 4.021
31.52000 3.058
31.68000 7.106
31.84000 8.055
32.00000 5.195
32.16000 7.047
32.32000 6.985
32.48000 4.062
32.64000 4.072
32.80000 4.058
32.96000 1.007
33.12000 2.990
33.28000 1.981
33.44000 11.112
33.60000 2.054
33.76000 3.032
33.92000 3.078
34.08000 2.990
34.24000 0.000
34.40000 1.097
34.56000 3.071
34.72000 2.046
34.88000 3.025
35.04000 7.175
35.20000 4.001
35.36000 1.997
35.52000 4.085
35.68000 5.017
35.84000 4.091
36.00000 2.984
36.16000 4.055
36.32000 0.000
36.48000 5.136
36.64000 4.035
36.80000 0.988
36.96000 3.049
37.12000 6.116
37.28000 1.997
37.44000 1.031
37.60000 3.064
37.76000 3.006
37.92000 3.965
38.08000 3.068
38.24000 2.078
38.40000 7.148
38.56000 5.133
38.72000 2.088
38.88000 0.977
39.04000 3.089
39.20000 3.027
39.36000 3.009
39.52000 1.976
39.68000 1.993
39.84000 8.138
40.00000 3.067
40.16000 0.000
40.32000 1.003
40.48000 3.062
40.64000 3.990
40.80000 1.004
40.96000 3.030
41.12000 3.092
41.28000 2.053
41.44000 1.039
41.60000 7.112
41.76000 2.017
41.92000 3.020
42.08000 2.008
42.24000 3.002
42.40000 2.068
42.56000 1.981
42.72000 0.998
42.88000 6.143
43.04000 0.000
43.20000 1.988
43.36000 4.122
43.52000 1.001
43.68000 4.027
43.84000 2.045
44.00000 1.020
44.16000 3.973
44.32000 1.037
44.48000 4.059
44.64000 1.046
44.80000 1.050
44.96000 2.008
45.12000 3.977
45.28000 3.021
45.44000 1.000
45.60000 4.143
45.76000 4.099
45.92000 3.003
46.08000 0.990
46.24000 2.067
46.40000 1.009
46.56000 2.080
46.72000 0.996
46.88000 1.006
47.04000 1.010
47.20000 2.072
47.36000 4.113
47.52000 0.000
47.68000 2.001
47.84000 2.006
48.00000 1.055
48.16000 1.967
48.32000 1.067
48.48000 1.999
48.64000 0.999
48.80000 3.006
48.96000 1.033
49.12000 0.990
49.28000 0.000
49.44000 3.024
49.60000 3.029
49.76000 2.034
49.92000 3.043
50.08000 3.053
50.24000 3.121
50.40000 2.022
50.56000 1.043
50.72000 1.985
50.88000 0.999
51.04000 0.000
51.20000 4.128
51.36000 0.000
51.52000 0.000
51.68000 0.000
51.84000 1.040
52.00000 1.025
52.16000 2.033
52.32000 3.054
52.48000 3.042
52.64000 2.025
52.80000 0.000
52.96000 2.054
53.12000 2.019
53.28000 2.008
53.44000 3.012
53.60000 2.043
53.76000 0.000
53.92000 2.004
54.08000 0.000
54.24000 0.992
54.40000 0.000
54.56000 4.014
54.72000 0.990
54.88000 0.988
55.04000 0.995
55.20000 0.000
55.36000 2.062
55.52000 3.107
55.68000 2.098
55.84000 1.989
56.00000 0.986
56.16000 3.024
56.32000 2.022
56.48000 0.000
56.64000 2.058
56.80000 0.000
56.96000 0.983
57.12000 0.000
57.28000 0.000
57.44000 1.001
57.60000 2.068
57.76000 6.073
57.92000 1.021
58.08000 0.000
58.24000 1.013
58.40000 1.011
58.56000 0.990
58.72000 3.046
58.88000 2.002
59.04000 2.045
59.20000 1.005
59.36000 0.000
59.52000 4.039
59.68000 1.997
59.84000 2.017
60.00000 2.040
60.16000 1.033
60.32000 2.064
60.48000 2.064
60.64000 3.990
60.80000 2.065
60.96000 1.998
61.12000 3.039
61.28000 1.959
61.44000 1.063
61.60000 1.004
61.76000 2.009
61.92000 0.977
62.08000 2.017
62.24000 0.000
62.40000 0.000
62.56000 1.059
62.72000 0.000
62.88000 0.000
63.04000 1.017
63.20000 0.000
63.36000 1.006
63.52000 0.000
63.68000 1.002
63.84000 0.000
64.00000 1.991
64.16000 0.000
64.32000 3.014
64.48000 1.029
64.64000 0.000
64.80000 5.012
64.96000 2.040
65.00000 2.050