File: XRD/11-09-2025/XY Data/01092025_BTO_omega_0_5_001_11_2-782_12-187.xy
20.00000 20.260
20.16000 14.123
20.32000 17.163
20.48000 14.198
20.64000 27.359
20.80000 22.205
20.96000 19.202
21.12000 21.491
21.28000 25.365
21.44000 21.263
21.60000 24.404
21.76000 26.238
21.92000 24.494
22.08000 23.396
22.24000 16.158
22.40000 17.138
22.56000 21.274
22.72000 26.311
22.88000 24.280
23.04000 23.301
23.20000 29.608
23.36000 26.346
23.52000 28.280
23.68000 26.340
23.84000 31.414
24.00000 34.583
24.16000 22.398
24.32000 30.431
24.48000 25.111
24.64000 55.644
24.80000 32.502
24.96000 51.990
25.12000 38.545
25.28000 36.553
25.44000 33.496
25.60000 56.539
25.76000 50.892
25.92000 49.564
26.08000 47.644
26.24000 48.769
26.40000 54.701
26.56000 39.716
26.72000 60.160
26.88000 56.647
27.04000 58.987
27.20000 63.724
27.36000 51.609
27.52000 71.916
27.68000 66.143
27.84000 63.911
28.00000 66.753
28.16000 64.937
28.32000 62.998
28.48000 55.269
28.64000 66.728
28.80000 56.074
28.96000 45.639
29.12000 40.550
29.28000 45.853
29.44000 50.382
29.60000 47.386
29.76000 48.838
29.92000 41.365
30.08000 47.760
30.24000 33.953
30.40000 30.424
30.56000 32.633
30.72000 35.664
30.88000 33.590
31.04000 36.787
31.20000 22.330
31.36000 40.624
31.52000 37.793
31.68000 35.670
31.84000 33.745
32.00000 27.409
32.16000 24.378
32.32000 24.367
32.48000 29.208
32.64000 32.521
32.80000 24.374
32.96000 26.229
33.12000 25.357
33.28000 18.194
33.44000 33.267
33.60000 16.307
33.76000 20.307
33.92000 15.256
34.08000 22.254
34.24000 19.233
34.40000 21.224
34.56000 17.054
34.72000 11.110
34.88000 13.205
35.04000 12.983
35.20000 15.136
35.36000 11.311
35.52000 16.068
35.68000 15.264
35.84000 22.181
36.00000 20.288
36.16000 18.281
36.32000 17.252
36.48000 24.292
36.64000 14.133
36.80000 13.209
36.96000 15.105
37.12000 18.253
37.28000 22.148
37.44000 23.396
37.60000 19.390
37.76000 16.149
37.92000 20.401
38.08000 17.102
38.24000 15.145
38.40000 22.299
38.56000 13.124
38.72000 17.148
38.88000 23.382
39.04000 25.319
39.20000 27.523
39.36000 21.251
39.52000 29.249
39.68000 21.090
39.84000 21.279
40.00000 19.363
40.16000 26.996
40.32000 19.393
40.48000 25.081
40.64000 24.578
40.80000 19.010
40.96000 19.117
41.12000 24.271
41.28000 21.289
41.44000 22.218
41.60000 18.260
41.76000 17.288
41.92000 25.415
42.08000 23.619
42.24000 20.369
42.40000 21.143
42.56000 17.459
42.72000 21.294
42.88000 16.210
43.04000 26.193
43.20000 17.277
43.36000 26.538
43.52000 29.333
43.68000 21.197
43.84000 13.049
44.00000 16.209
44.16000 14.099
44.32000 26.311
44.48000 15.211
44.64000 18.234
44.80000 19.249
44.96000 19.401
45.12000 23.218
45.28000 25.339
45.44000 17.223
45.60000 18.372
45.76000 25.453
45.92000 22.253
46.08000 21.227
46.24000 21.287
46.40000 21.171
46.56000 21.181
46.72000 16.301
46.88000 30.439
47.04000 25.237
47.20000 23.300
47.36000 29.521
47.52000 20.362
47.68000 23.098
47.84000 22.258
48.00000 16.309
48.16000 18.244
48.32000 18.288
48.48000 19.168
48.64000 15.203
48.80000 14.228
48.96000 12.225
49.12000 17.258
49.28000 22.377
49.44000 15.245
49.60000 15.223
49.76000 16.341
49.92000 14.137
50.08000 15.105
50.24000 12.107
50.40000 16.136
50.56000 14.164
50.72000 15.178
50.88000 16.352
51.04000 17.248
51.20000 15.084
51.36000 19.351
51.52000 17.263
51.68000 17.187
51.84000 17.128
52.00000 19.093
52.16000 15.124
52.32000 12.132
52.48000 15.417
52.64000 17.218
52.80000 12.243
52.96000 13.173
53.12000 20.225
53.28000 13.289
53.44000 6.249
53.60000 18.267
53.76000 11.214
53.92000 13.286
54.08000 13.149
54.24000 16.217
54.40000 20.303
54.56000 17.254
54.72000 13.184
54.88000 9.089
55.04000 12.029
55.20000 15.274
55.36000 9.109
55.52000 5.100
55.68000 15.170
55.84000 11.070
56.00000 20.312
56.16000 7.981
56.32000 11.214
56.48000 3.941
56.64000 6.028
56.80000 7.017
56.96000 18.348
57.12000 4.015
57.28000 16.155
57.44000 11.026
57.60000 14.205
57.76000 18.124
57.92000 5.075
58.08000 13.172
58.24000 7.193
58.40000 13.138
58.56000 15.195
58.72000 10.214
58.88000 10.060
59.04000 16.114
59.20000 14.313
59.36000 10.005
59.52000 11.228
59.68000 10.015
59.84000 10.074
60.00000 8.057
60.16000 5.103
60.32000 8.069
60.48000 18.168
60.64000 10.188
60.80000 10.037
60.96000 9.292
61.12000 1.974
61.28000 6.048
61.44000 16.260
61.60000 11.124
61.76000 6.963
61.92000 7.170
62.08000 5.086
62.24000 9.146
62.40000 19.243
62.56000 13.272
62.72000 13.254
62.88000 13.255
63.04000 11.192
63.20000 8.259
63.36000 6.057
63.52000 7.122
63.68000 7.000
63.84000 7.130
64.00000 8.152
64.16000 10.179
64.32000 10.127
64.48000 13.180
64.64000 7.143
64.80000 7.034
64.96000 6.097
65.00000 5.023