File: XRD/11-09-2025/XY Data/01092025_BTO_omega_0_5_001_19_5-563_24-373.xy
20.00000 21.379
20.16000 14.134
20.32000 22.146
20.48000 21.221
20.64000 25.321
20.80000 10.001
20.96000 18.269
21.12000 31.370
21.28000 25.359
21.44000 19.252
21.60000 15.033
21.76000 23.354
21.92000 27.510
22.08000 19.300
22.24000 19.134
22.40000 18.273
22.56000 19.211
22.72000 23.311
22.88000 24.226
23.04000 22.314
23.20000 24.453
23.36000 25.387
23.52000 26.179
23.68000 26.369
23.84000 27.384
24.00000 28.416
24.16000 29.094
24.32000 37.411
24.48000 40.271
24.64000 37.470
24.80000 37.694
24.96000 41.441
25.12000 48.859
25.28000 46.749
25.44000 39.321
25.60000 44.577
25.76000 40.510
25.92000 62.607
26.08000 51.765
26.24000 62.116
26.40000 53.432
26.56000 48.812
26.72000 52.493
26.88000 50.771
27.04000 59.981
27.20000 54.575
27.36000 71.074
27.52000 63.759
27.68000 52.618
27.84000 57.649
28.00000 74.773
28.16000 57.727
28.32000 43.612
28.48000 57.577
28.64000 54.670
28.80000 77.039
28.96000 65.672
29.12000 52.791
29.28000 51.759
29.44000 58.796
29.60000 51.708
29.76000 47.646
29.92000 35.360
30.08000 37.866
30.24000 50.573
30.40000 40.382
30.56000 35.386
30.72000 43.491
30.88000 40.593
31.04000 44.512
31.20000 35.337
31.36000 26.563
31.52000 33.459
31.68000 33.337
31.84000 22.593
32.00000 35.339
32.16000 41.474
32.32000 31.362
32.48000 27.291
32.64000 22.277
32.80000 30.402
32.96000 17.261
33.12000 15.145
33.28000 15.003
33.44000 27.294
33.60000 9.176
33.76000 15.200
33.92000 23.275
34.08000 21.156
34.24000 28.753
34.40000 16.211
34.56000 12.105
34.72000 14.065
34.88000 17.100
35.04000 20.198
35.20000 24.711
35.36000 16.173
35.52000 16.205
35.68000 18.412
35.84000 12.176
36.00000 19.185
36.16000 13.315
36.32000 16.176
36.48000 24.433
36.64000 12.248
36.80000 19.211
36.96000 17.263
37.12000 20.333
37.28000 27.247
37.44000 22.275
37.60000 15.251
37.76000 19.215
37.92000 24.314
38.08000 19.113
38.24000 26.398
38.40000 16.186
38.56000 19.259
38.72000 30.240
38.88000 28.161
39.04000 19.206
39.20000 30.420
39.36000 15.268
39.52000 23.150
39.68000 21.085
39.84000 23.403
40.00000 18.104
40.16000 24.309
40.32000 20.164
40.48000 25.362
40.64000 23.326
40.80000 21.293
40.96000 24.286
41.12000 28.382
41.28000 23.240
41.44000 25.088
41.60000 15.179
41.76000 15.235
41.92000 23.486
42.08000 23.102
42.24000 24.336
42.40000 23.341
42.56000 20.149
42.72000 22.480
42.88000 16.143
43.04000 31.423
43.20000 17.046
43.36000 29.437
43.52000 19.232
43.68000 22.220
43.84000 15.183
44.00000 20.306
44.16000 28.478
44.32000 18.260
44.48000 27.293
44.64000 20.412
44.80000 19.218
44.96000 22.495
45.12000 24.327
45.28000 22.278
45.44000 24.357
45.60000 27.292
45.76000 24.203
45.92000 24.430
46.08000 17.193
46.24000 25.330
46.40000 20.167
46.56000 22.327
46.72000 15.263
46.88000 18.063
47.04000 20.245
47.20000 27.358
47.36000 31.665
47.52000 19.401
47.68000 18.222
47.84000 23.265
48.00000 19.281
48.16000 17.312
48.32000 18.128
48.48000 21.259
48.64000 24.254
48.80000 22.280
48.96000 17.317
49.12000 17.343
49.28000 12.994
49.44000 16.207
49.60000 22.364
49.76000 17.042
49.92000 14.251
50.08000 24.388
50.24000 17.121
50.40000 18.195
50.56000 15.204
50.72000 23.373
50.88000 15.147
51.04000 15.074
51.20000 15.312
51.36000 24.276
51.52000 19.252
51.68000 16.191
51.84000 28.383
52.00000 13.205
52.16000 12.178
52.32000 10.172
52.48000 16.180
52.64000 12.173
52.80000 18.163
52.96000 27.419
53.12000 9.120
53.28000 13.134
53.44000 15.370
53.60000 12.155
53.76000 11.049
53.92000 12.253
54.08000 18.513
54.24000 13.148
54.40000 14.259
54.56000 11.016
54.72000 11.181
54.88000 11.190
55.04000 14.213
55.20000 16.080
55.36000 16.236
55.52000 21.570
55.68000 5.115
55.84000 14.131
56.00000 15.216
56.16000 8.960
56.32000 26.284
56.48000 19.148
56.64000 14.126
56.80000 10.143
56.96000 17.218
57.12000 6.174
57.28000 14.320
57.44000 18.214
57.60000 15.222
57.76000 14.159
57.92000 16.143
58.08000 11.101
58.24000 16.027
58.40000 10.195
58.56000 11.964
58.72000 9.056
58.88000 13.046
59.04000 13.057
59.20000 8.100
59.36000 11.131
59.52000 10.137
59.68000 11.196
59.84000 13.076
60.00000 17.239
60.16000 13.122
60.32000 11.254
60.48000 14.112
60.64000 8.075
60.80000 6.012
60.96000 13.065
61.12000 7.152
61.28000 15.027
61.44000 14.175
61.60000 17.191
61.76000 11.150
61.92000 7.005
62.08000 4.053
62.24000 6.100
62.40000 12.154
62.56000 10.199
62.72000 11.065
62.88000 8.017
63.04000 9.064
63.20000 9.109
63.36000 11.044
63.52000 7.070
63.68000 4.115
63.84000 5.031
64.00000 9.133
64.16000 13.082
64.32000 12.166
64.48000 5.113
64.64000 2.000
64.80000 6.112
64.96000 5.127
65.00000 3.988