File: XRD/11-09-2025/XY Data/01092025_BTO_omega_1_001_15_33-786_-16-271.xy
20.00000 18.316
20.16000 22.365
20.32000 19.293
20.48000 14.241
20.64000 20.262
20.80000 11.059
20.96000 21.272
21.12000 12.142
21.28000 13.268
21.44000 17.199
21.60000 20.174
21.76000 27.286
21.92000 19.160
22.08000 18.013
22.24000 20.455
22.40000 26.247
22.56000 22.396
22.72000 15.212
22.88000 9.068
23.04000 12.138
23.20000 13.260
23.36000 14.120
23.52000 11.252
23.68000 20.485
23.84000 10.229
24.00000 21.181
24.16000 10.072
24.32000 12.250
24.48000 15.201
24.64000 10.126
24.80000 15.214
24.96000 11.999
25.12000 9.124
25.28000 13.171
25.44000 15.063
25.60000 13.176
25.76000 11.048
25.92000 14.085
26.08000 8.052
26.24000 11.091
26.40000 12.183
26.56000 11.154
26.72000 9.059
26.88000 9.155
27.04000 14.161
27.20000 11.194
27.36000 11.203
27.52000 7.057
27.68000 8.207
27.84000 8.086
28.00000 6.078
28.16000 16.116
28.32000 12.193
28.48000 7.134
28.64000 4.975
28.80000 11.079
28.96000 8.168
29.12000 11.163
29.28000 19.090
29.44000 6.047
29.60000 7.094
29.76000 6.070
29.92000 7.044
30.08000 5.079
30.24000 5.059
30.40000 6.105
30.56000 9.099
30.72000 3.068
30.88000 12.095
31.04000 7.159
31.20000 10.230
31.36000 7.116
31.52000 6.060
31.68000 7.087
31.84000 4.109
32.00000 5.998
32.16000 8.089
32.32000 5.023
32.48000 8.078
32.64000 7.157
32.80000 5.074
32.96000 5.100
33.12000 7.079
33.28000 4.055
33.44000 4.140
33.60000 7.220
33.76000 10.171
33.92000 10.144
34.08000 8.095
34.24000 3.025
34.40000 4.009
34.56000 9.109
34.72000 4.090
34.88000 9.113
35.04000 8.093
35.20000 4.153
35.36000 2.061
35.52000 1.026
35.68000 10.305
35.84000 2.062
36.00000 2.081
36.16000 2.996
36.32000 5.042
36.48000 8.054
36.64000 4.055
36.80000 2.066
36.96000 5.077
37.12000 5.091
37.28000 2.969
37.44000 6.145
37.60000 2.005
37.76000 5.067
37.92000 5.128
38.08000 7.076
38.24000 4.083
38.40000 4.166
38.56000 6.014
38.72000 4.070
38.88000 4.078
39.04000 7.208
39.20000 7.027
39.36000 1.020
39.52000 2.003
39.68000 1.005
39.84000 5.126
40.00000 6.087
40.16000 7.147
40.32000 4.108
40.48000 1.022
40.64000 2.987
40.80000 1.991
40.96000 4.028
41.12000 3.017
41.28000 2.014
41.44000 3.070
41.60000 2.978
41.76000 1.023
41.92000 4.094
42.08000 0.993
42.24000 3.991
42.40000 4.051
42.56000 3.029
42.72000 5.153
42.88000 3.096
43.04000 0.000
43.20000 0.000
43.36000 5.033
43.52000 1.000
43.68000 4.036
43.84000 1.061
44.00000 4.000
44.16000 3.962
44.32000 3.049
44.48000 5.182
44.64000 1.022
44.80000 2.085
44.96000 5.064
45.12000 6.119
45.28000 4.073
45.44000 1.025
45.60000 5.064
45.76000 3.078
45.92000 5.053
46.08000 0.000
46.24000 4.076
46.40000 3.058
46.56000 2.073
46.72000 5.146
46.88000 3.080
47.04000 1.979
47.20000 3.011
47.36000 3.081
47.52000 3.083
47.68000 3.058
47.84000 0.000
48.00000 1.003
48.16000 2.041
48.32000 6.167
48.48000 4.003
48.64000 0.978
48.80000 0.000
48.96000 2.006
49.12000 3.014
49.28000 1.022
49.44000 3.052
49.60000 4.058
49.76000 1.993
49.92000 1.033
50.08000 2.011
50.24000 3.027
50.40000 0.975
50.56000 4.076
50.72000 4.083
50.88000 3.115
51.04000 3.081
51.20000 0.000
51.36000 5.079
51.52000 0.000
51.68000 2.076
51.84000 6.005
52.00000 2.015
52.16000 2.116
52.32000 3.026
52.48000 0.000
52.64000 2.003
52.80000 4.023
52.96000 1.969
53.12000 2.048
53.28000 3.031
53.44000 0.000
53.60000 2.034
53.76000 2.020
53.92000 0.974
54.08000 0.000
54.24000 1.970
54.40000 2.991
54.56000 3.004
54.72000 0.000
54.88000 3.939
55.04000 1.972
55.20000 2.034
55.36000 1.013
55.52000 1.041
55.68000 0.000
55.84000 1.017
56.00000 0.000
56.16000 1.027
56.32000 4.119
56.48000 0.000
56.64000 4.047
56.80000 2.016
56.96000 0.000
57.12000 0.998
57.28000 1.021
57.44000 0.000
57.60000 1.014
57.76000 0.987
57.92000 1.013
58.08000 0.998
58.24000 0.000
58.40000 4.031
58.56000 0.968
58.72000 2.036
58.88000 0.973
59.04000 0.000
59.20000 1.014
59.36000 4.079
59.52000 3.000
59.68000 1.003
59.84000 2.058
60.00000 2.007
60.16000 2.012
60.32000 4.066
60.48000 2.979
60.64000 1.013
60.80000 3.057
60.96000 5.119
61.12000 3.053
61.28000 3.008
61.44000 0.000
61.60000 1.048
61.76000 1.999
61.92000 1.008
62.08000 0.000
62.24000 2.007
62.40000 1.035
62.56000 0.000
62.72000 0.994
62.88000 0.000
63.04000 2.089
63.20000 2.037
63.36000 0.000
63.52000 0.984
63.68000 1.040
63.84000 0.000
64.00000 0.985
64.16000 1.029
64.32000 2.021
64.48000 1.991
64.64000 3.061
64.80000 0.989
64.96000 0.000
65.00000 2.083