File: XRD/11-09-2025/XY Data/01092025_BTO_omega_0_5_001_28_-11-126_48-746.xy
20.00000 8.117
20.16000 10.113
20.32000 17.156
20.48000 6.039
20.64000 13.204
20.80000 15.197
20.96000 12.087
21.12000 10.218
21.28000 14.028
21.44000 9.103
21.60000 16.338
21.76000 6.049
21.92000 19.316
22.08000 16.383
22.24000 9.225
22.40000 12.086
22.56000 11.171
22.72000 9.008
22.88000 9.055
23.04000 14.146
23.20000 7.160
23.36000 9.049
23.52000 11.147
23.68000 7.165
23.84000 9.121
24.00000 8.124
24.16000 20.227
24.32000 8.144
24.48000 12.273
24.64000 11.134
24.80000 10.183
24.96000 16.142
25.12000 9.203
25.28000 5.069
25.44000 12.315
25.60000 7.994
25.76000 10.013
25.92000 11.176
26.08000 6.046
26.24000 8.184
26.40000 11.170
26.56000 12.173
26.72000 13.220
26.88000 10.053
27.04000 9.082
27.20000 6.122
27.36000 6.999
27.52000 10.235
27.68000 7.977
27.84000 6.056
28.00000 7.112
28.16000 8.094
28.32000 5.136
28.48000 10.113
28.64000 8.164
28.80000 8.027
28.96000 10.193
29.12000 11.032
29.28000 8.066
29.44000 9.201
29.60000 5.086
29.76000 13.070
29.92000 7.123
30.08000 7.968
30.24000 6.104
30.40000 6.077
30.56000 8.207
30.72000 7.090
30.88000 6.141
31.04000 10.158
31.20000 9.173
31.36000 8.121
31.52000 7.082
31.68000 8.188
31.84000 6.139
32.00000 9.112
32.16000 3.052
32.32000 3.011
32.48000 4.199
32.64000 7.996
32.80000 4.161
32.96000 8.164
33.12000 5.070
33.28000 3.074
33.44000 4.058
33.60000 6.106
33.76000 7.188
33.92000 8.105
34.08000 7.101
34.24000 6.175
34.40000 5.118
34.56000 2.037
34.72000 7.206
34.88000 1.978
35.04000 5.025
35.20000 3.014
35.36000 8.141
35.52000 5.066
35.68000 5.092
35.84000 2.085
36.00000 7.134
36.16000 3.063
36.32000 2.021
36.48000 3.033
36.64000 4.088
36.80000 1.000
36.96000 2.036
37.12000 8.089
37.28000 8.130
37.44000 6.062
37.60000 5.099
37.76000 6.000
37.92000 4.028
38.08000 3.042
38.24000 1.999
38.40000 4.051
38.56000 3.099
38.72000 5.016
38.88000 9.278
39.04000 5.065
39.20000 4.003
39.36000 1.977
39.52000 3.011
39.68000 8.056
39.84000 5.011
40.00000 9.059
40.16000 5.049
40.32000 5.089
40.48000 4.105
40.64000 6.009
40.80000 7.986
40.96000 2.017
41.12000 4.168
41.28000 2.986
41.44000 3.086
41.60000 1.044
41.76000 4.147
41.92000 7.114
42.08000 8.081
42.24000 6.115
42.40000 3.044
42.56000 3.056
42.72000 5.092
42.88000 1.026
43.04000 3.017
43.20000 7.010
43.36000 4.099
43.52000 5.018
43.68000 4.140
43.84000 4.039
44.00000 7.138
44.16000 6.055
44.32000 7.000
44.48000 3.028
44.64000 5.078
44.80000 0.000
44.96000 4.008
45.12000 3.062
45.28000 5.017
45.44000 5.074
45.60000 6.188
45.76000 2.078
45.92000 6.156
46.08000 5.072
46.24000 1.047
46.40000 3.046
46.56000 0.000
46.72000 2.030
46.88000 6.199
47.04000 2.047
47.20000 1.051
47.36000 5.141
47.52000 4.047
47.68000 9.043
47.84000 3.020
48.00000 10.187
48.16000 4.083
48.32000 2.945
48.48000 3.013
48.64000 6.016
48.80000 5.030
48.96000 6.143
49.12000 4.081
49.28000 5.039
49.44000 9.218
49.60000 7.022
49.76000 2.047
49.92000 5.113
50.08000 6.071
50.24000 6.000
50.40000 5.112
50.56000 9.160
50.72000 5.175
50.88000 2.976
51.04000 3.031
51.20000 6.086
51.36000 6.143
51.52000 3.059
51.68000 5.009
51.84000 8.064
52.00000 4.986
52.16000 8.097
52.32000 2.955
52.48000 6.003
52.64000 6.123
52.80000 3.007
52.96000 0.990
53.12000 5.015
53.28000 4.097
53.44000 10.150
53.60000 6.146
53.76000 2.025
53.92000 1.995
54.08000 3.986
54.24000 4.157
54.40000 3.050
54.56000 5.091
54.72000 5.049
54.88000 2.949
55.04000 0.985
55.20000 8.265
55.36000 2.989
55.52000 2.031
55.68000 3.031
55.84000 5.165
56.00000 4.064
56.16000 4.076
56.32000 5.127
56.48000 5.101
56.64000 3.024
56.80000 4.084
56.96000 4.103
57.12000 9.074
57.28000 5.120
57.44000 6.101
57.60000 2.023
57.76000 6.064
57.92000 2.059
58.08000 4.044
58.24000 5.154
58.40000 0.995
58.56000 4.040
58.72000 0.000
58.88000 2.037
59.04000 6.082
59.20000 1.046
59.36000 1.000
59.52000 2.021
59.68000 3.100
59.84000 4.024
60.00000 2.007
60.16000 0.000
60.32000 5.087
60.48000 6.159
60.64000 4.044
60.80000 3.040
60.96000 0.000
61.12000 6.159
61.28000 1.010
61.44000 5.097
61.60000 2.049
61.76000 3.074
61.92000 0.000
62.08000 3.063
62.24000 1.043
62.40000 1.029
62.56000 0.000
62.72000 5.071
62.88000 0.000
63.04000 1.979
63.20000 6.080
63.36000 2.008
63.52000 4.079
63.68000 3.000
63.84000 8.114
64.00000 4.079
64.16000 3.061
64.32000 2.020
64.48000 2.045
64.64000 0.000
64.80000 4.144
64.96000 1.946
65.00000 4.030