File: XRD/11-09-2025/XY Data/01092025_BTO_omega_1_001_41_-2-782_12-187.xy
20.00000 15.102
20.16000 22.265
20.32000 24.209
20.48000 18.155
20.64000 18.347
20.80000 22.252
20.96000 21.468
21.12000 15.323
21.28000 19.228
21.44000 19.366
21.60000 15.423
21.76000 23.246
21.92000 17.155
22.08000 20.106
22.24000 19.205
22.40000 26.111
22.56000 24.175
22.72000 20.272
22.88000 31.379
23.04000 23.284
23.20000 21.210
23.36000 21.046
23.52000 20.375
23.68000 21.225
23.84000 28.286
24.00000 27.211
24.16000 33.678
24.32000 25.443
24.48000 20.106
24.64000 29.519
24.80000 21.465
24.96000 32.513
25.12000 26.226
25.28000 34.639
25.44000 35.530
25.60000 42.773
25.76000 40.366
25.92000 35.602
26.08000 42.448
26.24000 43.693
26.40000 39.509
26.56000 32.398
26.72000 46.330
26.88000 46.640
27.04000 56.988
27.20000 49.932
27.36000 52.608
27.52000 47.433
27.68000 41.455
27.84000 42.604
28.00000 49.294
28.16000 36.318
28.32000 51.652
28.48000 35.546
28.64000 52.775
28.80000 27.400
28.96000 30.552
29.12000 33.437
29.28000 31.383
29.44000 32.489
29.60000 40.438
29.76000 33.580
29.92000 28.664
30.08000 28.337
30.24000 31.424
30.40000 33.374
30.56000 34.214
30.72000 32.446
30.88000 20.241
31.04000 26.207
31.20000 21.501
31.36000 22.430
31.52000 25.411
31.68000 19.297
31.84000 24.172
32.00000 27.419
32.16000 34.487
32.32000 34.569
32.48000 25.378
32.64000 24.258
32.80000 15.103
32.96000 27.514
33.12000 19.225
33.28000 23.520
33.44000 13.330
33.60000 14.208
33.76000 13.108
33.92000 22.393
34.08000 23.339
34.24000 17.212
34.40000 14.181
34.56000 9.132
34.72000 17.109
34.88000 10.240
35.04000 17.276
35.20000 14.309
35.36000 19.258
35.52000 13.216
35.68000 18.330
35.84000 22.347
36.00000 17.302
36.16000 12.288
36.32000 13.298
36.48000 13.113
36.64000 24.124
36.80000 11.140
36.96000 22.285
37.12000 19.257
37.28000 8.059
37.44000 20.409
37.60000 13.107
37.76000 15.132
37.92000 16.376
38.08000 17.276
38.24000 21.408
38.40000 17.195
38.56000 18.221
38.72000 12.068
38.88000 13.197
39.04000 13.193
39.20000 22.311
39.36000 16.279
39.52000 15.107
39.68000 29.335
39.84000 23.336
40.00000 20.424
40.16000 29.407
40.32000 15.133
40.48000 17.264
40.64000 19.129
40.80000 16.373
40.96000 25.574
41.12000 18.201
41.28000 20.468
41.44000 21.237
41.60000 13.176
41.76000 17.282
41.92000 24.321
42.08000 17.307
42.24000 13.115
42.40000 22.402
42.56000 14.222
42.72000 16.169
42.88000 11.148
43.04000 19.349
43.20000 20.092
43.36000 15.157
43.52000 17.280
43.68000 24.134
43.84000 12.107
44.00000 26.287
44.16000 20.268
44.32000 11.047
44.48000 21.347
44.64000 26.313
44.80000 19.225
44.96000 11.304
45.12000 12.082
45.28000 15.329
45.44000 20.138
45.60000 13.136
45.76000 23.485
45.92000 26.383
46.08000 12.114
46.24000 23.309
46.40000 20.386
46.56000 19.451
46.72000 17.210
46.88000 19.324
47.04000 12.061
47.20000 16.211
47.36000 15.160
47.52000 19.348
47.68000 19.449
47.84000 17.249
48.00000 16.083
48.16000 13.156
48.32000 14.300
48.48000 14.195
48.64000 6.027
48.80000 24.414
48.96000 17.227
49.12000 21.410
49.28000 13.260
49.44000 20.208
49.60000 11.151
49.76000 16.180
49.92000 16.070
50.08000 9.033
50.24000 14.156
50.40000 19.192
50.56000 16.175
50.72000 7.062
50.88000 12.167
51.04000 16.337
51.20000 9.228
51.36000 10.095
51.52000 19.286
51.68000 14.201
51.84000 14.343
52.00000 18.294
52.16000 16.265
52.32000 15.248
52.48000 18.422
52.64000 19.247
52.80000 17.379
52.96000 16.075
53.12000 9.149
53.28000 11.037
53.44000 18.230
53.60000 16.268
53.76000 16.241
53.92000 12.114
54.08000 16.132
54.24000 10.153
54.40000 6.069
54.56000 10.070
54.72000 14.120
54.88000 22.315
55.04000 13.197
55.20000 13.076
55.36000 16.178
55.52000 8.242
55.68000 20.275
55.84000 10.079
56.00000 9.180
56.16000 16.231
56.32000 9.135
56.48000 15.131
56.64000 12.047
56.80000 16.203
56.96000 15.086
57.12000 17.386
57.28000 10.992
57.44000 17.243
57.60000 20.399
57.76000 8.974
57.92000 8.048
58.08000 16.223
58.24000 12.186
58.40000 14.121
58.56000 8.051
58.72000 7.101
58.88000 9.162
59.04000 11.097
59.20000 16.080
59.36000 9.108
59.52000 10.197
59.68000 6.117
59.84000 12.104
60.00000 9.055
60.16000 10.079
60.32000 10.103
60.48000 10.043
60.64000 10.021
60.80000 11.979
60.96000 15.079
61.12000 11.096
61.28000 11.148
61.44000 12.174
61.60000 7.109
61.76000 12.146
61.92000 8.081
62.08000 10.945
62.24000 11.146
62.40000 11.173
62.56000 12.201
62.72000 15.181
62.88000 8.106
63.04000 7.060
63.20000 9.063
63.36000 6.119
63.52000 8.098
63.68000 10.053
63.84000 14.133
64.00000 6.092
64.16000 8.146
64.32000 9.122
64.48000 11.047
64.64000 9.064
64.80000 11.163
64.96000 14.140
65.00000 3.071