File: XRD/11-09-2025/XY Data/01092025_BTO_omega_0_5_001_24_-8-345_36-560.xy
20.00000 17.297
20.16000 19.270
20.32000 24.182
20.48000 13.066
20.64000 9.096
20.80000 15.466
20.96000 22.353
21.12000 17.057
21.28000 23.278
21.44000 23.111
21.60000 22.458
21.76000 22.463
21.92000 27.300
22.08000 27.275
22.24000 23.570
22.40000 24.098
22.56000 26.269
22.72000 22.333
22.88000 27.340
23.04000 29.289
23.20000 23.400
23.36000 27.315
23.52000 25.273
23.68000 23.254
23.84000 33.354
24.00000 32.252
24.16000 28.407
24.32000 42.672
24.48000 39.693
24.64000 33.270
24.80000 30.166
24.96000 35.509
25.12000 40.460
25.28000 44.416
25.44000 47.583
25.60000 42.436
25.76000 56.728
25.92000 49.596
26.08000 63.851
26.24000 54.636
26.40000 62.582
26.56000 52.816
26.72000 53.723
26.88000 43.592
27.04000 62.842
27.20000 52.587
27.36000 57.777
27.52000 62.259
27.68000 67.728
27.84000 61.752
28.00000 66.008
28.16000 48.799
28.32000 53.609
28.48000 60.649
28.64000 59.807
28.80000 59.958
28.96000 51.606
29.12000 53.838
29.28000 52.451
29.44000 54.550
29.60000 49.511
29.76000 42.412
29.92000 53.672
30.08000 48.479
30.24000 40.445
30.40000 41.540
30.56000 51.834
30.72000 43.517
30.88000 30.397
31.04000 34.641
31.20000 32.367
31.36000 28.290
31.52000 23.115
31.68000 42.793
31.84000 22.430
32.00000 24.305
32.16000 29.402
32.32000 36.632
32.48000 37.498
32.64000 17.392
32.80000 20.260
32.96000 26.299
33.12000 20.192
33.28000 26.449
33.44000 20.332
33.60000 17.238
33.76000 14.104
33.92000 17.266
34.08000 16.278
34.24000 23.180
34.40000 18.365
34.56000 29.660
34.72000 8.060
34.88000 6.985
35.04000 19.104
35.20000 17.260
35.36000 16.203
35.52000 21.351
35.68000 24.317
35.84000 16.171
36.00000 14.145
36.16000 19.071
36.32000 28.452
36.48000 18.191
36.64000 18.073
36.80000 23.346
36.96000 19.284
37.12000 18.297
37.28000 16.213
37.44000 23.228
37.60000 14.275
37.76000 23.249
37.92000 17.243
38.08000 23.371
38.24000 20.274
38.40000 15.270
38.56000 19.182
38.72000 19.163
38.88000 19.190
39.04000 15.118
39.20000 14.375
39.36000 23.661
39.52000 21.290
39.68000 18.417
39.84000 20.272
40.00000 14.197
40.16000 23.162
40.32000 22.270
40.48000 23.147
40.64000 19.376
40.80000 21.401
40.96000 25.523
41.12000 23.403
41.28000 15.291
41.44000 25.240
41.60000 25.406
41.76000 28.486
41.92000 26.166
42.08000 24.351
42.24000 14.232
42.40000 17.195
42.56000 27.255
42.72000 21.244
42.88000 21.224
43.04000 25.445
43.20000 24.367
43.36000 12.167
43.52000 19.262
43.68000 17.168
43.84000 17.254
44.00000 15.200
44.16000 24.448
44.32000 18.249
44.48000 24.419
44.64000 25.282
44.80000 21.220
44.96000 28.458
45.12000 20.267
45.28000 24.279
45.44000 18.152
45.60000 21.506
45.76000 20.320
45.92000 16.399
46.08000 24.259
46.24000 19.272
46.40000 22.442
46.56000 18.128
46.72000 26.142
46.88000 15.217
47.04000 32.496
47.20000 12.374
47.36000 27.223
47.52000 18.344
47.68000 19.449
47.84000 19.131
48.00000 16.200
48.16000 17.243
48.32000 22.311
48.48000 18.197
48.64000 19.356
48.80000 21.381
48.96000 20.075
49.12000 18.210
49.28000 16.130
49.44000 20.278
49.60000 16.062
49.76000 20.263
49.92000 16.169
50.08000 21.174
50.24000 12.332
50.40000 21.327
50.56000 18.253
50.72000 19.359
50.88000 11.215
51.04000 17.363
51.20000 18.374
51.36000 19.337
51.52000 25.368
51.68000 11.045
51.84000 13.020
52.00000 14.114
52.16000 15.277
52.32000 10.023
52.48000 16.297
52.64000 10.131
52.80000 20.400
52.96000 19.441
53.12000 24.276
53.28000 24.311
53.44000 11.959
53.60000 17.088
53.76000 16.149
53.92000 16.305
54.08000 19.226
54.24000 23.379
54.40000 16.114
54.56000 19.323
54.72000 11.280
54.88000 12.135
55.04000 12.298
55.20000 19.142
55.36000 8.146
55.52000 10.174
55.68000 16.172
55.84000 17.244
56.00000 12.185
56.16000 15.944
56.32000 18.489
56.48000 16.323
56.64000 12.115
56.80000 12.164
56.96000 10.968
57.12000 15.256
57.28000 9.125
57.44000 14.003
57.60000 15.287
57.76000 10.092
57.92000 18.113
58.08000 11.096
58.24000 15.370
58.40000 12.079
58.56000 9.144
58.72000 17.163
58.88000 15.202
59.04000 13.172
59.20000 12.225
59.36000 17.372
59.52000 8.172
59.68000 16.121
59.84000 8.983
60.00000 6.036
60.16000 13.145
60.32000 6.972
60.48000 6.109
60.64000 10.095
60.80000 15.128
60.96000 11.070
61.12000 11.061
61.28000 5.044
61.44000 12.213
61.60000 7.042
61.76000 9.087
61.92000 12.154
62.08000 3.069
62.24000 7.030
62.40000 6.015
62.56000 4.154
62.72000 8.118
62.88000 8.078
63.04000 11.133
63.20000 4.055
63.36000 16.327
63.52000 11.011
63.68000 6.099
63.84000 6.135
64.00000 8.131
64.16000 10.233
64.32000 10.150
64.48000 6.970
64.64000 13.158
64.80000 9.022
64.96000 6.995
65.00000 7.948