File: XRD/11-09-2025/XY Data/01092025_BTO_omega_0_5_001_09_22-524_10-847.xy
20.00000 22.096
20.16000 18.220
20.32000 30.388
20.48000 22.114
20.64000 20.286
20.80000 17.156
20.96000 28.508
21.12000 18.292
21.28000 26.419
21.44000 22.427
21.60000 14.078
21.76000 31.292
21.92000 17.201
22.08000 33.276
22.24000 22.211
22.40000 30.611
22.56000 22.393
22.72000 26.700
22.88000 29.408
23.04000 26.440
23.20000 21.106
23.36000 18.261
23.52000 24.152
23.68000 39.585
23.84000 31.459
24.00000 40.589
24.16000 29.434
24.32000 42.539
24.48000 46.468
24.64000 47.486
24.80000 47.539
24.96000 32.398
25.12000 45.694
25.28000 39.692
25.44000 40.428
25.60000 48.730
25.76000 36.606
25.92000 49.552
26.08000 50.586
26.24000 42.394
26.40000 51.495
26.56000 58.978
26.72000 47.493
26.88000 52.801
27.04000 62.104
27.20000 48.871
27.36000 55.703
27.52000 66.872
27.68000 69.247
27.84000 59.137
28.00000 62.117
28.16000 49.625
28.32000 58.866
28.48000 62.137
28.64000 71.141
28.80000 53.732
28.96000 54.574
29.12000 49.608
29.28000 55.339
29.44000 44.688
29.60000 54.735
29.76000 40.691
29.92000 50.622
30.08000 34.420
30.24000 53.552
30.40000 39.834
30.56000 30.442
30.72000 37.646
30.88000 37.638
31.04000 33.450
31.20000 36.594
31.36000 32.428
31.52000 41.647
31.68000 36.286
31.84000 26.291
32.00000 27.420
32.16000 30.390
32.32000 22.233
32.48000 28.325
32.64000 28.159
32.80000 29.610
32.96000 28.153
33.12000 27.252
33.28000 20.102
33.44000 26.574
33.60000 17.192
33.76000 22.490
33.92000 16.205
34.08000 16.113
34.24000 18.280
34.40000 11.108
34.56000 18.283
34.72000 11.035
34.88000 24.210
35.04000 14.195
35.20000 21.974
35.36000 20.324
35.52000 17.324
35.68000 22.446
35.84000 20.312
36.00000 10.107
36.16000 22.802
36.32000 22.294
36.48000 19.193
36.64000 28.287
36.80000 11.250
36.96000 16.216
37.12000 21.347
37.28000 14.080
37.44000 21.445
37.60000 23.247
37.76000 22.492
37.92000 25.329
38.08000 18.207
38.24000 11.130
38.40000 13.134
38.56000 14.079
38.72000 18.296
38.88000 25.244
39.04000 19.180
39.20000 19.167
39.36000 16.103
39.52000 24.200
39.68000 21.246
39.84000 26.247
40.00000 23.464
40.16000 21.319
40.32000 24.335
40.48000 27.367
40.64000 19.110
40.80000 19.202
40.96000 25.437
41.12000 19.366
41.28000 23.102
41.44000 21.324
41.60000 18.179
41.76000 24.255
41.92000 22.027
42.08000 19.298
42.24000 12.078
42.40000 26.366
42.56000 23.449
42.72000 22.280
42.88000 18.255
43.04000 22.168
43.20000 27.412
43.36000 22.323
43.52000 20.141
43.68000 22.451
43.84000 25.529
44.00000 20.400
44.16000 18.130
44.32000 22.236
44.48000 22.222
44.64000 15.069
44.80000 21.335
44.96000 20.246
45.12000 15.049
45.28000 21.262
45.44000 23.327
45.60000 15.340
45.76000 16.199
45.92000 20.138
46.08000 23.395
46.24000 14.214
46.40000 30.530
46.56000 17.269
46.72000 24.153
46.88000 24.320
47.04000 23.530
47.20000 17.167
47.36000 25.160
47.52000 21.273
47.68000 15.094
47.84000 11.188
48.00000 21.160
48.16000 28.296
48.32000 17.038
48.48000 20.218
48.64000 22.348
48.80000 17.328
48.96000 10.986
49.12000 25.285
49.28000 23.313
49.44000 19.411
49.60000 30.336
49.76000 15.164
49.92000 23.165
50.08000 19.346
50.24000 15.271
50.40000 13.181
50.56000 16.277
50.72000 16.407
50.88000 13.177
51.04000 17.102
51.20000 18.270
51.36000 15.216
51.52000 11.205
51.68000 12.984
51.84000 16.098
52.00000 18.131
52.16000 17.239
52.32000 21.198
52.48000 14.245
52.64000 8.974
52.80000 11.225
52.96000 14.280
53.12000 14.086
53.28000 19.200
53.44000 15.198
53.60000 16.196
53.76000 13.078
53.92000 13.174
54.08000 14.346
54.24000 7.191
54.40000 12.176
54.56000 13.261
54.72000 18.090
54.88000 7.283
55.04000 16.349
55.20000 8.111
55.36000 17.355
55.52000 14.159
55.68000 13.173
55.84000 14.146
56.00000 10.191
56.16000 11.346
56.32000 12.042
56.48000 6.168
56.64000 8.120
56.80000 10.192
56.96000 9.028
57.12000 10.113
57.28000 19.171
57.44000 11.162
57.60000 15.135
57.76000 15.109
57.92000 21.301
58.08000 7.147
58.24000 11.319
58.40000 14.104
58.56000 8.097
58.72000 10.210
58.88000 4.021
59.04000 6.118
59.20000 13.211
59.36000 12.248
59.52000 14.147
59.68000 9.081
59.84000 8.129
60.00000 10.085
60.16000 7.114
60.32000 16.113
60.48000 8.169
60.64000 15.245
60.80000 11.140
60.96000 12.033
61.12000 11.190
61.28000 7.111
61.44000 11.078
61.60000 7.235
61.76000 7.184
61.92000 8.082
62.08000 2.005
62.24000 12.085
62.40000 11.139
62.56000 8.146
62.72000 6.043
62.88000 10.073
63.04000 7.136
63.20000 13.082
63.36000 5.077
63.52000 7.156
63.68000 8.071
63.84000 10.172
64.00000 10.100
64.16000 11.160
64.32000 6.199
64.48000 9.182
64.64000 8.176
64.80000 5.005
64.96000 10.232
65.00000 9.165