File: XRD/XRD/22-09-2025 Dep 2/XY Data/BTO_Mapping_Theta2Theta_22-09-2025_001_48_-12-470_-15-637.xy
20.00000 593.045
20.17000 553.729
20.34000 586.271
20.51000 569.600
20.68000 566.755
20.85000 564.273
21.02000 568.021
21.19000 565.720
21.36000 572.227
21.53000 567.515
21.70000 596.569
21.87000 709.620
22.04000 881.109
22.21000 743.574
22.38000 630.224
22.55000 552.397
22.72000 545.708
22.89000 527.870
23.06000 539.002
23.23000 500.406
23.40000 507.162
23.57000 523.154
23.74000 524.448
23.91000 510.931
24.08000 498.358
24.25000 493.327
24.42000 500.415
24.59000 484.714
24.76000 489.686
24.93000 485.688
25.10000 491.735
25.27000 476.238
25.44000 491.666
25.61000 480.772
25.78000 464.251
25.95000 476.143
26.12000 475.421
26.29000 466.775
26.46000 460.478
26.63000 448.584
26.80000 457.834
26.97000 445.026
27.14000 447.291
27.31000 441.777
27.48000 434.308
27.65000 454.259
27.82000 430.805
27.99000 423.588
28.16000 447.869
28.33000 427.030
28.50000 442.005
28.67000 428.817
28.84000 423.317
29.01000 423.911
29.18000 417.882
29.35000 421.900
29.52000 416.727
29.69000 412.104
29.86000 436.350
30.03000 442.168
30.20000 468.165
30.37000 419.831
30.54000 429.880
30.71000 449.474
30.88000 500.878
31.05000 696.818
31.22000 1766.238
31.39000 3386.031
31.56000 2073.178
31.73000 856.328
31.90000 518.223
32.07000 442.219
32.24000 427.411
32.41000 396.830
32.58000 377.947
32.75000 393.895
32.92000 454.893
33.09000 407.729
33.26000 354.328
33.43000 335.524
33.60000 344.319
33.77000 351.709
33.94000 329.770
34.11000 351.673
34.28000 355.761
34.45000 339.197
34.62000 334.662
34.79000 331.138
34.96000 348.866
35.13000 310.608
35.30000 333.825
35.47000 311.409
35.64000 329.923
35.81000 321.287
35.98000 310.718
36.15000 315.803
36.32000 302.934
36.49000 309.877
36.66000 286.967
36.83000 309.978
37.00000 312.731
37.17000 311.995
37.34000 301.704
37.51000 305.184
37.68000 293.606
37.85000 297.667
38.02000 331.887
38.19000 315.429
38.36000 355.380
38.53000 595.612
38.70000 868.379
38.87000 641.431
39.04000 406.531
39.21000 321.629
39.38000 301.340
39.55000 279.297
39.72000 274.818
39.89000 256.773
40.06000 263.684
40.23000 267.591
40.40000 249.403
40.57000 266.936
40.74000 266.439
40.91000 259.870
41.08000 236.132
41.25000 241.686
41.42000 244.481
41.59000 246.123
41.76000 244.332
41.93000 241.882
42.10000 250.210
42.27000 242.703
42.44000 227.395
42.61000 224.542
42.78000 230.880
42.95000 235.504
43.12000 242.061
43.29000 231.193
43.46000 223.588
43.63000 239.021
43.80000 247.526
43.97000 241.444
44.14000 235.499
44.31000 244.806
44.48000 251.014
44.65000 276.021
44.82000 368.915
44.99000 467.901
45.16000 455.358
45.33000 355.046
45.50000 295.873
45.67000 264.212
45.84000 246.816
46.01000 225.869
46.18000 202.747
46.35000 204.553
46.52000 206.462
46.69000 202.645
46.86000 210.489
47.03000 206.164
47.20000 186.896
47.37000 186.512
47.54000 196.068
47.71000 197.890
47.88000 177.814
48.05000 191.017
48.22000 191.481
48.39000 182.514
48.56000 184.383
48.73000 179.822
48.90000 187.792
49.07000 182.356
49.24000 183.676
49.41000 190.396
49.58000 181.643
49.75000 181.727
49.92000 162.130
50.09000 188.352
50.26000 178.894
50.43000 209.172
50.60000 250.146
50.77000 283.108
50.94000 237.900
51.11000 194.752
51.28000 188.262
51.45000 170.294
51.62000 164.463
51.79000 162.100
51.96000 155.068
52.13000 181.197
52.30000 161.267
52.47000 163.357
52.64000 165.122
52.81000 161.618
52.98000 166.753
53.15000 174.111
53.32000 170.384
53.49000 159.134
53.66000 160.123
53.83000 161.018
54.00000 164.937
54.17000 155.359
54.34000 151.858
54.51000 163.929
54.68000 155.106
54.85000 170.158
55.02000 169.272
55.19000 173.160
55.36000 197.921
55.53000 239.264
55.70000 354.090
55.87000 571.189
56.04000 549.589
56.21000 367.716
56.38000 234.638
56.55000 198.704
56.72000 179.731
56.89000 155.427
57.06000 150.305
57.23000 155.076
57.40000 131.282
57.57000 161.181
57.74000 141.568
57.91000 142.183
58.08000 145.461
58.25000 145.016
58.42000 137.748
58.59000 134.310
58.76000 133.537
58.93000 128.764
59.10000 141.071
59.27000 133.007
59.44000 130.003
59.61000 143.243
59.78000 140.821
59.95000 133.866
60.12000 130.092
60.29000 140.404
60.46000 130.455
60.63000 137.339
60.80000 137.862
60.97000 134.116
61.14000 144.376
61.31000 139.630
61.48000 148.168
61.65000 366.823
61.82000 246.952
61.99000 150.127
62.16000 154.053
62.33000 148.704
62.50000 147.768
62.67000 146.781
62.84000 147.389
63.01000 152.786
63.18000 151.998
63.35000 158.833
63.52000 153.421
63.69000 145.071
63.86000 161.144
64.03000 164.593
64.20000 161.933
64.37000 165.179
64.54000 171.974
64.71000 164.595
64.88000 196.672
65.05000 199.366
65.22000 246.156
65.39000 328.377
65.56000 445.956
65.73000 914.827
65.90000 1633.484
66.07000 514.407
66.24000 390.504
66.41000 598.797
66.58000 430.876
66.75000 373.458
66.92000 389.569
67.09000 423.347
67.26000 443.673
67.43000 492.039
67.60000 512.191
67.77000 573.717
67.94000 634.979
68.11000 676.364
68.28000 762.225
68.45000 918.280
68.62000 1341.051
68.79000 2865.233
68.96000 20750.131
69.13000 96454.391
69.30000 58712.656
69.47000 15067.562
69.64000 1782.273
69.81000 1097.377
69.98000 861.652
70.00000 844.076