File: XRD/XRD/22-09-2025 Dep 2/XY Data/BTO_fwhm_results.csv
X Coordinates,Y Coordinates,FWHM
-40.0,0.0,0.288316
-36.039,-17.355,0.304784
-36.039,17.355,0.308288
-30.0,0.0,0.320514
-27.029,-13.017,0.329458
-27.029,13.017,0.333864
-24.94,-31.273,0.337592
-24.94,31.273,0.335665
-20.0,0.0,0.337777
-18.705,-23.455,0.345257
-18.705,23.455,0.341711
-18.019,-8.678,0.343181
-18.019,8.678,0.343024
-12.47,-15.637,0.342688
-12.47,15.637,0.343102
-10.0,0.0,0.354136
-9.01,-4.339,0.349595
-9.01,4.339,0.345689
-8.901,-38.997,0.351151
-8.901,38.997,0.352582
-6.676,-29.248,0.351007
-6.676,29.248,0.344593
-6.235,-7.818,0.353915
-6.235,7.818,0.346078
-4.45,-19.499,0.346905
-4.45,19.499,0.342602
-2.225,-9.749,0.348062
-2.225,9.749,0.341588
0.0,0.0,0.34695
2.225,-9.749,0.3457
2.225,9.749,0.348126
4.45,-19.499,0.351274
4.45,19.499,0.342844
6.235,-7.818,0.341478
6.235,7.818,0.348599
6.676,-29.248,0.34993
6.676,29.248,0.342791
8.901,-38.997,0.342378
8.901,38.997,0.337445
9.01,-4.339,0.338523
9.01,4.339,0.343303
10.0,0.0,0.339735
12.47,-15.637,0.344896
12.47,15.637,0.339901
18.019,-8.678,0.33873
18.019,8.678,0.33941
18.705,-23.455,0.342804
18.705,23.455,0.339176
20.0,0.0,0.341091
24.94,-31.273,0.349665
24.94,31.273,0.342779
27.029,-13.017,0.349161
27.029,13.017,0.353849
30.0,0.0,0.350095
36.039,-17.355,0.353499
36.039,17.355,0.350105
40.0,0.0,0.353082