File: XRD/XRD/22-09-2025 Dep 2/XY Data/BTO_Mapping_Theta2Theta_22-09-2025_001_03_20-000_0-000.xy
20.00000 572.482
20.17000 566.476
20.34000 572.169
20.51000 560.145
20.68000 554.859
20.85000 568.164
21.02000 551.869
21.19000 547.876
21.36000 547.239
21.53000 565.232
21.70000 558.792
21.87000 596.446
22.04000 704.935
22.21000 701.450
22.38000 624.378
22.55000 562.078
22.72000 532.628
22.89000 523.409
23.06000 517.878
23.23000 506.799
23.40000 498.925
23.57000 499.367
23.74000 513.524
23.91000 534.825
24.08000 506.170
24.25000 502.770
24.42000 517.601
24.59000 492.318
24.76000 484.704
24.93000 491.801
25.10000 479.581
25.27000 474.480
25.44000 466.432
25.61000 454.933
25.78000 466.826
25.95000 455.945
26.12000 431.445
26.29000 454.353
26.46000 451.123
26.63000 456.914
26.80000 442.136
26.97000 423.149
27.14000 443.645
27.31000 432.629
27.48000 438.156
27.65000 413.450
27.82000 433.961
27.99000 437.231
28.16000 414.716
28.33000 411.736
28.50000 424.515
28.67000 415.654
28.84000 410.190
29.01000 425.231
29.18000 416.206
29.35000 426.629
29.52000 413.134
29.69000 422.422
29.86000 436.775
30.03000 445.540
30.20000 435.139
30.37000 434.720
30.54000 431.994
30.71000 472.879
30.88000 511.530
31.05000 632.803
31.22000 1495.770
31.39000 2903.696
31.56000 1883.484
31.73000 771.241
31.90000 523.398
32.07000 439.222
32.24000 402.412
32.41000 398.860
32.58000 404.456
32.75000 379.979
32.92000 410.541
33.09000 363.113
33.26000 347.667
33.43000 348.822
33.60000 344.596
33.77000 348.945
33.94000 327.018
34.11000 342.436
34.28000 321.864
34.45000 327.192
34.62000 341.942
34.79000 341.788
34.96000 325.525
35.13000 322.128
35.30000 323.716
35.47000 302.247
35.64000 303.494
35.81000 309.957
35.98000 306.861
36.15000 305.566
36.32000 297.800
36.49000 294.935
36.66000 292.932
36.83000 293.630
37.00000 303.612
37.17000 308.987
37.34000 287.920
37.51000 302.546
37.68000 294.559
37.85000 304.816
38.02000 288.957
38.19000 311.206
38.36000 352.805
38.53000 497.990
38.70000 1002.162
38.87000 856.877
39.04000 407.081
39.21000 303.199
39.38000 299.257
39.55000 276.186
39.72000 263.001
39.89000 274.691
40.06000 260.118
40.23000 267.818
40.40000 252.796
40.57000 257.749
40.74000 273.449
40.91000 246.980
41.08000 243.878
41.25000 256.445
41.42000 245.279
41.59000 247.663
41.76000 231.605
41.93000 246.952
42.10000 223.197
42.27000 237.630
42.44000 231.809
42.61000 222.545
42.78000 237.218
42.95000 226.289
43.12000 233.059
43.29000 216.605
43.46000 232.710
43.63000 229.540
43.80000 206.756
43.97000 227.671
44.14000 211.973
44.31000 225.057
44.48000 230.682
44.65000 243.611
44.82000 275.085
44.99000 318.657
45.16000 351.086
45.33000 332.413
45.50000 294.917
45.67000 246.960
45.84000 240.232
46.01000 216.879
46.18000 197.757
46.35000 210.070
46.52000 203.418
46.69000 189.491
46.86000 205.316
47.03000 204.262
47.20000 192.093
47.37000 192.098
47.54000 175.330
47.71000 176.919
47.88000 183.847
48.05000 196.495
48.22000 175.219
48.39000 186.573
48.56000 185.757
48.73000 193.853
48.90000 174.500
49.07000 171.492
49.24000 186.690
49.41000 181.691
49.58000 181.597
49.75000 172.373
49.92000 174.527
50.09000 179.096
50.26000 178.740
50.43000 200.158
50.60000 230.035
50.77000 236.558
50.94000 218.364
51.11000 193.753
51.28000 163.006
51.45000 175.951
51.62000 169.311
51.79000 172.876
51.96000 157.459
52.13000 173.962
52.30000 160.713
52.47000 163.934
52.64000 158.468
52.81000 155.178
52.98000 161.766
53.15000 152.979
53.32000 165.729
53.49000 163.362
53.66000 147.713
53.83000 149.732
54.00000 150.378
54.17000 152.034
54.34000 160.279
54.51000 163.272
54.68000 150.906
54.85000 157.245
55.02000 149.365
55.19000 152.451
55.36000 176.422
55.53000 195.381
55.70000 261.911
55.87000 429.596
56.04000 516.992
56.21000 383.622
56.38000 242.149
56.55000 183.429
56.72000 152.738
56.89000 148.255
57.06000 145.097
57.23000 139.561
57.40000 144.481
57.57000 143.147
57.74000 139.005
57.91000 135.481
58.08000 138.546
58.25000 139.196
58.42000 134.094
58.59000 133.638
58.76000 134.694
58.93000 134.823
59.10000 129.717
59.27000 141.969
59.44000 136.957
59.61000 141.151
59.78000 132.239
59.95000 131.314
60.12000 137.654
60.29000 130.594
60.46000 126.216
60.63000 121.250
60.80000 125.910
60.97000 134.087
61.14000 143.835
61.31000 137.981
61.48000 143.782
61.65000 285.734
61.82000 201.410
61.99000 135.642
62.16000 133.158
62.33000 146.515
62.50000 138.842
62.67000 141.227
62.84000 139.875
63.01000 140.507
63.18000 148.717
63.35000 139.290
63.52000 141.982
63.69000 151.388
63.86000 162.190
64.03000 154.555
64.20000 160.719
64.37000 167.272
64.54000 167.318
64.71000 187.619
64.88000 188.934
65.05000 197.976
65.22000 226.806
65.39000 295.085
65.56000 379.961
65.73000 677.121
65.90000 1136.465
66.07000 387.794
66.24000 318.040
66.41000 465.400
66.58000 352.071
66.75000 307.092
66.92000 335.305
67.09000 358.140
67.26000 386.058
67.43000 394.560
67.60000 443.345
67.77000 492.752
67.94000 511.071
68.11000 555.337
68.28000 622.618
68.45000 725.207
68.62000 1057.406
68.79000 1953.555
68.96000 13594.510
69.13000 60988.684
69.30000 35562.238
69.47000 8403.417
69.64000 1303.903
69.81000 841.587
69.98000 693.558
70.00000 651.997