File: XRD/XRD/22-09-2025 Dep 2/XY Data/BTO_Mapping_Theta2Theta_22-09-2025_001_66_31-174_-39-092.xy
20.00000 983.623
20.17000 939.967
20.34000 957.862
20.51000 930.568
20.68000 931.765
20.85000 930.940
21.02000 925.076
21.19000 899.175
21.36000 880.884
21.53000 871.647
21.70000 870.966
21.87000 864.014
22.04000 852.141
22.21000 829.972
22.38000 845.754
22.55000 820.613
22.72000 828.432
22.89000 828.666
23.06000 803.178
23.23000 803.511
23.40000 770.269
23.57000 757.828
23.74000 755.117
23.91000 761.389
24.08000 742.187
24.25000 739.780
24.42000 746.071
24.59000 710.654
24.76000 727.356
24.93000 712.680
25.10000 711.909
25.27000 681.888
25.44000 706.684
25.61000 675.448
25.78000 660.763
25.95000 650.892
26.12000 664.447
26.29000 654.509
26.46000 649.530
26.63000 631.933
26.80000 618.657
26.97000 623.379
27.14000 621.082
27.31000 618.054
27.48000 610.062
27.65000 618.459
27.82000 587.786
27.99000 579.108
28.16000 600.644
28.33000 583.518
28.50000 559.586
28.67000 568.915
28.84000 569.143
29.01000 551.117
29.18000 553.650
29.35000 560.672
29.52000 547.801
29.69000 527.103
29.86000 533.383
30.03000 517.715
30.20000 517.627
30.37000 491.049
30.54000 494.193
30.71000 502.289
30.88000 494.174
31.05000 466.972
31.22000 474.108
31.39000 475.454
31.56000 465.214
31.73000 470.623
31.90000 479.431
32.07000 458.221
32.24000 444.039
32.41000 473.301
32.58000 451.388
32.75000 453.035
32.92000 463.746
33.09000 446.006
33.26000 438.432
33.43000 451.330
33.60000 419.790
33.77000 424.358
33.94000 422.520
34.11000 421.273
34.28000 411.822
34.45000 405.383
34.62000 425.444
34.79000 401.901
34.96000 370.333
35.13000 381.724
35.30000 386.561
35.47000 399.744
35.64000 373.640
35.81000 380.856
35.98000 369.743
36.15000 359.404
36.32000 362.078
36.49000 374.353
36.66000 368.664
36.83000 346.958
37.00000 361.516
37.17000 340.782
37.34000 354.392
37.51000 345.442
37.68000 362.708
37.85000 330.403
38.02000 325.198
38.19000 343.636
38.36000 331.983
38.53000 330.608
38.70000 327.498
38.87000 327.045
39.04000 324.301
39.21000 309.097
39.38000 316.386
39.55000 304.705
39.72000 322.456
39.89000 314.174
40.06000 294.230
40.23000 298.997
40.40000 287.770
40.57000 286.820
40.74000 291.914
40.91000 291.384
41.08000 289.598
41.25000 293.213
41.42000 276.502
41.59000 279.829
41.76000 273.920
41.93000 277.981
42.10000 288.131
42.27000 257.381
42.44000 272.371
42.61000 264.666
42.78000 260.569
42.95000 263.665
43.12000 266.023
43.29000 245.686
43.46000 260.695
43.63000 270.444
43.80000 250.939
43.97000 264.814
44.14000 260.014
44.31000 247.292
44.48000 247.025
44.65000 244.452
44.82000 257.018
44.99000 248.495
45.16000 242.603
45.33000 236.826
45.50000 232.814
45.67000 232.044
45.84000 238.011
46.01000 235.382
46.18000 228.794
46.35000 236.356
46.52000 228.882
46.69000 217.476
46.86000 220.076
47.03000 219.780
47.20000 232.162
47.37000 226.703
47.54000 225.067
47.71000 210.848
47.88000 231.205
48.05000 201.804
48.22000 208.168
48.39000 200.336
48.56000 216.466
48.73000 198.549
48.90000 201.686
49.07000 210.091
49.24000 198.783
49.41000 208.267
49.58000 190.629
49.75000 205.401
49.92000 196.457
50.09000 180.739
50.26000 197.657
50.43000 197.001
50.60000 195.263
50.77000 191.694
50.94000 193.763
51.11000 192.335
51.28000 186.153
51.45000 183.794
51.62000 186.263
51.79000 176.295
51.96000 179.509
52.13000 179.907
52.30000 188.385
52.47000 175.472
52.64000 180.771
52.81000 179.561
52.98000 159.900
53.15000 176.030
53.32000 177.855
53.49000 176.690
53.66000 177.715
53.83000 176.121
54.00000 178.289
54.17000 171.586
54.34000 167.204
54.51000 155.593
54.68000 158.287
54.85000 160.150
55.02000 150.593
55.19000 159.440
55.36000 156.942
55.53000 159.538
55.70000 168.525
55.87000 170.944
56.04000 160.234
56.21000 151.896
56.38000 157.251
56.55000 154.197
56.72000 152.275
56.89000 148.963
57.06000 151.913
57.23000 157.407
57.40000 149.110
57.57000 140.238
57.74000 141.097
57.91000 153.408
58.08000 159.652
58.25000 154.869
58.42000 149.766
58.59000 145.478
58.76000 150.342
58.93000 143.573
59.10000 144.409
59.27000 146.561
59.44000 150.254
59.61000 147.134
59.78000 150.391
59.95000 155.953
60.12000 150.037
60.29000 152.502
60.46000 143.536
60.63000 143.052
60.80000 142.032
60.97000 141.107
61.14000 144.523
61.31000 154.171
61.48000 157.098
61.65000 252.501
61.82000 225.665
61.99000 157.619
62.16000 153.877
62.33000 146.161
62.50000 162.590
62.67000 156.590
62.84000 154.963
63.01000 150.761
63.18000 144.001
63.35000 159.008
63.52000 162.583
63.69000 166.947
63.86000 169.525
64.03000 166.620
64.20000 165.033
64.37000 174.391
64.54000 190.212
64.71000 186.203
64.88000 191.382
65.05000 189.927
65.22000 186.862
65.39000 213.899
65.56000 226.516
65.73000 423.241
65.90000 930.394
66.07000 382.316
66.24000 305.346
66.41000 425.401
66.58000 342.615
66.75000 319.089
66.92000 339.824
67.09000 357.187
67.26000 411.534
67.43000 405.118
67.60000 426.009
67.77000 474.836
67.94000 516.805
68.11000 562.270
68.28000 632.332
68.45000 719.000
68.62000 958.265
68.79000 1686.096
68.96000 7000.457
69.13000 52038.160
69.30000 32044.154
69.47000 9096.942
69.64000 1249.848
69.81000 833.025
69.98000 663.773
70.00000 656.843