File: XRD/XRD/22-09-2025 Dep 2/XY Data/BTO_Mapping_Theta2Theta_22-09-2025_001_42_-9-010_-4-339.xy
20.00000 574.010
20.17000 559.136
20.34000 583.308
20.51000 564.055
20.68000 578.887
20.85000 574.119
21.02000 574.625
21.19000 571.233
21.36000 550.312
21.53000 573.991
21.70000 601.117
21.87000 712.975
22.04000 852.834
22.21000 762.905
22.38000 625.413
22.55000 573.646
22.72000 560.135
22.89000 508.305
23.06000 517.526
23.23000 514.095
23.40000 524.769
23.57000 500.989
23.74000 496.151
23.91000 501.747
24.08000 486.302
24.25000 500.207
24.42000 494.053
24.59000 484.839
24.76000 485.879
24.93000 486.360
25.10000 477.676
25.27000 494.630
25.44000 484.013
25.61000 482.434
25.78000 501.202
25.95000 479.498
26.12000 469.560
26.29000 472.800
26.46000 459.827
26.63000 446.808
26.80000 444.907
26.97000 454.643
27.14000 423.916
27.31000 454.663
27.48000 462.011
27.65000 444.025
27.82000 432.328
27.99000 443.413
28.16000 437.700
28.33000 432.354
28.50000 428.151
28.67000 416.019
28.84000 432.790
29.01000 410.753
29.18000 413.529
29.35000 412.954
29.52000 427.785
29.69000 433.683
29.86000 446.984
30.03000 443.361
30.20000 447.923
30.37000 441.447
30.54000 438.544
30.71000 463.460
30.88000 514.628
31.05000 737.029
31.22000 1913.049
31.39000 3396.541
31.56000 2008.238
31.73000 823.135
31.90000 521.661
32.07000 427.535
32.24000 429.482
32.41000 390.513
32.58000 395.118
32.75000 411.610
32.92000 467.046
33.09000 401.679
33.26000 374.982
33.43000 372.305
33.60000 350.309
33.77000 362.576
33.94000 342.170
34.11000 335.135
34.28000 348.764
34.45000 336.130
34.62000 328.410
34.79000 329.747
34.96000 326.165
35.13000 324.758
35.30000 314.022
35.47000 310.464
35.64000 319.135
35.81000 314.736
35.98000 311.250
36.15000 299.661
36.32000 300.830
36.49000 300.654
36.66000 318.365
36.83000 306.701
37.00000 303.801
37.17000 310.932
37.34000 306.773
37.51000 297.492
37.68000 303.493
37.85000 309.979
38.02000 310.328
38.19000 313.741
38.36000 370.690
38.53000 593.708
38.70000 906.315
38.87000 647.327
39.04000 383.144
39.21000 322.028
39.38000 303.417
39.55000 277.153
39.72000 269.217
39.89000 279.448
40.06000 262.035
40.23000 275.621
40.40000 246.908
40.57000 270.881
40.74000 256.986
40.91000 271.956
41.08000 249.294
41.25000 245.618
41.42000 253.241
41.59000 236.178
41.76000 247.025
41.93000 242.388
42.10000 243.217
42.27000 241.136
42.44000 242.959
42.61000 235.976
42.78000 232.566
42.95000 244.390
43.12000 224.617
43.29000 228.080
43.46000 241.843
43.63000 235.198
43.80000 217.294
43.97000 250.993
44.14000 242.891
44.31000 240.003
44.48000 248.800
44.65000 285.335
44.82000 359.997
44.99000 498.379
45.16000 434.730
45.33000 355.167
45.50000 292.813
45.67000 253.535
45.84000 235.937
46.01000 219.715
46.18000 197.700
46.35000 198.791
46.52000 214.466
46.69000 220.710
46.86000 213.523
47.03000 202.485
47.20000 196.659
47.37000 198.644
47.54000 183.478
47.71000 186.566
47.88000 188.400
48.05000 183.673
48.22000 186.249
48.39000 183.563
48.56000 194.242
48.73000 188.554
48.90000 184.109
49.07000 176.045
49.24000 174.017
49.41000 189.639
49.58000 184.131
49.75000 160.672
49.92000 181.988
50.09000 178.022
50.26000 191.128
50.43000 200.385
50.60000 270.689
50.77000 263.674
50.94000 226.930
51.11000 195.674
51.28000 187.785
51.45000 171.840
51.62000 159.586
51.79000 153.458
51.96000 173.261
52.13000 178.159
52.30000 165.080
52.47000 167.116
52.64000 162.190
52.81000 161.950
52.98000 157.756
53.15000 165.286
53.32000 160.130
53.49000 176.124
53.66000 154.986
53.83000 157.828
54.00000 154.805
54.17000 156.710
54.34000 161.622
54.51000 162.547
54.68000 146.061
54.85000 170.158
55.02000 170.861
55.19000 171.827
55.36000 187.833
55.53000 227.251
55.70000 359.177
55.87000 562.544
56.04000 539.083
56.21000 362.323
56.38000 227.808
56.55000 193.599
56.72000 164.422
56.89000 151.782
57.06000 149.117
57.23000 150.479
57.40000 138.969
57.57000 140.010
57.74000 152.600
57.91000 146.566
58.08000 148.634
58.25000 142.261
58.42000 143.485
58.59000 134.086
58.76000 134.148
58.93000 150.346
59.10000 130.587
59.27000 136.026
59.44000 147.024
59.61000 140.127
59.78000 132.398
59.95000 135.963
60.12000 132.829
60.29000 131.455
60.46000 134.621
60.63000 130.169
60.80000 137.859
60.97000 142.056
61.14000 141.380
61.31000 144.138
61.48000 157.176
61.65000 351.165
61.82000 234.559
61.99000 146.795
62.16000 149.807
62.33000 150.099
62.50000 147.753
62.67000 145.399
62.84000 145.757
63.01000 146.088
63.18000 156.004
63.35000 147.756
63.52000 152.053
63.69000 154.655
63.86000 151.459
64.03000 161.438
64.20000 175.279
64.37000 170.534
64.54000 168.324
64.71000 179.350
64.88000 195.580
65.05000 206.524
65.22000 256.234
65.39000 343.086
65.56000 444.740
65.73000 895.976
65.90000 1609.741
66.07000 471.518
66.24000 392.399
66.41000 583.167
66.58000 412.885
66.75000 359.566
66.92000 377.202
67.09000 432.939
67.26000 437.705
67.43000 466.937
67.60000 509.831
67.77000 550.404
67.94000 617.755
68.11000 666.665
68.28000 733.704
68.45000 901.618
68.62000 1383.970
68.79000 2872.624
68.96000 21950.455
69.13000 92383.359
69.30000 54726.008
69.47000 13144.648
69.64000 1695.714
69.81000 1043.757
69.98000 839.171
70.00000 802.540