File: XRD/XRD/22-09-2025 Dep 2/XY Data/BTO_Mapping_Theta2Theta_22-09-2025_001_26_-11-126_48-746.xy
20.00000 602.921
20.17000 616.618
20.34000 607.759
20.51000 609.182
20.68000 583.259
20.85000 630.762
21.02000 598.406
21.19000 598.140
21.36000 609.492
21.53000 592.062
21.70000 590.246
21.87000 598.607
22.04000 609.219
22.21000 584.734
22.38000 586.462
22.55000 580.672
22.72000 600.065
22.89000 572.858
23.06000 589.855
23.23000 576.227
23.40000 585.496
23.57000 581.851
23.74000 571.004
23.91000 585.290
24.08000 575.243
24.25000 566.792
24.42000 610.450
24.59000 593.705
24.76000 582.355
24.93000 592.005
25.10000 587.910
25.27000 576.643
25.44000 594.413
25.61000 604.943
25.78000 585.395
25.95000 585.021
26.12000 601.401
26.29000 595.494
26.46000 609.447
26.63000 610.320
26.80000 603.016
26.97000 582.719
27.14000 593.691
27.31000 622.140
27.48000 613.949
27.65000 604.161
27.82000 602.597
27.99000 613.033
28.16000 627.372
28.33000 588.284
28.50000 613.567
28.67000 600.628
28.84000 617.128
29.01000 624.408
29.18000 642.112
29.35000 610.696
29.52000 622.374
29.69000 646.799
29.86000 634.091
30.03000 626.823
30.20000 641.124
30.37000 671.922
30.54000 667.711
30.71000 662.308
30.88000 652.249
31.05000 669.143
31.22000 665.236
31.39000 662.756
31.56000 685.302
31.73000 664.717
31.90000 662.986
32.07000 691.888
32.24000 676.466
32.41000 672.401
32.58000 697.492
32.75000 689.906
32.92000 703.871
33.09000 714.655
33.26000 708.271
33.43000 731.538
33.60000 739.105
33.77000 709.417
33.94000 715.510
34.11000 744.481
34.28000 736.036
34.45000 723.543
34.62000 750.717
34.79000 770.102
34.96000 752.215
35.13000 786.999
35.30000 748.229
35.47000 747.056
35.64000 773.238
35.81000 761.176
35.98000 779.926
36.15000 775.476
36.32000 796.092
36.49000 795.388
36.66000 828.094
36.83000 819.151
37.00000 813.455
37.17000 826.584
37.34000 825.393
37.51000 843.676
37.68000 836.179
37.85000 839.781
38.02000 851.426
38.19000 844.119
38.36000 886.348
38.53000 866.583
38.70000 860.756
38.87000 883.567
39.04000 885.037
39.21000 892.744
39.38000 877.780
39.55000 918.953
39.72000 919.152
39.89000 909.782
40.06000 929.299
40.23000 927.552
40.40000 934.367
40.57000 936.468
40.74000 936.896
40.91000 947.801
41.08000 989.094
41.25000 946.723
41.42000 1013.498
41.59000 979.538
41.76000 987.727
41.93000 1001.149
42.10000 986.633
42.27000 1034.519
42.44000 1043.781
42.61000 1061.177
42.78000 1065.280
42.95000 1038.155
43.12000 1050.233
43.29000 1055.854
43.46000 1077.166
43.63000 1155.203
43.80000 1284.346
43.97000 1787.475
44.14000 2942.580
44.31000 3359.182
44.48000 2174.104
44.65000 1434.796
44.82000 1231.858
44.99000 1187.611
45.16000 1139.968
45.33000 1118.875
45.50000 1125.454
45.67000 1115.923
45.84000 1123.552
46.01000 1152.765
46.18000 1105.457
46.35000 1123.017
46.52000 1146.602
46.69000 1169.757
46.86000 1170.157
47.03000 1148.744
47.20000 1185.276
47.37000 1152.912
47.54000 1180.291
47.71000 1203.649
47.88000 1176.050
48.05000 1184.319
48.22000 1210.555
48.39000 1200.292
48.56000 1233.808
48.73000 1216.234
48.90000 1232.211
49.07000 1243.171
49.24000 1259.295
49.41000 1265.596
49.58000 1232.182
49.75000 1255.172
49.92000 1256.290
50.09000 1274.515
50.26000 1236.034
50.43000 1284.190
50.60000 1359.332
50.77000 1286.928
50.94000 1303.512
51.11000 1338.049
51.28000 1323.850
51.45000 1327.691
51.62000 1337.612
51.79000 1320.846
51.96000 1316.809
52.13000 1381.187
52.30000 1342.115
52.47000 1363.514
52.64000 1362.087
52.81000 1356.940
52.98000 1373.397
53.15000 1382.623
53.32000 1413.245
53.49000 1396.726
53.66000 1404.128
53.83000 1386.885
54.00000 1388.654
54.17000 1416.568
54.34000 1424.319
54.51000 1445.785
54.68000 1440.299
54.85000 1432.347
55.02000 1426.632
55.19000 1427.279
55.36000 1448.854
55.53000 1451.329
55.70000 1448.043
55.87000 1469.676
56.04000 1479.878
56.21000 1445.556
56.38000 1476.934
56.55000 1491.009
56.72000 1501.340
56.89000 1491.574
57.06000 1503.675
57.23000 1478.122
57.40000 1498.648
57.57000 1494.184
57.74000 1510.695
57.91000 1548.030
58.08000 1546.252
58.25000 1547.332
58.42000 1512.210
58.59000 1550.168
58.76000 1548.991
58.93000 1538.270
59.10000 1549.021
59.27000 1565.958
59.44000 1547.567
59.61000 1546.236
59.78000 1566.622
59.95000 1578.402
60.12000 1575.296
60.29000 1630.983
60.46000 1576.594
60.63000 1580.577
60.80000 1598.619
60.97000 1621.440
61.14000 1664.650
61.31000 1624.140
61.48000 1632.634
61.65000 1657.002
61.82000 1622.419
61.99000 1639.295
62.16000 1633.697
62.33000 1618.792
62.50000 1662.326
62.67000 1666.193
62.84000 1703.340
63.01000 1720.613
63.18000 1663.344
63.35000 1648.088
63.52000 1672.385
63.69000 1680.065
63.86000 1704.037
64.03000 1726.766
64.20000 1774.089
64.37000 1868.012
64.54000 2024.909
64.71000 1928.889
64.88000 1889.914
65.05000 1769.492
65.22000 1777.864
65.39000 1716.450
65.56000 1763.654
65.73000 1753.426
65.90000 1783.336
66.07000 1739.809
66.24000 1755.966
66.41000 1744.175
66.58000 1772.333
66.75000 1753.898
66.92000 1738.289
67.09000 1785.179
67.26000 1729.795
67.43000 1774.535
67.60000 1818.860
67.77000 1806.605
67.94000 1789.288
68.11000 1828.766
68.28000 1812.966
68.45000 1803.583
68.62000 1823.963
68.79000 1870.294
68.96000 2490.278
69.13000 4086.088
69.30000 3011.388
69.47000 2056.095
69.64000 1857.803
69.81000 1835.599
69.98000 1819.422
70.00000 1844.970