File: XRD/XRD/22-09-2025 Dep 2/XY Data/BTO_Mapping_Theta2Theta_22-09-2025_001_69_27-029_-13-017.xy
20.00000 568.564
20.17000 564.455
20.34000 574.207
20.51000 559.545
20.68000 560.405
20.85000 547.586
21.02000 570.460
21.19000 566.398
21.36000 566.312
21.53000 552.562
21.70000 558.500
21.87000 603.850
22.04000 686.884
22.21000 692.943
22.38000 612.052
22.55000 578.230
22.72000 540.302
22.89000 534.515
23.06000 533.783
23.23000 520.280
23.40000 516.376
23.57000 511.644
23.74000 523.286
23.91000 535.006
24.08000 538.781
24.25000 513.611
24.42000 480.005
24.59000 512.371
24.76000 483.795
24.93000 497.079
25.10000 470.082
25.27000 467.259
25.44000 476.537
25.61000 487.795
25.78000 459.072
25.95000 475.642
26.12000 469.514
26.29000 469.935
26.46000 437.931
26.63000 444.794
26.80000 442.964
26.97000 435.669
27.14000 438.224
27.31000 440.516
27.48000 435.861
27.65000 424.213
27.82000 429.533
27.99000 434.948
28.16000 436.632
28.33000 431.112
28.50000 405.159
28.67000 417.964
28.84000 413.878
29.01000 425.490
29.18000 436.195
29.35000 399.538
29.52000 421.597
29.69000 426.257
29.86000 435.290
30.03000 443.066
30.20000 426.084
30.37000 414.323
30.54000 421.714
30.71000 434.820
30.88000 480.320
31.05000 581.944
31.22000 1256.589
31.39000 2410.266
31.56000 1800.254
31.73000 762.618
31.90000 512.056
32.07000 434.363
32.24000 407.398
32.41000 401.964
32.58000 382.863
32.75000 377.646
32.92000 403.896
33.09000 363.748
33.26000 350.767
33.43000 356.736
33.60000 335.108
33.77000 350.108
33.94000 359.078
34.11000 338.655
34.28000 353.462
34.45000 329.638
34.62000 340.534
34.79000 330.928
34.96000 324.098
35.13000 319.574
35.30000 314.053
35.47000 305.902
35.64000 312.009
35.81000 319.029
35.98000 312.180
36.15000 305.627
36.32000 322.861
36.49000 291.215
36.66000 298.639
36.83000 279.631
37.00000 310.967
37.17000 306.126
37.34000 285.581
37.51000 288.967
37.68000 290.143
37.85000 298.986
38.02000 289.587
38.19000 299.694
38.36000 330.274
38.53000 496.049
38.70000 967.455
38.87000 896.368
39.04000 421.107
39.21000 297.052
39.38000 293.519
39.55000 265.791
39.72000 265.484
39.89000 268.334
40.06000 275.849
40.23000 248.065
40.40000 260.438
40.57000 253.237
40.74000 256.439
40.91000 258.868
41.08000 261.031
41.25000 246.568
41.42000 240.608
41.59000 240.797
41.76000 238.846
41.93000 248.496
42.10000 235.867
42.27000 222.706
42.44000 236.829
42.61000 241.175
42.78000 232.863
42.95000 230.357
43.12000 232.673
43.29000 231.351
43.46000 239.725
43.63000 238.436
43.80000 223.379
43.97000 227.668
44.14000 220.094
44.31000 220.038
44.48000 223.920
44.65000 234.361
44.82000 258.114
44.99000 289.607
45.16000 322.560
45.33000 290.900
45.50000 276.911
45.67000 249.713
45.84000 240.385
46.01000 216.865
46.18000 206.951
46.35000 199.076
46.52000 198.397
46.69000 195.951
46.86000 205.579
47.03000 206.040
47.20000 195.480
47.37000 192.100
47.54000 188.419
47.71000 187.251
47.88000 200.573
48.05000 185.396
48.22000 181.953
48.39000 181.117
48.56000 182.917
48.73000 175.927
48.90000 170.419
49.07000 181.844
49.24000 176.725
49.41000 191.603
49.58000 172.792
49.75000 183.303
49.92000 171.400
50.09000 178.521
50.26000 186.963
50.43000 179.717
50.60000 231.111
50.77000 258.325
50.94000 228.213
51.11000 181.773
51.28000 179.302
51.45000 178.102
51.62000 163.395
51.79000 169.691
51.96000 159.258
52.13000 168.772
52.30000 155.526
52.47000 167.191
52.64000 152.126
52.81000 164.868
52.98000 162.974
53.15000 154.474
53.32000 163.734
53.49000 157.480
53.66000 153.821
53.83000 160.997
54.00000 153.611
54.17000 161.521
54.34000 159.854
54.51000 153.869
54.68000 158.431
54.85000 156.894
55.02000 146.899
55.19000 151.970
55.36000 173.908
55.53000 177.634
55.70000 245.377
55.87000 415.224
56.04000 543.381
56.21000 419.443
56.38000 244.302
56.55000 188.912
56.72000 171.267
56.89000 162.795
57.06000 143.337
57.23000 146.290
57.40000 139.298
57.57000 133.117
57.74000 146.975
57.91000 139.463
58.08000 132.460
58.25000 141.794
58.42000 139.849
58.59000 131.406
58.76000 137.260
58.93000 145.580
59.10000 138.458
59.27000 130.559
59.44000 131.686
59.61000 130.429
59.78000 137.901
59.95000 128.809
60.12000 133.109
60.29000 138.678
60.46000 135.995
60.63000 135.609
60.80000 122.940
60.97000 127.037
61.14000 129.504
61.31000 139.661
61.48000 152.891
61.65000 253.405
61.82000 214.519
61.99000 149.376
62.16000 143.672
62.33000 156.920
62.50000 141.583
62.67000 139.622
62.84000 151.050
63.01000 149.179
63.18000 151.928
63.35000 156.757
63.52000 142.010
63.69000 149.931
63.86000 163.631
64.03000 158.867
64.20000 151.344
64.37000 168.826
64.54000 164.546
64.71000 173.169
64.88000 180.766
65.05000 188.205
65.22000 201.400
65.39000 263.791
65.56000 365.333
65.73000 625.237
65.90000 1085.122
66.07000 389.874
66.24000 303.928
66.41000 433.621
66.58000 334.071
66.75000 312.547
66.92000 322.945
67.09000 348.949
67.26000 371.357
67.43000 418.685
67.60000 433.180
67.77000 465.974
67.94000 486.704
68.11000 565.732
68.28000 609.632
68.45000 704.990
68.62000 1007.999
68.79000 1788.429
68.96000 10365.845
69.13000 57112.523
69.30000 34983.664
69.47000 9369.244
69.64000 1319.961
69.81000 844.553
69.98000 668.142
70.00000 683.243