File: XRD/XRD/22-09-2025 Dep 2/XY Data/BTO_Mapping_Theta2Theta_22-09-2025_001_40_-40-000_0-000.xy
20.00000 581.128
20.17000 562.826
20.34000 592.916
20.51000 565.542
20.68000 571.910
20.85000 572.607
21.02000 567.598
21.19000 573.847
21.36000 609.173
21.53000 600.334
21.70000 743.328
21.87000 1161.572
22.04000 1138.096
22.21000 740.248
22.38000 595.715
22.55000 554.495
22.72000 525.267
22.89000 496.714
23.06000 536.359
23.23000 525.299
23.40000 517.969
23.57000 514.791
23.74000 521.334
23.91000 517.301
24.08000 516.584
24.25000 496.729
24.42000 490.299
24.59000 500.550
24.76000 497.356
24.93000 486.673
25.10000 486.055
25.27000 478.901
25.44000 480.370
25.61000 497.132
25.78000 471.329
25.95000 469.936
26.12000 453.402
26.29000 466.158
26.46000 461.026
26.63000 471.395
26.80000 468.023
26.97000 462.546
27.14000 460.651
27.31000 456.160
27.48000 454.758
27.65000 448.855
27.82000 453.304
27.99000 450.541
28.16000 457.387
28.33000 462.720
28.50000 421.828
28.67000 454.969
28.84000 440.429
29.01000 441.348
29.18000 430.104
29.35000 424.519
29.52000 440.786
29.69000 424.139
29.86000 472.817
30.03000 454.641
30.20000 440.711
30.37000 429.556
30.54000 457.235
30.71000 465.277
30.88000 536.603
31.05000 1336.829
31.22000 4229.780
31.39000 2823.849
31.56000 861.886
31.73000 541.893
31.90000 468.845
32.07000 418.517
32.24000 428.326
32.41000 406.889
32.58000 391.201
32.75000 391.843
32.92000 433.950
33.09000 402.009
33.26000 359.764
33.43000 340.714
33.60000 353.488
33.77000 348.024
33.94000 343.240
34.11000 331.507
34.28000 361.152
34.45000 342.391
34.62000 344.061
34.79000 324.425
34.96000 333.541
35.13000 333.217
35.30000 325.693
35.47000 314.453
35.64000 313.281
35.81000 323.045
35.98000 314.089
36.15000 312.086
36.32000 331.427
36.49000 319.228
36.66000 323.729
36.83000 336.609
37.00000 341.710
37.17000 332.591
37.34000 316.623
37.51000 315.395
37.68000 308.300
37.85000 323.026
38.02000 314.044
38.19000 359.377
38.36000 431.173
38.53000 501.220
38.70000 457.322
38.87000 355.802
39.04000 310.557
39.21000 288.884
39.38000 281.069
39.55000 280.291
39.72000 273.804
39.89000 272.595
40.06000 270.251
40.23000 271.407
40.40000 270.323
40.57000 275.065
40.74000 268.228
40.91000 261.698
41.08000 271.519
41.25000 258.998
41.42000 253.080
41.59000 253.434
41.76000 247.280
41.93000 248.219
42.10000 260.462
42.27000 228.247
42.44000 252.843
42.61000 249.370
42.78000 237.692
42.95000 254.237
43.12000 245.382
43.29000 237.171
43.46000 242.092
43.63000 237.687
43.80000 248.440
43.97000 256.016
44.14000 250.990
44.31000 280.685
44.48000 370.454
44.65000 655.000
44.82000 876.714
44.99000 729.390
45.16000 488.481
45.33000 372.603
45.50000 304.739
45.67000 261.279
45.84000 240.319
46.01000 223.950
46.18000 231.762
46.35000 213.689
46.52000 215.058
46.69000 197.869
46.86000 212.257
47.03000 199.682
47.20000 199.797
47.37000 192.176
47.54000 194.271
47.71000 182.807
47.88000 183.540
48.05000 187.991
48.22000 182.254
48.39000 190.814
48.56000 189.872
48.73000 185.465
48.90000 202.322
49.07000 180.961
49.24000 177.339
49.41000 192.732
49.58000 189.628
49.75000 173.277
49.92000 189.589
50.09000 188.479
50.26000 219.920
50.43000 296.957
50.60000 256.493
50.77000 205.623
50.94000 195.651
51.11000 187.869
51.28000 183.913
51.45000 179.731
51.62000 176.009
51.79000 165.315
51.96000 161.322
52.13000 171.250
52.30000 163.788
52.47000 168.586
52.64000 171.465
52.81000 165.148
52.98000 180.723
53.15000 174.215
53.32000 175.279
53.49000 170.460
53.66000 167.212
53.83000 152.118
54.00000 165.564
54.17000 168.210
54.34000 155.534
54.51000 169.720
54.68000 157.389
54.85000 164.968
55.02000 177.596
55.19000 191.081
55.36000 282.717
55.53000 595.082
55.70000 696.282
55.87000 451.590
56.04000 264.571
56.21000 224.482
56.38000 173.465
56.55000 173.353
56.72000 159.834
56.89000 160.134
57.06000 145.560
57.23000 150.469
57.40000 158.404
57.57000 150.267
57.74000 150.973
57.91000 154.942
58.08000 147.904
58.25000 144.979
58.42000 141.574
58.59000 135.913
58.76000 135.249
58.93000 148.999
59.10000 137.284
59.27000 143.227
59.44000 143.682
59.61000 136.646
59.78000 138.177
59.95000 129.245
60.12000 140.470
60.29000 141.970
60.46000 132.901
60.63000 142.549
60.80000 140.908
60.97000 152.843
61.14000 140.658
61.31000 150.736
61.48000 147.586
61.65000 322.685
61.82000 256.175
61.99000 160.734
62.16000 148.462
62.33000 140.221
62.50000 147.086
62.67000 147.458
62.84000 153.285
63.01000 151.927
63.18000 147.101
63.35000 150.011
63.52000 152.424
63.69000 151.726
63.86000 157.608
64.03000 161.718
64.20000 170.947
64.37000 163.517
64.54000 158.405
64.71000 179.896
64.88000 216.512
65.05000 336.692
65.22000 453.855
65.39000 414.122
65.56000 350.347
65.73000 660.213
65.90000 1430.012
66.07000 459.512
66.24000 344.687
66.41000 529.007
66.58000 382.491
66.75000 341.753
66.92000 372.076
67.09000 373.936
67.26000 425.081
67.43000 451.503
67.60000 468.657
67.77000 526.153
67.94000 581.551
68.11000 615.353
68.28000 707.316
68.45000 829.474
68.62000 1175.426
68.79000 2402.647
68.96000 15170.664
69.13000 84844.859
69.30000 52492.145
69.47000 14592.401
69.64000 1641.706
69.81000 1014.945
69.98000 811.356
70.00000 765.866