File: XRD/XRD/22-09-2025 Dep 2/XY Data/BTO_Mapping_Theta2Theta_22-09-2025_001_28_-12-470_15-637.xy
20.00000 559.256
20.17000 588.732
20.34000 551.529
20.51000 560.920
20.68000 539.257
20.85000 560.646
21.02000 561.176
21.19000 597.236
21.36000 567.089
21.53000 579.406
21.70000 592.843
21.87000 754.111
22.04000 884.410
22.21000 730.110
22.38000 616.482
22.55000 573.652
22.72000 505.380
22.89000 536.780
23.06000 511.670
23.23000 500.046
23.40000 522.445
23.57000 512.265
23.74000 497.905
23.91000 481.620
24.08000 491.563
24.25000 513.597
24.42000 482.464
24.59000 496.764
24.76000 487.621
24.93000 486.649
25.10000 484.004
25.27000 478.242
25.44000 486.155
25.61000 480.982
25.78000 479.632
25.95000 470.069
26.12000 470.036
26.29000 457.320
26.46000 464.509
26.63000 451.295
26.80000 467.242
26.97000 454.019
27.14000 442.295
27.31000 442.460
27.48000 452.304
27.65000 444.442
27.82000 433.950
27.99000 452.132
28.16000 425.798
28.33000 457.481
28.50000 431.812
28.67000 429.693
28.84000 417.696
29.01000 416.020
29.18000 412.727
29.35000 430.895
29.52000 420.750
29.69000 431.991
29.86000 429.284
30.03000 462.602
30.20000 454.880
30.37000 434.798
30.54000 440.885
30.71000 464.862
30.88000 507.263
31.05000 716.108
31.22000 1883.872
31.39000 3375.402
31.56000 1940.964
31.73000 785.912
31.90000 528.005
32.07000 437.598
32.24000 421.000
32.41000 405.404
32.58000 400.275
32.75000 399.390
32.92000 437.249
33.09000 376.662
33.26000 350.048
33.43000 345.124
33.60000 356.580
33.77000 349.022
33.94000 344.163
34.11000 345.948
34.28000 339.150
34.45000 345.288
34.62000 326.793
34.79000 321.422
34.96000 319.226
35.13000 312.151
35.30000 332.550
35.47000 306.279
35.64000 312.054
35.81000 308.710
35.98000 312.001
36.15000 311.801
36.32000 306.548
36.49000 321.291
36.66000 307.329
36.83000 294.900
37.00000 309.799
37.17000 304.117
37.34000 297.168
37.51000 300.579
37.68000 290.747
37.85000 304.031
38.02000 285.605
38.19000 331.413
38.36000 362.375
38.53000 613.036
38.70000 866.906
38.87000 618.062
39.04000 382.543
39.21000 325.514
39.38000 297.813
39.55000 281.273
39.72000 283.057
39.89000 279.865
40.06000 267.629
40.23000 265.769
40.40000 273.997
40.57000 243.591
40.74000 277.267
40.91000 268.476
41.08000 252.800
41.25000 240.091
41.42000 243.262
41.59000 231.829
41.76000 248.678
41.93000 244.368
42.10000 243.328
42.27000 237.404
42.44000 238.953
42.61000 241.298
42.78000 230.422
42.95000 247.940
43.12000 234.347
43.29000 228.673
43.46000 232.185
43.63000 229.297
43.80000 216.257
43.97000 232.273
44.14000 229.301
44.31000 241.245
44.48000 244.558
44.65000 289.028
44.82000 390.123
44.99000 504.635
45.16000 454.627
45.33000 375.573
45.50000 296.044
45.67000 252.499
45.84000 231.155
46.01000 218.855
46.18000 224.241
46.35000 190.986
46.52000 204.540
46.69000 202.543
46.86000 202.379
47.03000 195.616
47.20000 196.526
47.37000 187.360
47.54000 202.699
47.71000 186.617
47.88000 189.839
48.05000 198.724
48.22000 193.107
48.39000 188.420
48.56000 177.460
48.73000 191.981
48.90000 186.805
49.07000 185.848
49.24000 179.210
49.41000 177.079
49.58000 180.142
49.75000 181.437
49.92000 179.402
50.09000 175.406
50.26000 183.878
50.43000 211.010
50.60000 280.996
50.77000 260.355
50.94000 228.766
51.11000 199.546
51.28000 185.695
51.45000 184.045
51.62000 174.470
51.79000 174.196
51.96000 173.140
52.13000 156.876
52.30000 168.040
52.47000 158.713
52.64000 167.584
52.81000 165.613
52.98000 166.918
53.15000 172.790
53.32000 155.182
53.49000 160.823
53.66000 158.883
53.83000 163.066
54.00000 159.940
54.17000 161.231
54.34000 161.764
54.51000 148.060
54.68000 154.401
54.85000 169.853
55.02000 151.478
55.19000 173.392
55.36000 190.924
55.53000 230.310
55.70000 349.914
55.87000 536.590
56.04000 532.326
56.21000 329.591
56.38000 230.761
56.55000 190.766
56.72000 174.122
56.89000 159.589
57.06000 152.503
57.23000 139.115
57.40000 142.767
57.57000 153.943
57.74000 141.275
57.91000 156.028
58.08000 145.704
58.25000 153.906
58.42000 148.133
58.59000 141.021
58.76000 138.698
58.93000 141.779
59.10000 136.962
59.27000 140.351
59.44000 132.597
59.61000 140.051
59.78000 138.859
59.95000 136.197
60.12000 133.219
60.29000 124.091
60.46000 133.126
60.63000 135.652
60.80000 126.818
60.97000 140.894
61.14000 137.850
61.31000 142.782
61.48000 145.414
61.65000 367.228
61.82000 228.854
61.99000 152.874
62.16000 147.096
62.33000 151.319
62.50000 142.400
62.67000 147.092
62.84000 156.645
63.01000 143.212
63.18000 138.413
63.35000 159.133
63.52000 158.376
63.69000 158.951
63.86000 161.831
64.03000 170.070
64.20000 159.713
64.37000 168.847
64.54000 182.842
64.71000 187.812
64.88000 198.895
65.05000 218.375
65.22000 270.119
65.39000 333.545
65.56000 441.577
65.73000 967.961
65.90000 1646.715
66.07000 483.552
66.24000 383.906
66.41000 581.823
66.58000 420.864
66.75000 370.862
66.92000 387.836
67.09000 420.099
67.26000 446.565
67.43000 496.345
67.60000 497.044
67.77000 549.169
67.94000 629.859
68.11000 683.473
68.28000 773.813
68.45000 909.954
68.62000 1423.750
68.79000 2990.238
68.96000 25257.354
69.13000 96908.063
69.30000 55815.879
69.47000 12490.304
69.64000 1744.221
69.81000 1106.953
69.98000 863.349
70.00000 851.653