File: XRD/XRD/22-09-2025 Dep 2/XY Data/BTO_Mapping_Theta2Theta_22-09-2025_001_02_10-000_0-000.xy
20.00000 557.702
20.17000 553.855
20.34000 538.765
20.51000 547.790
20.68000 550.000
20.85000 546.661
21.02000 555.939
21.19000 555.438
21.36000 545.211
21.53000 546.985
21.70000 564.846
21.87000 649.929
22.04000 785.454
22.21000 737.613
22.38000 636.091
22.55000 570.452
22.72000 516.162
22.89000 523.112
23.06000 516.064
23.23000 521.979
23.40000 492.693
23.57000 513.406
23.74000 503.768
23.91000 519.609
24.08000 516.584
24.25000 506.679
24.42000 488.143
24.59000 489.935
24.76000 489.254
24.93000 483.434
25.10000 455.032
25.27000 471.737
25.44000 478.117
25.61000 447.385
25.78000 482.600
25.95000 449.824
26.12000 454.980
26.29000 471.400
26.46000 448.639
26.63000 441.770
26.80000 432.464
26.97000 445.290
27.14000 437.939
27.31000 419.311
27.48000 445.672
27.65000 447.102
27.82000 439.408
27.99000 431.690
28.16000 425.987
28.33000 429.359
28.50000 424.553
28.67000 416.323
28.84000 415.503
29.01000 411.068
29.18000 421.146
29.35000 417.995
29.52000 409.539
29.69000 385.226
29.86000 432.715
30.03000 454.644
30.20000 442.270
30.37000 423.866
30.54000 442.131
30.71000 462.402
30.88000 524.328
31.05000 738.012
31.22000 1761.157
31.39000 3402.777
31.56000 2052.754
31.73000 794.297
31.90000 533.679
32.07000 434.370
32.24000 426.220
32.41000 412.976
32.58000 380.781
32.75000 400.714
32.92000 408.273
33.09000 378.476
33.26000 363.977
33.43000 352.073
33.60000 351.739
33.77000 345.854
33.94000 339.490
34.11000 332.140
34.28000 340.135
34.45000 318.304
34.62000 332.555
34.79000 318.553
34.96000 337.429
35.13000 347.809
35.30000 302.620
35.47000 315.960
35.64000 318.042
35.81000 307.972
35.98000 316.624
36.15000 302.794
36.32000 304.915
36.49000 290.260
36.66000 307.207
36.83000 309.290
37.00000 302.263
37.17000 301.991
37.34000 295.887
37.51000 285.578
37.68000 309.989
37.85000 284.695
38.02000 311.674
38.19000 316.897
38.36000 341.632
38.53000 554.221
38.70000 1017.093
38.87000 765.288
39.04000 386.524
39.21000 295.224
39.38000 282.616
39.55000 261.610
39.72000 286.691
39.89000 266.351
40.06000 266.539
40.23000 257.287
40.40000 269.442
40.57000 252.775
40.74000 262.284
40.91000 245.682
41.08000 260.251
41.25000 233.045
41.42000 253.727
41.59000 250.494
41.76000 231.023
41.93000 241.052
42.10000 227.721
42.27000 238.325
42.44000 254.003
42.61000 236.771
42.78000 228.530
42.95000 232.884
43.12000 225.751
43.29000 229.835
43.46000 243.814
43.63000 219.824
43.80000 223.626
43.97000 237.488
44.14000 226.133
44.31000 223.523
44.48000 226.349
44.65000 255.517
44.82000 278.037
44.99000 361.678
45.16000 404.317
45.33000 335.559
45.50000 286.727
45.67000 263.544
45.84000 223.772
46.01000 232.332
46.18000 225.460
46.35000 224.805
46.52000 200.551
46.69000 186.319
46.86000 193.006
47.03000 192.464
47.20000 184.714
47.37000 185.817
47.54000 182.839
47.71000 179.505
47.88000 188.550
48.05000 188.655
48.22000 189.044
48.39000 190.187
48.56000 184.180
48.73000 184.139
48.90000 183.476
49.07000 167.334
49.24000 169.236
49.41000 174.030
49.58000 179.494
49.75000 180.933
49.92000 172.357
50.09000 181.670
50.26000 192.390
50.43000 205.199
50.60000 248.502
50.77000 250.921
50.94000 225.593
51.11000 194.654
51.28000 175.133
51.45000 176.741
51.62000 168.298
51.79000 163.476
51.96000 169.064
52.13000 165.815
52.30000 144.814
52.47000 166.089
52.64000 155.172
52.81000 170.197
52.98000 166.888
53.15000 162.307
53.32000 157.543
53.49000 165.257
53.66000 165.989
53.83000 154.807
54.00000 154.816
54.17000 154.721
54.34000 159.026
54.51000 163.474
54.68000 154.724
54.85000 164.713
55.02000 169.601
55.19000 173.254
55.36000 175.271
55.53000 202.531
55.70000 276.501
55.87000 464.932
56.04000 527.430
56.21000 357.823
56.38000 246.469
56.55000 191.253
56.72000 164.549
56.89000 161.413
57.06000 153.317
57.23000 146.822
57.40000 150.082
57.57000 139.381
57.74000 149.479
57.91000 130.431
58.08000 135.496
58.25000 136.364
58.42000 143.233
58.59000 135.587
58.76000 147.678
58.93000 142.124
59.10000 143.063
59.27000 139.408
59.44000 133.588
59.61000 146.775
59.78000 131.660
59.95000 124.709
60.12000 143.702
60.29000 133.045
60.46000 140.402
60.63000 135.959
60.80000 136.312
60.97000 135.671
61.14000 138.834
61.31000 141.768
61.48000 147.354
61.65000 289.095
61.82000 208.743
61.99000 145.064
62.16000 152.552
62.33000 134.963
62.50000 142.819
62.67000 151.067
62.84000 158.381
63.01000 137.879
63.18000 141.953
63.35000 159.700
63.52000 143.199
63.69000 149.046
63.86000 161.547
64.03000 165.104
64.20000 154.857
64.37000 154.583
64.54000 165.063
64.71000 173.151
64.88000 180.661
65.05000 200.887
65.22000 237.241
65.39000 313.769
65.56000 411.200
65.73000 773.850
65.90000 1270.292
66.07000 414.122
66.24000 349.363
66.41000 481.017
66.58000 359.152
66.75000 334.644
66.92000 341.736
67.09000 378.722
67.26000 413.694
67.43000 424.327
67.60000 455.802
67.77000 507.930
67.94000 537.767
68.11000 578.617
68.28000 666.430
68.45000 789.942
68.62000 1140.877
68.79000 2217.451
68.96000 16183.253
69.13000 69114.609
69.30000 40062.195
69.47000 9242.466
69.64000 1378.150
69.81000 896.883
69.98000 732.017
70.00000 724.940