File: XRD/XRD/22-09-2025 Dep 2/XY Data/BTO_Mapping_Theta2Theta_22-09-2025_001_04_30-000_0-000.xy
20.00000 583.733
20.17000 549.997
20.34000 557.440
20.51000 572.041
20.68000 546.929
20.85000 553.916
21.02000 559.210
21.19000 545.714
21.36000 589.690
21.53000 549.317
21.70000 565.860
21.87000 584.712
22.04000 650.908
22.21000 656.406
22.38000 583.761
22.55000 561.284
22.72000 544.533
22.89000 523.881
23.06000 539.720
23.23000 507.741
23.40000 511.824
23.57000 516.538
23.74000 511.696
23.91000 527.041
24.08000 534.956
24.25000 530.505
24.42000 500.515
24.59000 518.011
24.76000 481.103
24.93000 471.681
25.10000 483.688
25.27000 487.583
25.44000 463.684
25.61000 444.216
25.78000 462.414
25.95000 467.605
26.12000 462.407
26.29000 456.586
26.46000 454.312
26.63000 442.333
26.80000 448.588
26.97000 431.537
27.14000 441.164
27.31000 429.803
27.48000 454.695
27.65000 443.147
27.82000 418.917
27.99000 425.076
28.16000 440.161
28.33000 417.327
28.50000 423.002
28.67000 409.448
28.84000 409.983
29.01000 422.220
29.18000 408.381
29.35000 414.754
29.52000 410.761
29.69000 395.969
29.86000 420.406
30.03000 445.663
30.20000 432.291
30.37000 423.405
30.54000 424.250
30.71000 450.637
30.88000 465.921
31.05000 570.737
31.22000 1156.821
31.39000 2309.625
31.56000 1639.286
31.73000 752.139
31.90000 485.835
32.07000 436.727
32.24000 401.928
32.41000 370.908
32.58000 385.018
32.75000 376.455
32.92000 381.761
33.09000 360.917
33.26000 346.310
33.43000 361.082
33.60000 353.418
33.77000 343.369
33.94000 325.995
34.11000 339.897
34.28000 330.079
34.45000 324.919
34.62000 329.100
34.79000 328.977
34.96000 308.947
35.13000 318.903
35.30000 315.437
35.47000 300.206
35.64000 306.543
35.81000 307.843
35.98000 305.492
36.15000 292.016
36.32000 293.245
36.49000 304.173
36.66000 302.894
36.83000 303.117
37.00000 300.719
37.17000 293.535
37.34000 293.250
37.51000 278.179
37.68000 282.666
37.85000 269.561
38.02000 294.402
38.19000 312.887
38.36000 330.155
38.53000 474.996
38.70000 1004.118
38.87000 892.595
39.04000 412.909
39.21000 311.848
39.38000 295.049
39.55000 281.944
39.72000 259.978
39.89000 267.576
40.06000 265.440
40.23000 261.306
40.40000 254.209
40.57000 251.063
40.74000 249.118
40.91000 234.289
41.08000 265.687
41.25000 244.126
41.42000 233.325
41.59000 250.446
41.76000 234.704
41.93000 237.013
42.10000 225.920
42.27000 231.091
42.44000 249.776
42.61000 236.142
42.78000 239.660
42.95000 230.722
43.12000 217.652
43.29000 218.522
43.46000 232.531
43.63000 216.217
43.80000 224.890
43.97000 213.237
44.14000 228.681
44.31000 224.142
44.48000 226.804
44.65000 242.480
44.82000 245.774
44.99000 278.866
45.16000 313.573
45.33000 293.028
45.50000 279.272
45.67000 246.115
45.84000 242.675
46.01000 213.465
46.18000 210.449
46.35000 213.613
46.52000 204.346
46.69000 181.320
46.86000 198.354
47.03000 195.802
47.20000 194.618
47.37000 204.499
47.54000 184.750
47.71000 202.068
47.88000 184.760
48.05000 170.970
48.22000 186.260
48.39000 175.474
48.56000 184.635
48.73000 183.206
48.90000 184.311
49.07000 176.527
49.24000 169.211
49.41000 176.101
49.58000 177.810
49.75000 178.847
49.92000 179.472
50.09000 166.044
50.26000 171.928
50.43000 175.607
50.60000 214.188
50.77000 238.973
50.94000 219.789
51.11000 187.843
51.28000 169.868
51.45000 169.723
51.62000 162.576
51.79000 161.888
51.96000 160.752
52.13000 167.124
52.30000 151.938
52.47000 151.436
52.64000 161.328
52.81000 157.151
52.98000 155.605
53.15000 164.159
53.32000 161.025
53.49000 160.832
53.66000 149.830
53.83000 167.374
54.00000 144.817
54.17000 145.214
54.34000 158.763
54.51000 156.419
54.68000 148.145
54.85000 154.255
55.02000 163.459
55.19000 175.594
55.36000 159.406
55.53000 193.065
55.70000 237.067
55.87000 418.336
56.04000 574.620
56.21000 440.188
56.38000 258.917
56.55000 188.812
56.72000 171.475
56.89000 143.500
57.06000 159.183
57.23000 133.183
57.40000 154.234
57.57000 142.252
57.74000 145.804
57.91000 141.238
58.08000 147.788
58.25000 130.600
58.42000 135.915
58.59000 135.419
58.76000 133.287
58.93000 131.213
59.10000 134.829
59.27000 131.920
59.44000 138.880
59.61000 131.575
59.78000 134.226
59.95000 133.692
60.12000 132.783
60.29000 129.826
60.46000 147.280
60.63000 131.244
60.80000 131.029
60.97000 131.838
61.14000 142.829
61.31000 139.030
61.48000 152.527
61.65000 267.335
61.82000 197.807
61.99000 146.182
62.16000 142.801
62.33000 141.968
62.50000 145.611
62.67000 140.013
62.84000 155.903
63.01000 150.474
63.18000 145.304
63.35000 138.918
63.52000 146.862
63.69000 148.196
63.86000 149.587
64.03000 161.848
64.20000 153.684
64.37000 170.704
64.54000 172.210
64.71000 171.707
64.88000 178.395
65.05000 187.520
65.22000 202.495
65.39000 247.855
65.56000 340.901
65.73000 632.264
65.90000 1059.223
66.07000 387.950
66.24000 321.259
66.41000 436.642
66.58000 338.282
66.75000 313.499
66.92000 333.981
67.09000 348.525
67.26000 382.456
67.43000 400.505
67.60000 446.833
67.77000 457.030
67.94000 496.152
68.11000 553.768
68.28000 609.303
68.45000 720.114
68.62000 1013.800
68.79000 1817.131
68.96000 11607.984
69.13000 56461.234
69.30000 33491.082
69.47000 8263.432
69.64000 1231.073
69.81000 827.903
69.98000 640.635
70.00000 640.572