File: XRD/XRD/22-09-2025 Dep 2/XY Data/BTO_Mapping_Theta2Theta_22-09-2025_001_60_8-901_-38-997.xy
20.00000 582.558
20.17000 553.517
20.34000 564.238
20.51000 549.489
20.68000 544.039
20.85000 552.953
21.02000 552.740
21.19000 576.241
21.36000 562.518
21.53000 558.944
21.70000 581.239
21.87000 614.659
22.04000 749.437
22.21000 755.385
22.38000 640.139
22.55000 561.311
22.72000 523.030
22.89000 525.477
23.06000 506.695
23.23000 508.537
23.40000 519.108
23.57000 503.034
23.74000 491.334
23.91000 521.254
24.08000 515.391
24.25000 508.010
24.42000 490.243
24.59000 485.403
24.76000 480.580
24.93000 464.904
25.10000 478.840
25.27000 484.226
25.44000 488.744
25.61000 491.929
25.78000 463.566
25.95000 467.726
26.12000 458.302
26.29000 448.105
26.46000 463.414
26.63000 445.803
26.80000 435.435
26.97000 453.889
27.14000 452.743
27.31000 449.327
27.48000 427.131
27.65000 447.700
27.82000 452.793
27.99000 412.409
28.16000 437.718
28.33000 425.618
28.50000 414.765
28.67000 433.892
28.84000 420.569
29.01000 406.266
29.18000 401.838
29.35000 412.598
29.52000 397.610
29.69000 418.398
29.86000 434.956
30.03000 440.455
30.20000 449.939
30.37000 444.157
30.54000 442.945
30.71000 447.909
30.88000 501.929
31.05000 611.921
31.22000 1302.246
31.39000 3035.868
31.56000 2473.314
31.73000 992.751
31.90000 563.500
32.07000 453.294
32.24000 396.708
32.41000 388.916
32.58000 386.493
32.75000 391.145
32.92000 409.979
33.09000 394.315
33.26000 347.715
33.43000 344.669
33.60000 349.582
33.77000 329.901
33.94000 329.746
34.11000 343.593
34.28000 358.068
34.45000 339.542
34.62000 342.748
34.79000 317.863
34.96000 329.436
35.13000 313.691
35.30000 321.183
35.47000 317.532
35.64000 312.029
35.81000 308.280
35.98000 311.161
36.15000 322.576
36.32000 296.996
36.49000 317.269
36.66000 317.102
36.83000 283.260
37.00000 297.800
37.17000 296.965
37.34000 308.444
37.51000 297.448
37.68000 286.503
37.85000 293.526
38.02000 290.572
38.19000 297.333
38.36000 348.391
38.53000 452.338
38.70000 873.079
38.87000 867.126
39.04000 440.014
39.21000 319.755
39.38000 280.362
39.55000 269.680
39.72000 283.068
39.89000 268.329
40.06000 256.018
40.23000 257.425
40.40000 262.162
40.57000 258.506
40.74000 252.666
40.91000 245.817
41.08000 249.382
41.25000 237.969
41.42000 248.249
41.59000 234.991
41.76000 247.206
41.93000 245.110
42.10000 229.659
42.27000 246.007
42.44000 246.349
42.61000 229.722
42.78000 224.325
42.95000 232.097
43.12000 232.480
43.29000 226.168
43.46000 230.796
43.63000 219.643
43.80000 227.529
43.97000 236.895
44.14000 228.862
44.31000 226.397
44.48000 230.179
44.65000 238.726
44.82000 257.250
44.99000 333.480
45.16000 381.082
45.33000 365.126
45.50000 301.610
45.67000 265.878
45.84000 248.527
46.01000 214.218
46.18000 209.632
46.35000 208.828
46.52000 202.771
46.69000 202.860
46.86000 195.970
47.03000 187.761
47.20000 195.723
47.37000 187.474
47.54000 194.537
47.71000 190.969
47.88000 185.620
48.05000 178.464
48.22000 187.237
48.39000 187.029
48.56000 188.695
48.73000 184.330
48.90000 187.305
49.07000 188.543
49.24000 167.358
49.41000 175.459
49.58000 167.335
49.75000 179.406
49.92000 171.026
50.09000 187.566
50.26000 183.059
50.43000 190.000
50.60000 231.958
50.77000 276.979
50.94000 246.824
51.11000 204.779
51.28000 172.600
51.45000 176.852
51.62000 173.644
51.79000 163.972
51.96000 157.805
52.13000 163.675
52.30000 179.005
52.47000 162.153
52.64000 158.017
52.81000 153.333
52.98000 153.294
53.15000 163.750
53.32000 162.573
53.49000 160.173
53.66000 155.932
53.83000 165.001
54.00000 162.611
54.17000 151.316
54.34000 148.611
54.51000 158.495
54.68000 154.272
54.85000 154.510
55.02000 162.339
55.19000 158.750
55.36000 170.845
55.53000 189.755
55.70000 234.086
55.87000 369.320
56.04000 541.230
56.21000 399.456
56.38000 280.016
56.55000 207.277
56.72000 171.598
56.89000 154.417
57.06000 157.964
57.23000 145.306
57.40000 144.940
57.57000 143.975
57.74000 152.032
57.91000 139.520
58.08000 146.052
58.25000 134.554
58.42000 140.565
58.59000 126.486
58.76000 135.110
58.93000 146.014
59.10000 139.912
59.27000 137.254
59.44000 131.162
59.61000 130.645
59.78000 138.137
59.95000 132.047
60.12000 140.371
60.29000 138.589
60.46000 135.307
60.63000 128.525
60.80000 133.002
60.97000 138.699
61.14000 131.566
61.31000 133.495
61.48000 154.931
61.65000 275.179
61.82000 224.051
61.99000 150.491
62.16000 148.148
62.33000 138.556
62.50000 148.191
62.67000 143.761
62.84000 135.596
63.01000 153.577
63.18000 147.197
63.35000 150.338
63.52000 149.899
63.69000 155.351
63.86000 147.674
64.03000 161.570
64.20000 163.000
64.37000 170.279
64.54000 173.202
64.71000 166.085
64.88000 181.567
65.05000 195.752
65.22000 216.329
65.39000 274.314
65.56000 393.225
65.73000 638.969
65.90000 1203.663
66.07000 474.339
66.24000 340.473
66.41000 469.311
66.58000 378.523
66.75000 325.673
66.92000 342.243
67.09000 357.277
67.26000 403.813
67.43000 395.740
67.60000 441.059
67.77000 487.850
67.94000 527.095
68.11000 574.055
68.28000 632.135
68.45000 753.274
68.62000 1041.253
68.79000 1980.099
68.96000 9322.092
69.13000 65587.563
69.30000 44271.563
69.47000 13866.580
69.64000 1491.148
69.81000 917.760
69.98000 735.493
70.00000 714.794