File: XRD/XRD/22-09-2025 Dep 2/XY Data/BTO_Mapping_Theta2Theta_22-09-2025_001_59_6-676_-29-248.xy
20.00000 559.365
20.17000 573.493
20.34000 580.282
20.51000 567.042
20.68000 569.730
20.85000 541.596
21.02000 562.789
21.19000 558.203
21.36000 550.371
21.53000 580.748
21.70000 560.453
21.87000 635.113
22.04000 772.685
22.21000 732.412
22.38000 624.108
22.55000 545.229
22.72000 540.820
22.89000 535.855
23.06000 515.842
23.23000 502.939
23.40000 513.093
23.57000 514.009
23.74000 499.435
23.91000 508.830
24.08000 508.944
24.25000 496.712
24.42000 482.738
24.59000 500.632
24.76000 461.275
24.93000 493.618
25.10000 490.685
25.27000 476.526
25.44000 447.702
25.61000 466.938
25.78000 467.284
25.95000 456.954
26.12000 467.415
26.29000 443.072
26.46000 444.574
26.63000 458.485
26.80000 449.314
26.97000 447.709
27.14000 438.624
27.31000 424.408
27.48000 441.457
27.65000 447.089
27.82000 433.278
27.99000 435.543
28.16000 439.074
28.33000 428.707
28.50000 452.175
28.67000 438.257
28.84000 430.177
29.01000 415.723
29.18000 416.679
29.35000 407.113
29.52000 395.286
29.69000 410.921
29.86000 418.675
30.03000 444.281
30.20000 453.391
30.37000 424.547
30.54000 454.237
30.71000 457.543
30.88000 500.286
31.05000 662.279
31.22000 1480.792
31.39000 3241.392
31.56000 2325.539
31.73000 945.299
31.90000 543.737
32.07000 448.770
32.24000 406.471
32.41000 406.472
32.58000 393.744
32.75000 381.979
32.92000 431.072
33.09000 391.811
33.26000 359.067
33.43000 339.961
33.60000 332.357
33.77000 353.259
33.94000 340.745
34.11000 348.517
34.28000 341.932
34.45000 326.893
34.62000 336.623
34.79000 323.533
34.96000 313.090
35.13000 331.009
35.30000 325.288
35.47000 318.955
35.64000 310.048
35.81000 312.434
35.98000 298.895
36.15000 295.124
36.32000 302.432
36.49000 305.006
36.66000 294.254
36.83000 318.996
37.00000 307.850
37.17000 294.704
37.34000 287.534
37.51000 300.049
37.68000 293.060
37.85000 309.887
38.02000 288.757
38.19000 304.803
38.36000 329.229
38.53000 499.810
38.70000 953.424
38.87000 836.572
39.04000 411.979
39.21000 328.090
39.38000 285.225
39.55000 280.715
39.72000 262.174
39.89000 267.272
40.06000 265.046
40.23000 270.711
40.40000 256.315
40.57000 250.887
40.74000 262.746
40.91000 242.108
41.08000 241.017
41.25000 243.860
41.42000 254.629
41.59000 245.843
41.76000 243.205
41.93000 232.804
42.10000 245.549
42.27000 237.909
42.44000 247.818
42.61000 225.659
42.78000 224.524
42.95000 237.205
43.12000 241.873
43.29000 230.280
43.46000 230.614
43.63000 231.552
43.80000 234.209
43.97000 222.421
44.14000 228.601
44.31000 235.308
44.48000 235.569
44.65000 240.962
44.82000 278.355
44.99000 351.438
45.16000 398.823
45.33000 359.694
45.50000 305.284
45.67000 258.993
45.84000 239.784
46.01000 232.263
46.18000 225.328
46.35000 211.344
46.52000 199.180
46.69000 197.611
46.86000 184.891
47.03000 197.939
47.20000 192.393
47.37000 199.085
47.54000 171.293
47.71000 192.093
47.88000 170.613
48.05000 193.807
48.22000 185.081
48.39000 185.609
48.56000 189.671
48.73000 180.710
48.90000 167.644
49.07000 181.562
49.24000 183.989
49.41000 165.327
49.58000 173.686
49.75000 178.560
49.92000 186.470
50.09000 179.910
50.26000 178.393
50.43000 192.107
50.60000 222.554
50.77000 263.365
50.94000 233.582
51.11000 190.548
51.28000 189.708
51.45000 181.523
51.62000 169.128
51.79000 153.011
51.96000 181.691
52.13000 155.203
52.30000 163.722
52.47000 153.379
52.64000 161.855
52.81000 157.278
52.98000 165.787
53.15000 159.350
53.32000 166.646
53.49000 159.863
53.66000 161.776
53.83000 158.755
54.00000 156.850
54.17000 147.025
54.34000 151.872
54.51000 164.008
54.68000 155.152
54.85000 155.980
55.02000 160.023
55.19000 167.372
55.36000 173.800
55.53000 202.615
55.70000 247.617
55.87000 438.056
56.04000 549.089
56.21000 411.303
56.38000 250.302
56.55000 190.638
56.72000 162.726
56.89000 159.273
57.06000 144.376
57.23000 150.717
57.40000 139.500
57.57000 147.574
57.74000 144.002
57.91000 142.949
58.08000 142.639
58.25000 139.475
58.42000 139.706
58.59000 133.448
58.76000 149.658
58.93000 136.201
59.10000 142.503
59.27000 138.268
59.44000 139.349
59.61000 137.988
59.78000 135.437
59.95000 136.408
60.12000 145.156
60.29000 125.631
60.46000 126.625
60.63000 131.118
60.80000 133.406
60.97000 133.600
61.14000 137.846
61.31000 145.415
61.48000 145.167
61.65000 292.522
61.82000 225.151
61.99000 143.151
62.16000 147.215
62.33000 146.362
62.50000 146.541
62.67000 143.703
62.84000 146.037
63.01000 154.824
63.18000 148.982
63.35000 140.443
63.52000 151.070
63.69000 158.275
63.86000 150.405
64.03000 153.455
64.20000 168.462
64.37000 155.201
64.54000 165.513
64.71000 171.845
64.88000 184.030
65.05000 200.446
65.22000 227.322
65.39000 287.855
65.56000 392.378
65.73000 674.756
65.90000 1252.306
66.07000 461.518
66.24000 342.470
66.41000 486.775
66.58000 372.127
66.75000 338.677
66.92000 345.845
67.09000 393.630
67.26000 384.979
67.43000 432.323
67.60000 458.041
67.77000 502.567
67.94000 533.755
68.11000 586.462
68.28000 667.664
68.45000 751.439
68.62000 1108.465
68.79000 2107.483
68.96000 11637.005
69.13000 68505.914
69.30000 44065.336
69.47000 12678.439
69.64000 1490.647
69.81000 898.728
69.98000 792.578
70.00000 758.290