File: XRD/XRD/22-09-2025 Dep 2/XY Data/BTO_Mapping_Theta2Theta_22-09-2025_001_09_27-029_13-017.xy
20.00000 563.224
20.17000 534.768
20.34000 553.226
20.51000 549.096
20.68000 546.031
20.85000 548.021
21.02000 561.171
21.19000 552.340
21.36000 559.932
21.53000 549.439
21.70000 561.661
21.87000 600.716
22.04000 695.235
22.21000 669.597
22.38000 625.682
22.55000 537.703
22.72000 539.331
22.89000 522.289
23.06000 498.037
23.23000 517.518
23.40000 504.725
23.57000 523.003
23.74000 537.880
23.91000 527.451
24.08000 517.982
24.25000 504.344
24.42000 512.441
24.59000 499.901
24.76000 484.625
24.93000 489.912
25.10000 472.020
25.27000 471.075
25.44000 468.873
25.61000 452.529
25.78000 445.372
25.95000 468.505
26.12000 450.891
26.29000 456.046
26.46000 451.197
26.63000 450.699
26.80000 461.471
26.97000 457.825
27.14000 427.949
27.31000 440.870
27.48000 423.863
27.65000 433.753
27.82000 413.929
27.99000 418.941
28.16000 412.547
28.33000 424.679
28.50000 432.845
28.67000 415.347
28.84000 423.230
29.01000 408.331
29.18000 427.719
29.35000 407.798
29.52000 427.492
29.69000 413.910
29.86000 399.921
30.03000 420.219
30.20000 423.304
30.37000 430.080
30.54000 415.863
30.71000 450.567
30.88000 462.840
31.05000 587.119
31.22000 1233.712
31.39000 2399.399
31.56000 1695.986
31.73000 742.915
31.90000 519.919
32.07000 427.954
32.24000 415.772
32.41000 388.607
32.58000 374.294
32.75000 373.918
32.92000 382.896
33.09000 361.473
33.26000 345.914
33.43000 347.230
33.60000 332.178
33.77000 328.156
33.94000 331.110
34.11000 333.007
34.28000 338.872
34.45000 340.658
34.62000 342.190
34.79000 322.984
34.96000 327.910
35.13000 312.310
35.30000 326.750
35.47000 317.104
35.64000 308.228
35.81000 304.007
35.98000 302.711
36.15000 299.844
36.32000 309.022
36.49000 279.496
36.66000 306.757
36.83000 315.090
37.00000 294.631
37.17000 295.252
37.34000 281.783
37.51000 287.304
37.68000 280.745
37.85000 300.801
38.02000 285.055
38.19000 293.640
38.36000 322.628
38.53000 482.722
38.70000 969.829
38.87000 879.500
39.04000 401.742
39.21000 306.216
39.38000 262.079
39.55000 285.352
39.72000 296.509
39.89000 258.308
40.06000 270.842
40.23000 253.298
40.40000 254.835
40.57000 236.252
40.74000 252.064
40.91000 253.761
41.08000 246.724
41.25000 247.347
41.42000 245.296
41.59000 220.791
41.76000 234.550
41.93000 235.214
42.10000 253.053
42.27000 236.374
42.44000 243.579
42.61000 240.076
42.78000 232.479
42.95000 227.045
43.12000 220.958
43.29000 219.518
43.46000 227.309
43.63000 233.043
43.80000 212.797
43.97000 226.745
44.14000 218.952
44.31000 222.371
44.48000 228.375
44.65000 230.450
44.82000 266.882
44.99000 297.892
45.16000 321.593
45.33000 312.401
45.50000 270.717
45.67000 258.305
45.84000 240.637
46.01000 213.368
46.18000 213.965
46.35000 198.059
46.52000 211.305
46.69000 204.292
46.86000 199.110
47.03000 205.309
47.20000 195.271
47.37000 194.540
47.54000 176.282
47.71000 184.583
47.88000 183.843
48.05000 187.725
48.22000 180.921
48.39000 170.056
48.56000 181.441
48.73000 178.942
48.90000 177.463
49.07000 181.067
49.24000 185.242
49.41000 175.338
49.58000 184.839
49.75000 169.320
49.92000 168.960
50.09000 175.969
50.26000 172.905
50.43000 177.000
50.60000 220.509
50.77000 245.947
50.94000 227.584
51.11000 204.576
51.28000 178.868
51.45000 175.325
51.62000 162.017
51.79000 171.248
51.96000 163.116
52.13000 166.425
52.30000 169.155
52.47000 165.166
52.64000 163.160
52.81000 148.646
52.98000 158.778
53.15000 156.844
53.32000 150.597
53.49000 175.328
53.66000 149.677
53.83000 154.722
54.00000 159.239
54.17000 154.824
54.34000 152.733
54.51000 166.997
54.68000 151.217
54.85000 162.022
55.02000 153.804
55.19000 157.958
55.36000 155.355
55.53000 185.676
55.70000 234.196
55.87000 427.104
56.04000 558.911
56.21000 399.931
56.38000 265.279
56.55000 183.618
56.72000 164.172
56.89000 150.747
57.06000 141.681
57.23000 143.905
57.40000 135.997
57.57000 142.548
57.74000 143.813
57.91000 148.209
58.08000 138.936
58.25000 131.021
58.42000 127.879
58.59000 136.486
58.76000 136.145
58.93000 131.715
59.10000 142.409
59.27000 120.349
59.44000 128.906
59.61000 137.569
59.78000 133.677
59.95000 142.227
60.12000 131.160
60.29000 131.058
60.46000 124.893
60.63000 133.509
60.80000 132.188
60.97000 134.263
61.14000 139.586
61.31000 136.840
61.48000 147.912
61.65000 272.004
61.82000 191.019
61.99000 140.711
62.16000 144.232
62.33000 137.011
62.50000 135.344
62.67000 145.598
62.84000 153.343
63.01000 152.925
63.18000 150.091
63.35000 140.164
63.52000 155.640
63.69000 151.473
63.86000 145.458
64.03000 153.325
64.20000 155.082
64.37000 165.615
64.54000 166.663
64.71000 174.697
64.88000 174.976
65.05000 190.926
65.22000 210.525
65.39000 259.042
65.56000 355.515
65.73000 649.435
65.90000 1081.961
66.07000 379.736
66.24000 312.457
66.41000 441.198
66.58000 345.521
66.75000 314.853
66.92000 337.630
67.09000 359.680
67.26000 386.125
67.43000 400.283
67.60000 451.836
67.77000 456.568
67.94000 510.444
68.11000 554.951
68.28000 635.059
68.45000 710.193
68.62000 1004.617
68.79000 1910.559
68.96000 12607.496
69.13000 57647.016
69.30000 33822.484
69.47000 8156.188
69.64000 1260.551
69.81000 835.148
69.98000 687.331
70.00000 667.216