File: XRD/XRD/22-09-2025 Dep 2/XY Data/BTO_Mapping_Theta2Theta_22-09-2025_001_56_-11-126_-48-746.xy
20.00000 559.982
20.17000 543.715
20.34000 558.004
20.51000 554.445
20.68000 553.709
20.85000 548.252
21.02000 530.358
21.19000 544.510
21.36000 545.334
21.53000 527.032
21.70000 518.538
21.87000 531.952
22.04000 515.724
22.21000 500.814
22.38000 508.391
22.55000 503.580
22.72000 518.818
22.89000 486.261
23.06000 507.516
23.23000 523.923
23.40000 493.488
23.57000 494.412
23.74000 493.220
23.91000 502.629
24.08000 485.035
24.25000 490.779
24.42000 476.590
24.59000 484.741
24.76000 488.667
24.93000 464.000
25.10000 465.068
25.27000 469.611
25.44000 463.418
25.61000 446.547
25.78000 443.169
25.95000 456.251
26.12000 439.274
26.29000 454.762
26.46000 443.079
26.63000 425.421
26.80000 437.081
26.97000 434.627
27.14000 416.523
27.31000 420.587
27.48000 423.937
27.65000 423.525
27.82000 438.157
27.99000 406.620
28.16000 422.105
28.33000 417.710
28.50000 400.960
28.67000 394.551
28.84000 410.268
29.01000 402.356
29.18000 415.746
29.35000 398.237
29.52000 369.500
29.69000 387.548
29.86000 370.453
30.03000 390.873
30.20000 387.235
30.37000 378.647
30.54000 366.132
30.71000 369.612
30.88000 379.003
31.05000 371.614
31.22000 349.946
31.39000 353.540
31.56000 365.385
31.73000 367.206
31.90000 357.508
32.07000 336.835
32.24000 352.066
32.41000 363.219
32.58000 339.999
32.75000 351.904
32.92000 366.951
33.09000 351.651
33.26000 340.376
33.43000 333.888
33.60000 334.375
33.77000 330.890
33.94000 331.434
34.11000 313.877
34.28000 324.445
34.45000 325.166
34.62000 316.298
34.79000 309.459
34.96000 309.213
35.13000 313.051
35.30000 319.229
35.47000 315.381
35.64000 318.050
35.81000 292.428
35.98000 296.694
36.15000 309.189
36.32000 291.843
36.49000 288.528
36.66000 266.283
36.83000 263.183
37.00000 288.076
37.17000 273.977
37.34000 277.459
37.51000 282.281
37.68000 265.459
37.85000 269.436
38.02000 279.367
38.19000 265.046
38.36000 279.557
38.53000 266.761
38.70000 253.603
38.87000 269.034
39.04000 256.278
39.21000 263.275
39.38000 257.810
39.55000 256.209
39.72000 252.234
39.89000 254.681
40.06000 261.161
40.23000 249.989
40.40000 249.944
40.57000 257.763
40.74000 240.661
40.91000 251.292
41.08000 236.395
41.25000 227.895
41.42000 242.830
41.59000 242.639
41.76000 223.575
41.93000 229.077
42.10000 244.310
42.27000 221.321
42.44000 221.181
42.61000 222.399
42.78000 223.181
42.95000 219.481
43.12000 222.962
43.29000 221.507
43.46000 206.672
43.63000 211.674
43.80000 212.087
43.97000 220.459
44.14000 213.083
44.31000 218.055
44.48000 201.908
44.65000 209.391
44.82000 206.699
44.99000 206.335
45.16000 216.503
45.33000 194.323
45.50000 204.947
45.67000 189.176
45.84000 192.024
46.01000 194.385
46.18000 190.846
46.35000 187.820
46.52000 191.350
46.69000 193.353
46.86000 188.106
47.03000 186.193
47.20000 188.158
47.37000 186.474
47.54000 187.709
47.71000 188.392
47.88000 175.753
48.05000 176.183
48.22000 173.413
48.39000 193.970
48.56000 174.112
48.73000 168.211
48.90000 165.736
49.07000 163.594
49.24000 171.959
49.41000 163.587
49.58000 161.695
49.75000 168.547
49.92000 159.861
50.09000 168.964
50.26000 170.004
50.43000 165.262
50.60000 155.756
50.77000 174.630
50.94000 155.123
51.11000 165.054
51.28000 161.413
51.45000 151.637
51.62000 154.792
51.79000 154.673
51.96000 160.895
52.13000 157.259
52.30000 155.461
52.47000 155.110
52.64000 148.504
52.81000 157.694
52.98000 155.686
53.15000 149.469
53.32000 144.716
53.49000 153.519
53.66000 155.003
53.83000 147.745
54.00000 152.982
54.17000 144.771
54.34000 150.162
54.51000 150.950
54.68000 147.246
54.85000 148.010
55.02000 142.956
55.19000 149.462
55.36000 138.956
55.53000 139.450
55.70000 131.338
55.87000 140.195
56.04000 128.713
56.21000 139.780
56.38000 139.766
56.55000 138.797
56.72000 142.382
56.89000 134.422
57.06000 130.065
57.23000 137.902
57.40000 142.143
57.57000 133.137
57.74000 138.707
57.91000 127.591
58.08000 128.114
58.25000 130.862
58.42000 135.637
58.59000 120.164
58.76000 123.971
58.93000 143.352
59.10000 130.276
59.27000 141.517
59.44000 127.353
59.61000 126.455
59.78000 130.062
59.95000 131.192
60.12000 137.864
60.29000 123.369
60.46000 125.172
60.63000 128.858
60.80000 126.065
60.97000 134.678
61.14000 131.759
61.31000 140.117
61.48000 131.952
61.65000 220.944
61.82000 206.944
61.99000 147.275
62.16000 135.115
62.33000 135.797
62.50000 137.445
62.67000 145.008
62.84000 139.240
63.01000 149.196
63.18000 159.276
63.35000 147.759
63.52000 145.497
63.69000 146.579
63.86000 148.463
64.03000 148.823
64.20000 153.384
64.37000 151.520
64.54000 173.443
64.71000 161.046
64.88000 177.666
65.05000 172.436
65.22000 177.459
65.39000 179.708
65.56000 221.559
65.73000 405.069
65.90000 869.577
66.07000 356.153
66.24000 281.528
66.41000 389.207
66.58000 329.938
66.75000 295.777
66.92000 310.809
67.09000 331.461
67.26000 352.994
67.43000 395.635
67.60000 399.107
67.77000 447.864
67.94000 478.672
68.11000 515.856
68.28000 578.695
68.45000 678.354
68.62000 887.079
68.79000 1555.588
68.96000 6644.657
69.13000 48298.531
69.30000 34482.082
69.47000 11665.249
69.64000 1248.260
69.81000 830.474
69.98000 631.177
70.00000 627.737