File: XRD/XRD/22-09-2025 Dep 2/XY Data/BTO_Mapping_Theta2Theta_22-09-2025_001_31_-31-174_39-092.xy
20.00000 569.820
20.17000 582.329
20.34000 564.433
20.51000 529.683
20.68000 568.599
20.85000 539.604
21.02000 525.586
21.19000 521.173
21.36000 526.243
21.53000 535.019
21.70000 510.223
21.87000 534.402
22.04000 525.122
22.21000 539.864
22.38000 521.150
22.55000 505.272
22.72000 521.669
22.89000 507.170
23.06000 511.080
23.23000 504.342
23.40000 515.798
23.57000 489.311
23.74000 479.456
23.91000 473.827
24.08000 500.449
24.25000 484.988
24.42000 479.726
24.59000 462.445
24.76000 460.318
24.93000 466.011
25.10000 463.946
25.27000 460.326
25.44000 453.713
25.61000 482.210
25.78000 448.129
25.95000 456.965
26.12000 429.069
26.29000 439.401
26.46000 429.644
26.63000 423.851
26.80000 441.054
26.97000 439.072
27.14000 411.224
27.31000 413.947
27.48000 418.489
27.65000 409.003
27.82000 402.381
27.99000 411.682
28.16000 399.620
28.33000 403.999
28.50000 403.727
28.67000 400.565
28.84000 396.741
29.01000 408.440
29.18000 391.310
29.35000 375.352
29.52000 381.209
29.69000 382.718
29.86000 383.531
30.03000 368.359
30.20000 372.679
30.37000 346.012
30.54000 372.203
30.71000 362.478
30.88000 354.781
31.05000 351.774
31.22000 349.110
31.39000 353.510
31.56000 363.140
31.73000 357.037
31.90000 342.826
32.07000 334.046
32.24000 344.137
32.41000 351.296
32.58000 349.301
32.75000 337.541
32.92000 341.542
33.09000 326.468
33.26000 327.068
33.43000 324.137
33.60000 332.453
33.77000 320.106
33.94000 329.544
34.11000 320.664
34.28000 306.123
34.45000 303.840
34.62000 310.934
34.79000 300.757
34.96000 308.256
35.13000 294.559
35.30000 305.483
35.47000 282.332
35.64000 293.599
35.81000 284.791
35.98000 293.891
36.15000 282.301
36.32000 307.530
36.49000 290.313
36.66000 289.176
36.83000 278.409
37.00000 280.955
37.17000 273.314
37.34000 278.890
37.51000 271.306
37.68000 268.318
37.85000 260.970
38.02000 282.601
38.19000 264.824
38.36000 259.350
38.53000 263.955
38.70000 258.251
38.87000 247.633
39.04000 263.824
39.21000 251.963
39.38000 260.510
39.55000 246.633
39.72000 252.142
39.89000 228.066
40.06000 251.998
40.23000 229.064
40.40000 231.638
40.57000 235.549
40.74000 236.201
40.91000 220.087
41.08000 242.805
41.25000 228.746
41.42000 221.749
41.59000 223.464
41.76000 221.274
41.93000 225.250
42.10000 219.107
42.27000 219.818
42.44000 213.975
42.61000 216.948
42.78000 215.656
42.95000 220.595
43.12000 219.590
43.29000 207.744
43.46000 194.123
43.63000 212.075
43.80000 202.154
43.97000 205.679
44.14000 211.768
44.31000 210.615
44.48000 201.306
44.65000 182.917
44.82000 203.951
44.99000 194.053
45.16000 187.050
45.33000 188.461
45.50000 194.152
45.67000 185.665
45.84000 190.569
46.01000 191.476
46.18000 198.394
46.35000 188.552
46.52000 188.756
46.69000 195.506
46.86000 193.846
47.03000 179.432
47.20000 176.377
47.37000 174.836
47.54000 175.053
47.71000 184.785
47.88000 173.975
48.05000 192.984
48.22000 182.329
48.39000 173.778
48.56000 178.486
48.73000 180.023
48.90000 178.075
49.07000 170.602
49.24000 181.170
49.41000 175.863
49.58000 183.632
49.75000 168.627
49.92000 179.247
50.09000 176.015
50.26000 184.593
50.43000 180.870
50.60000 175.448
50.77000 164.786
50.94000 175.742
51.11000 173.461
51.28000 164.944
51.45000 173.343
51.62000 176.467
51.79000 170.162
51.96000 172.064
52.13000 169.294
52.30000 173.580
52.47000 182.914
52.64000 182.672
52.81000 165.025
52.98000 182.229
53.15000 156.635
53.32000 167.876
53.49000 184.668
53.66000 181.717
53.83000 175.451
54.00000 186.181
54.17000 179.229
54.34000 175.177
54.51000 182.032
54.68000 181.651
54.85000 179.715
55.02000 180.892
55.19000 182.937
55.36000 195.898
55.53000 187.533
55.70000 174.623
55.87000 192.273
56.04000 189.846
56.21000 199.659
56.38000 184.517
56.55000 186.861
56.72000 189.647
56.89000 202.151
57.06000 191.298
57.23000 185.263
57.40000 203.662
57.57000 188.027
57.74000 193.965
57.91000 193.139
58.08000 204.076
58.25000 204.855
58.42000 207.677
58.59000 222.458
58.76000 203.986
58.93000 209.528
59.10000 208.208
59.27000 215.990
59.44000 222.456
59.61000 212.736
59.78000 222.316
59.95000 223.665
60.12000 227.407
60.29000 213.242
60.46000 205.901
60.63000 229.668
60.80000 221.534
60.97000 222.201
61.14000 234.964
61.31000 228.790
61.48000 238.593
61.65000 228.782
61.82000 238.877
61.99000 243.653
62.16000 240.985
62.33000 261.305
62.50000 237.036
62.67000 248.027
62.84000 239.894
63.01000 238.680
63.18000 251.089
63.35000 270.110
63.52000 254.645
63.69000 264.317
63.86000 258.059
64.03000 268.091
64.20000 275.333
64.37000 297.555
64.54000 305.951
64.71000 306.364
64.88000 307.268
65.05000 302.740
65.22000 281.967
65.39000 294.071
65.56000 300.867
65.73000 296.081
65.90000 343.015
66.07000 312.101
66.24000 302.653
66.41000 303.211
66.58000 311.861
66.75000 319.761
66.92000 325.805
67.09000 317.618
67.26000 333.289
67.43000 338.768
67.60000 343.929
67.77000 344.614
67.94000 351.119
68.11000 341.112
68.28000 351.757
68.45000 346.553
68.62000 378.513
68.79000 395.595
68.96000 619.769
69.13000 2220.629
69.30000 1771.070
69.47000 952.226
69.64000 404.612
69.81000 403.253
69.98000 404.141
70.00000 388.817