File: XRD/XRD/22-09-2025 Dep 2/XY Data/BTO_Mapping_Theta2Theta_22-09-2025_001_61_11-126_-48-746.xy
20.00000 821.257
20.17000 821.760
20.34000 807.321
20.51000 810.437
20.68000 801.640
20.85000 775.107
21.02000 752.639
21.19000 766.865
21.36000 739.615
21.53000 735.478
21.70000 713.502
21.87000 719.675
22.04000 712.461
22.21000 736.889
22.38000 697.802
22.55000 702.550
22.72000 694.825
22.89000 678.816
23.06000 680.617
23.23000 658.514
23.40000 649.139
23.57000 654.275
23.74000 646.469
23.91000 643.139
24.08000 648.319
24.25000 607.768
24.42000 623.120
24.59000 616.837
24.76000 611.372
24.93000 616.292
25.10000 594.791
25.27000 600.428
25.44000 588.359
25.61000 590.736
25.78000 544.575
25.95000 594.974
26.12000 565.260
26.29000 563.606
26.46000 560.965
26.63000 530.177
26.80000 540.073
26.97000 523.554
27.14000 542.165
27.31000 511.028
27.48000 518.118
27.65000 520.877
27.82000 523.572
27.99000 499.041
28.16000 491.659
28.33000 509.268
28.50000 469.567
28.67000 493.878
28.84000 487.097
29.01000 467.513
29.18000 476.530
29.35000 476.300
29.52000 469.156
29.69000 450.410
29.86000 450.640
30.03000 457.122
30.20000 453.116
30.37000 449.348
30.54000 433.779
30.71000 451.597
30.88000 429.086
31.05000 442.723
31.22000 417.630
31.39000 417.293
31.56000 428.100
31.73000 421.215
31.90000 402.660
32.07000 402.950
32.24000 407.082
32.41000 399.017
32.58000 391.087
32.75000 394.417
32.92000 415.160
33.09000 415.322
33.26000 372.273
33.43000 386.869
33.60000 370.464
33.77000 365.875
33.94000 347.993
34.11000 359.826
34.28000 363.042
34.45000 363.815
34.62000 356.172
34.79000 355.477
34.96000 348.510
35.13000 359.003
35.30000 329.882
35.47000 341.663
35.64000 340.105
35.81000 329.169
35.98000 332.644
36.15000 317.875
36.32000 328.425
36.49000 335.203
36.66000 331.770
36.83000 313.932
37.00000 336.050
37.17000 308.694
37.34000 310.608
37.51000 315.101
37.68000 303.400
37.85000 304.847
38.02000 315.121
38.19000 295.770
38.36000 292.612
38.53000 296.383
38.70000 289.223
38.87000 286.976
39.04000 274.867
39.21000 278.893
39.38000 292.131
39.55000 281.537
39.72000 283.413
39.89000 271.834
40.06000 274.091
40.23000 266.935
40.40000 264.473
40.57000 259.043
40.74000 269.579
40.91000 268.076
41.08000 252.938
41.25000 258.916
41.42000 256.422
41.59000 262.803
41.76000 263.678
41.93000 246.601
42.10000 242.157
42.27000 255.018
42.44000 243.117
42.61000 244.307
42.78000 256.308
42.95000 238.599
43.12000 237.063
43.29000 241.764
43.46000 236.018
43.63000 234.430
43.80000 245.759
43.97000 230.254
44.14000 230.102
44.31000 222.255
44.48000 222.351
44.65000 234.415
44.82000 225.053
44.99000 221.193
45.16000 219.413
45.33000 217.427
45.50000 213.141
45.67000 216.732
45.84000 220.277
46.01000 209.870
46.18000 212.128
46.35000 210.538
46.52000 202.355
46.69000 219.082
46.86000 200.161
47.03000 207.754
47.20000 198.010
47.37000 202.558
47.54000 192.718
47.71000 211.771
47.88000 186.265
48.05000 201.386
48.22000 190.295
48.39000 183.316
48.56000 190.718
48.73000 194.883
48.90000 189.700
49.07000 198.812
49.24000 186.044
49.41000 178.039
49.58000 180.898
49.75000 184.807
49.92000 185.509
50.09000 171.410
50.26000 186.061
50.43000 163.924
50.60000 177.074
50.77000 185.414
50.94000 164.362
51.11000 175.637
51.28000 179.013
51.45000 168.031
51.62000 181.194
51.79000 166.210
51.96000 177.382
52.13000 160.030
52.30000 161.230
52.47000 161.477
52.64000 171.924
52.81000 164.120
52.98000 164.538
53.15000 167.340
53.32000 166.016
53.49000 161.673
53.66000 162.593
53.83000 162.498
54.00000 156.180
54.17000 157.399
54.34000 156.482
54.51000 164.472
54.68000 162.249
54.85000 159.021
55.02000 151.603
55.19000 152.734
55.36000 149.236
55.53000 146.412
55.70000 149.746
55.87000 152.189
56.04000 141.592
56.21000 149.547
56.38000 159.928
56.55000 144.082
56.72000 145.507
56.89000 154.285
57.06000 140.197
57.23000 154.398
57.40000 142.438
57.57000 149.603
57.74000 134.945
57.91000 143.803
58.08000 137.425
58.25000 141.702
58.42000 144.348
58.59000 143.034
58.76000 149.953
58.93000 144.112
59.10000 141.932
59.27000 144.969
59.44000 137.518
59.61000 142.194
59.78000 137.515
59.95000 129.326
60.12000 140.139
60.29000 147.800
60.46000 144.203
60.63000 129.436
60.80000 139.841
60.97000 143.606
61.14000 136.461
61.31000 142.553
61.48000 145.239
61.65000 264.029
61.82000 224.736
61.99000 144.780
62.16000 145.752
62.33000 147.075
62.50000 149.585
62.67000 148.687
62.84000 142.781
63.01000 137.804
63.18000 154.660
63.35000 156.409
63.52000 176.710
63.69000 165.607
63.86000 171.651
64.03000 173.911
64.20000 167.329
64.37000 175.389
64.54000 180.408
64.71000 195.133
64.88000 191.232
65.05000 192.047
65.22000 219.742
65.39000 227.965
65.56000 249.041
65.73000 427.143
65.90000 989.949
66.07000 390.074
66.24000 329.671
66.41000 448.778
66.58000 383.186
66.75000 343.130
66.92000 371.196
67.09000 383.466
67.26000 413.230
67.43000 449.964
67.60000 483.375
67.77000 501.417
67.94000 555.680
68.11000 600.630
68.28000 665.404
68.45000 749.445
68.62000 985.481
68.79000 1841.069
68.96000 6997.746
69.13000 55372.039
69.30000 36942.367
69.47000 11683.549
69.64000 1411.228
69.81000 924.125
69.98000 746.375
70.00000 720.791