File: XRD/XRD/22-09-2025 Dep 2/XY Data/BTO_Mapping_Theta2Theta_22-09-2025_001_64_18-705_-23-455.xy
20.00000 566.301
20.17000 582.159
20.34000 578.954
20.51000 566.930
20.68000 560.696
20.85000 544.795
21.02000 587.303
21.19000 554.435
21.36000 549.407
21.53000 544.872
21.70000 567.783
21.87000 621.994
22.04000 701.948
22.21000 690.274
22.38000 632.787
22.55000 561.409
22.72000 533.284
22.89000 527.789
23.06000 518.798
23.23000 520.472
23.40000 524.400
23.57000 532.192
23.74000 539.237
23.91000 495.260
24.08000 523.287
24.25000 545.679
24.42000 488.654
24.59000 499.933
24.76000 482.209
24.93000 470.080
25.10000 462.428
25.27000 470.251
25.44000 462.485
25.61000 466.533
25.78000 466.274
25.95000 459.490
26.12000 447.993
26.29000 452.676
26.46000 457.588
26.63000 446.213
26.80000 452.278
26.97000 452.632
27.14000 447.095
27.31000 436.292
27.48000 440.406
27.65000 419.970
27.82000 435.687
27.99000 422.113
28.16000 434.947
28.33000 422.586
28.50000 424.825
28.67000 414.809
28.84000 417.598
29.01000 415.969
29.18000 409.698
29.35000 411.839
29.52000 414.065
29.69000 403.439
29.86000 426.761
30.03000 440.021
30.20000 447.909
30.37000 432.993
30.54000 424.974
30.71000 441.135
30.88000 483.962
31.05000 622.276
31.22000 1302.611
31.39000 2858.400
31.56000 2052.222
31.73000 836.097
31.90000 522.961
32.07000 452.060
32.24000 415.423
32.41000 388.903
32.58000 385.681
32.75000 383.985
32.92000 417.217
33.09000 372.291
33.26000 350.968
33.43000 350.016
33.60000 332.984
33.77000 323.460
33.94000 318.980
34.11000 335.777
34.28000 343.764
34.45000 322.211
34.62000 334.677
34.79000 311.242
34.96000 319.969
35.13000 300.003
35.30000 294.673
35.47000 312.531
35.64000 305.374
35.81000 317.251
35.98000 298.101
36.15000 306.147
36.32000 298.286
36.49000 298.455
36.66000 306.071
36.83000 294.665
37.00000 297.660
37.17000 311.207
37.34000 298.959
37.51000 297.447
37.68000 281.733
37.85000 298.619
38.02000 304.862
38.19000 332.985
38.36000 324.202
38.53000 475.612
38.70000 973.535
38.87000 924.465
39.04000 436.465
39.21000 307.656
39.38000 287.033
39.55000 257.933
39.72000 272.737
39.89000 263.404
40.06000 268.467
40.23000 263.517
40.40000 255.500
40.57000 261.627
40.74000 245.970
40.91000 261.902
41.08000 247.930
41.25000 261.133
41.42000 254.945
41.59000 245.133
41.76000 256.747
41.93000 239.874
42.10000 255.337
42.27000 238.262
42.44000 234.343
42.61000 242.558
42.78000 236.738
42.95000 235.898
43.12000 226.058
43.29000 236.727
43.46000 221.269
43.63000 236.222
43.80000 213.366
43.97000 218.843
44.14000 224.714
44.31000 212.644
44.48000 232.037
44.65000 242.259
44.82000 274.369
44.99000 323.424
45.16000 365.919
45.33000 337.433
45.50000 288.036
45.67000 252.509
45.84000 232.298
46.01000 214.579
46.18000 206.597
46.35000 207.347
46.52000 199.628
46.69000 195.919
46.86000 204.104
47.03000 197.880
47.20000 198.663
47.37000 190.846
47.54000 197.340
47.71000 190.738
47.88000 165.728
48.05000 195.935
48.22000 184.533
48.39000 183.039
48.56000 183.535
48.73000 182.036
48.90000 179.771
49.07000 180.249
49.24000 185.718
49.41000 169.010
49.58000 175.849
49.75000 168.113
49.92000 178.744
50.09000 169.294
50.26000 177.536
50.43000 188.249
50.60000 226.014
50.77000 257.376
50.94000 235.170
51.11000 198.024
51.28000 182.762
51.45000 171.101
51.62000 171.522
51.79000 159.724
51.96000 165.519
52.13000 158.470
52.30000 151.173
52.47000 149.105
52.64000 167.807
52.81000 159.710
52.98000 155.398
53.15000 163.616
53.32000 161.236
53.49000 153.738
53.66000 164.960
53.83000 158.624
54.00000 159.543
54.17000 155.439
54.34000 161.706
54.51000 155.332
54.68000 158.241
54.85000 146.953
55.02000 163.668
55.19000 166.051
55.36000 164.031
55.53000 190.829
55.70000 241.723
55.87000 394.915
56.04000 542.439
56.21000 385.107
56.38000 255.542
56.55000 187.040
56.72000 159.955
56.89000 160.820
57.06000 152.977
57.23000 147.524
57.40000 151.800
57.57000 143.872
57.74000 147.277
57.91000 136.596
58.08000 141.657
58.25000 141.541
58.42000 141.194
58.59000 136.408
58.76000 141.810
58.93000 134.762
59.10000 134.262
59.27000 141.520
59.44000 133.011
59.61000 125.693
59.78000 136.001
59.95000 132.120
60.12000 126.286
60.29000 134.927
60.46000 126.662
60.63000 129.002
60.80000 140.544
60.97000 127.367
61.14000 132.739
61.31000 135.484
61.48000 152.746
61.65000 272.200
61.82000 223.268
61.99000 141.427
62.16000 141.094
62.33000 139.338
62.50000 140.717
62.67000 144.166
62.84000 145.059
63.01000 143.400
63.18000 135.517
63.35000 153.200
63.52000 144.298
63.69000 142.927
63.86000 153.484
64.03000 160.632
64.20000 159.803
64.37000 170.837
64.54000 169.698
64.71000 186.623
64.88000 191.228
65.05000 186.043
65.22000 219.477
65.39000 276.859
65.56000 366.886
65.73000 638.454
65.90000 1137.118
66.07000 407.165
66.24000 298.969
66.41000 446.978
66.58000 356.678
66.75000 324.896
66.92000 332.738
67.09000 351.703
67.26000 374.148
67.43000 412.406
67.60000 437.976
67.77000 456.074
67.94000 516.914
68.11000 553.964
68.28000 640.990
68.45000 737.797
68.62000 1036.448
68.79000 1907.556
68.96000 10282.783
69.13000 60438.277
69.30000 38069.855
69.47000 10796.418
69.64000 1351.885
69.81000 857.384
69.98000 710.254
70.00000 688.949