File: XRD/XRD/22-09-2025 Dep 2/XY Data/BTO_Mapping_Theta2Theta_22-09-2025_001_10_36-039_17-355.xy
20.00000 570.026
20.17000 577.724
20.34000 557.203
20.51000 559.410
20.68000 552.268
20.85000 558.176
21.02000 520.555
21.19000 548.968
21.36000 539.783
21.53000 559.564
21.70000 551.724
21.87000 589.206
22.04000 640.956
22.21000 656.508
22.38000 603.317
22.55000 558.867
22.72000 489.667
22.89000 525.449
23.06000 525.021
23.23000 502.266
23.40000 525.237
23.57000 518.313
23.74000 505.903
23.91000 526.797
24.08000 531.463
24.25000 513.874
24.42000 488.934
24.59000 495.535
24.76000 485.771
24.93000 474.236
25.10000 467.302
25.27000 480.386
25.44000 448.682
25.61000 469.328
25.78000 463.229
25.95000 458.420
26.12000 462.844
26.29000 434.033
26.46000 470.983
26.63000 437.184
26.80000 433.511
26.97000 420.487
27.14000 451.361
27.31000 433.925
27.48000 439.009
27.65000 423.052
27.82000 418.877
27.99000 418.932
28.16000 438.042
28.33000 445.896
28.50000 409.596
28.67000 435.025
28.84000 420.690
29.01000 410.041
29.18000 414.183
29.35000 403.296
29.52000 400.439
29.69000 430.569
29.86000 407.399
30.03000 406.599
30.20000 413.449
30.37000 423.134
30.54000 416.069
30.71000 443.775
30.88000 459.718
31.05000 547.620
31.22000 956.185
31.39000 1930.459
31.56000 1511.104
31.73000 717.331
31.90000 495.353
32.07000 408.504
32.24000 378.387
32.41000 394.734
32.58000 387.693
32.75000 376.260
32.92000 366.956
33.09000 348.645
33.26000 335.783
33.43000 335.873
33.60000 350.369
33.77000 321.587
33.94000 315.717
34.11000 335.934
34.28000 342.800
34.45000 334.924
34.62000 333.733
34.79000 323.586
34.96000 323.739
35.13000 320.595
35.30000 311.660
35.47000 307.889
35.64000 304.958
35.81000 309.191
35.98000 298.125
36.15000 305.792
36.32000 294.036
36.49000 313.880
36.66000 299.601
36.83000 300.849
37.00000 316.894
37.17000 300.504
37.34000 277.545
37.51000 290.079
37.68000 299.639
37.85000 281.378
38.02000 281.111
38.19000 296.075
38.36000 319.231
38.53000 446.836
38.70000 909.506
38.87000 887.865
39.04000 435.359
39.21000 298.919
39.38000 285.089
39.55000 272.309
39.72000 272.579
39.89000 273.353
40.06000 258.659
40.23000 263.323
40.40000 246.564
40.57000 251.304
40.74000 247.894
40.91000 247.568
41.08000 261.329
41.25000 253.401
41.42000 241.077
41.59000 245.427
41.76000 228.555
41.93000 238.818
42.10000 250.965
42.27000 230.660
42.44000 239.050
42.61000 226.681
42.78000 237.191
42.95000 227.664
43.12000 225.863
43.29000 229.042
43.46000 221.138
43.63000 219.399
43.80000 230.251
43.97000 231.764
44.14000 231.177
44.31000 216.827
44.48000 225.800
44.65000 240.616
44.82000 253.442
44.99000 285.235
45.16000 314.899
45.33000 279.194
45.50000 273.260
45.67000 246.883
45.84000 224.789
46.01000 223.817
46.18000 212.219
46.35000 210.073
46.52000 196.739
46.69000 206.212
46.86000 204.634
47.03000 194.837
47.20000 196.066
47.37000 192.358
47.54000 183.507
47.71000 185.314
47.88000 178.555
48.05000 186.415
48.22000 178.449
48.39000 193.510
48.56000 177.728
48.73000 178.084
48.90000 179.938
49.07000 186.328
49.24000 180.428
49.41000 168.959
49.58000 182.173
49.75000 180.188
49.92000 175.625
50.09000 176.753
50.26000 174.008
50.43000 190.962
50.60000 206.408
50.77000 217.489
50.94000 216.246
51.11000 183.962
51.28000 172.825
51.45000 170.269
51.62000 162.438
51.79000 174.525
51.96000 158.570
52.13000 151.112
52.30000 158.425
52.47000 154.393
52.64000 163.441
52.81000 165.083
52.98000 154.151
53.15000 157.055
53.32000 164.117
53.49000 161.747
53.66000 155.633
53.83000 154.751
54.00000 168.881
54.17000 147.872
54.34000 151.894
54.51000 155.949
54.68000 161.626
54.85000 150.054
55.02000 147.693
55.19000 159.524
55.36000 168.277
55.53000 190.116
55.70000 241.675
55.87000 410.132
56.04000 602.976
56.21000 497.778
56.38000 281.147
56.55000 190.682
56.72000 165.017
56.89000 152.350
57.06000 151.792
57.23000 141.066
57.40000 140.053
57.57000 141.618
57.74000 132.972
57.91000 142.297
58.08000 135.232
58.25000 140.258
58.42000 137.036
58.59000 137.470
58.76000 148.217
58.93000 125.650
59.10000 131.573
59.27000 122.689
59.44000 141.719
59.61000 131.517
59.78000 134.368
59.95000 124.904
60.12000 128.259
60.29000 136.525
60.46000 133.926
60.63000 127.880
60.80000 127.998
60.97000 131.409
61.14000 136.532
61.31000 128.910
61.48000 143.846
61.65000 265.649
61.82000 215.137
61.99000 135.781
62.16000 136.678
62.33000 139.908
62.50000 139.892
62.67000 147.312
62.84000 140.300
63.01000 154.621
63.18000 142.854
63.35000 151.899
63.52000 143.353
63.69000 145.533
63.86000 152.461
64.03000 158.648
64.20000 162.037
64.37000 163.567
64.54000 159.473
64.71000 167.545
64.88000 183.256
65.05000 185.703
65.22000 210.639
65.39000 247.569
65.56000 303.165
65.73000 582.545
65.90000 1011.018
66.07000 376.080
66.24000 315.258
66.41000 415.905
66.58000 327.331
66.75000 306.692
66.92000 318.074
67.09000 359.452
67.26000 393.088
67.43000 399.454
67.60000 434.847
67.77000 444.479
67.94000 507.737
68.11000 549.731
68.28000 626.873
68.45000 716.180
68.62000 965.434
68.79000 1745.758
68.96000 10958.873
69.13000 54541.211
69.30000 32731.357
69.47000 8304.547
69.64000 1250.610
69.81000 840.096
69.98000 665.170
70.00000 663.874