File: XRD/XRD/22-09-2025 Dep 2/XY Data/BTO_Mapping_Theta2Theta_22-09-2025_001_71_45-048_-21-694.xy
20.00000 1062.700
20.17000 1032.462
20.34000 1042.900
20.51000 1036.858
20.68000 1033.403
20.85000 980.743
21.02000 990.063
21.19000 952.795
21.36000 984.251
21.53000 953.883
21.70000 945.757
21.87000 923.898
22.04000 924.957
22.21000 899.532
22.38000 894.625
22.55000 861.876
22.72000 861.964
22.89000 854.589
23.06000 856.904
23.23000 861.601
23.40000 848.850
23.57000 829.791
23.74000 839.404
23.91000 860.196
24.08000 836.279
24.25000 787.735
24.42000 796.929
24.59000 788.787
24.76000 753.672
24.93000 785.497
25.10000 772.214
25.27000 755.144
25.44000 731.630
25.61000 718.716
25.78000 697.792
25.95000 717.052
26.12000 731.021
26.29000 710.769
26.46000 704.703
26.63000 714.353
26.80000 682.015
26.97000 667.745
27.14000 678.498
27.31000 666.063
27.48000 656.737
27.65000 646.611
27.82000 636.906
27.99000 635.838
28.16000 641.133
28.33000 604.593
28.50000 622.555
28.67000 607.145
28.84000 606.657
29.01000 598.702
29.18000 599.071
29.35000 583.070
29.52000 577.386
29.69000 570.263
29.86000 573.194
30.03000 596.716
30.20000 563.258
30.37000 554.512
30.54000 556.652
30.71000 523.200
30.88000 527.592
31.05000 530.022
31.22000 538.296
31.39000 522.405
31.56000 508.978
31.73000 514.144
31.90000 503.991
32.07000 504.267
32.24000 498.740
32.41000 501.957
32.58000 507.333
32.75000 485.239
32.92000 480.669
33.09000 501.188
33.26000 473.799
33.43000 475.063
33.60000 457.687
33.77000 484.715
33.94000 460.850
34.11000 436.421
34.28000 467.595
34.45000 432.511
34.62000 436.720
34.79000 435.493
34.96000 424.918
35.13000 423.523
35.30000 447.937
35.47000 419.285
35.64000 407.354
35.81000 427.458
35.98000 401.511
36.15000 425.465
36.32000 396.525
36.49000 390.982
36.66000 406.486
36.83000 389.304
37.00000 417.614
37.17000 380.517
37.34000 365.750
37.51000 358.016
37.68000 373.433
37.85000 367.151
38.02000 345.338
38.19000 362.953
38.36000 362.318
38.53000 344.829
38.70000 368.012
38.87000 339.432
39.04000 339.769
39.21000 342.718
39.38000 354.260
39.55000 329.624
39.72000 347.079
39.89000 336.156
40.06000 324.370
40.23000 322.520
40.40000 330.691
40.57000 320.770
40.74000 314.200
40.91000 334.108
41.08000 323.017
41.25000 317.220
41.42000 308.204
41.59000 303.963
41.76000 309.185
41.93000 300.582
42.10000 313.651
42.27000 288.118
42.44000 305.962
42.61000 297.863
42.78000 285.616
42.95000 272.783
43.12000 292.081
43.29000 284.132
43.46000 274.235
43.63000 267.787
43.80000 275.012
43.97000 274.542
44.14000 264.967
44.31000 272.326
44.48000 266.196
44.65000 263.300
44.82000 265.743
44.99000 251.499
45.16000 255.015
45.33000 262.253
45.50000 245.240
45.67000 247.746
45.84000 247.363
46.01000 247.071
46.18000 245.407
46.35000 237.548
46.52000 236.366
46.69000 239.825
46.86000 236.197
47.03000 239.788
47.20000 237.514
47.37000 228.417
47.54000 229.263
47.71000 231.584
47.88000 221.119
48.05000 227.757
48.22000 235.069
48.39000 230.559
48.56000 225.800
48.73000 209.694
48.90000 209.609
49.07000 219.954
49.24000 217.808
49.41000 221.154
49.58000 207.781
49.75000 222.366
49.92000 209.109
50.09000 208.905
50.26000 208.037
50.43000 207.567
50.60000 208.485
50.77000 200.190
50.94000 208.528
51.11000 199.125
51.28000 201.554
51.45000 197.654
51.62000 206.321
51.79000 184.967
51.96000 190.250
52.13000 195.052
52.30000 196.514
52.47000 187.437
52.64000 195.512
52.81000 196.439
52.98000 195.965
53.15000 183.836
53.32000 187.784
53.49000 181.535
53.66000 195.740
53.83000 180.150
54.00000 182.199
54.17000 187.751
54.34000 172.766
54.51000 176.038
54.68000 173.033
54.85000 191.047
55.02000 178.146
55.19000 164.510
55.36000 176.351
55.53000 171.570
55.70000 178.270
55.87000 167.572
56.04000 169.196
56.21000 164.943
56.38000 171.174
56.55000 173.895
56.72000 162.799
56.89000 164.136
57.06000 167.357
57.23000 160.270
57.40000 176.680
57.57000 160.769
57.74000 162.976
57.91000 163.219
58.08000 155.452
58.25000 167.423
58.42000 162.024
58.59000 167.709
58.76000 150.962
58.93000 166.400
59.10000 170.970
59.27000 162.894
59.44000 152.531
59.61000 150.356
59.78000 147.115
59.95000 155.465
60.12000 153.900
60.29000 150.595
60.46000 157.974
60.63000 160.840
60.80000 164.127
60.97000 171.914
61.14000 160.217
61.31000 155.199
61.48000 156.817
61.65000 261.029
61.82000 193.113
61.99000 160.587
62.16000 171.847
62.33000 153.145
62.50000 166.261
62.67000 160.973
62.84000 169.442
63.01000 170.788
63.18000 163.329
63.35000 162.758
63.52000 162.244
63.69000 177.884
63.86000 181.564
64.03000 186.683
64.20000 173.709
64.37000 179.324
64.54000 190.901
64.71000 201.447
64.88000 192.044
65.05000 199.618
65.22000 203.045
65.39000 219.693
65.56000 237.216
65.73000 444.320
65.90000 856.517
66.07000 309.039
66.24000 282.243
66.41000 390.726
66.58000 323.797
66.75000 310.959
66.92000 320.424
67.09000 344.928
67.26000 372.468
67.43000 397.543
67.60000 410.143
67.77000 430.427
67.94000 473.404
68.11000 533.349
68.28000 592.927
68.45000 658.286
68.62000 910.894
68.79000 1582.534
68.96000 7856.240
69.13000 46040.473
69.30000 25798.299
69.47000 5182.603
69.64000 1081.760
69.81000 772.828
69.98000 649.513
70.00000 630.782