File: XRD/XRD/22-09-2025 Dep 2/XY Data/BTO_Mapping_Theta2Theta_22-09-2025_001_51_-31-174_-39-092.xy
20.00000 581.694
20.17000 565.001
20.34000 569.242
20.51000 547.866
20.68000 542.686
20.85000 528.294
21.02000 546.847
21.19000 528.668
21.36000 528.966
21.53000 505.758
21.70000 536.990
21.87000 511.316
22.04000 527.954
22.21000 521.138
22.38000 539.144
22.55000 513.761
22.72000 507.681
22.89000 499.087
23.06000 515.157
23.23000 503.906
23.40000 482.575
23.57000 477.105
23.74000 485.495
23.91000 473.060
24.08000 482.360
24.25000 458.126
24.42000 484.575
24.59000 482.811
24.76000 472.264
24.93000 447.913
25.10000 458.452
25.27000 454.338
25.44000 457.186
25.61000 477.543
25.78000 444.298
25.95000 440.205
26.12000 442.146
26.29000 443.474
26.46000 440.644
26.63000 422.069
26.80000 440.767
26.97000 443.850
27.14000 429.349
27.31000 421.437
27.48000 410.607
27.65000 402.237
27.82000 422.170
27.99000 407.942
28.16000 426.892
28.33000 418.704
28.50000 392.378
28.67000 402.280
28.84000 389.122
29.01000 387.204
29.18000 386.705
29.35000 395.260
29.52000 397.297
29.69000 378.824
29.86000 362.391
30.03000 375.582
30.20000 375.482
30.37000 376.873
30.54000 367.822
30.71000 373.279
30.88000 372.969
31.05000 365.855
31.22000 367.236
31.39000 350.990
31.56000 365.520
31.73000 342.118
31.90000 363.131
32.07000 354.200
32.24000 349.185
32.41000 332.992
32.58000 344.406
32.75000 331.537
32.92000 349.266
33.09000 341.453
33.26000 331.490
33.43000 321.937
33.60000 312.915
33.77000 320.825
33.94000 327.268
34.11000 318.655
34.28000 320.782
34.45000 321.605
34.62000 321.750
34.79000 308.924
34.96000 306.633
35.13000 309.062
35.30000 293.697
35.47000 308.256
35.64000 284.386
35.81000 303.766
35.98000 286.646
36.15000 294.708
36.32000 287.682
36.49000 284.911
36.66000 286.055
36.83000 294.867
37.00000 282.702
37.17000 270.567
37.34000 276.351
37.51000 266.311
37.68000 283.861
37.85000 246.655
38.02000 272.116
38.19000 247.848
38.36000 250.100
38.53000 262.228
38.70000 263.686
38.87000 255.598
39.04000 254.753
39.21000 271.744
39.38000 252.835
39.55000 254.612
39.72000 258.589
39.89000 239.285
40.06000 238.694
40.23000 238.655
40.40000 241.037
40.57000 240.864
40.74000 237.022
40.91000 242.605
41.08000 228.402
41.25000 233.622
41.42000 230.580
41.59000 230.473
41.76000 215.726
41.93000 230.980
42.10000 234.967
42.27000 235.479
42.44000 221.467
42.61000 235.340
42.78000 220.466
42.95000 205.537
43.12000 215.582
43.29000 220.994
43.46000 216.143
43.63000 206.978
43.80000 199.747
43.97000 202.942
44.14000 206.609
44.31000 206.341
44.48000 198.952
44.65000 189.242
44.82000 192.268
44.99000 189.766
45.16000 194.239
45.33000 194.144
45.50000 187.731
45.67000 185.811
45.84000 191.666
46.01000 181.019
46.18000 191.787
46.35000 188.036
46.52000 184.956
46.69000 194.535
46.86000 179.730
47.03000 180.362
47.20000 171.540
47.37000 172.437
47.54000 170.856
47.71000 176.298
47.88000 168.415
48.05000 172.219
48.22000 176.589
48.39000 174.166
48.56000 166.836
48.73000 158.567
48.90000 165.272
49.07000 159.413
49.24000 162.307
49.41000 161.775
49.58000 161.642
49.75000 170.444
49.92000 157.426
50.09000 153.972
50.26000 158.529
50.43000 163.416
50.60000 149.229
50.77000 133.030
50.94000 150.268
51.11000 151.587
51.28000 149.401
51.45000 151.075
51.62000 152.131
51.79000 151.566
51.96000 161.746
52.13000 156.321
52.30000 155.549
52.47000 145.186
52.64000 144.803
52.81000 143.017
52.98000 139.786
53.15000 140.315
53.32000 141.824
53.49000 141.769
53.66000 147.947
53.83000 144.025
54.00000 142.064
54.17000 133.562
54.34000 144.140
54.51000 138.574
54.68000 130.321
54.85000 126.153
55.02000 125.233
55.19000 140.009
55.36000 122.205
55.53000 128.453
55.70000 133.256
55.87000 125.053
56.04000 130.348
56.21000 133.161
56.38000 136.762
56.55000 126.575
56.72000 136.256
56.89000 129.678
57.06000 118.623
57.23000 126.806
57.40000 124.266
57.57000 124.951
57.74000 128.136
57.91000 126.172
58.08000 129.559
58.25000 124.699
58.42000 120.653
58.59000 126.161
58.76000 113.924
58.93000 117.994
59.10000 116.253
59.27000 117.019
59.44000 122.433
59.61000 127.413
59.78000 119.893
59.95000 116.612
60.12000 120.318
60.29000 107.307
60.46000 122.966
60.63000 111.649
60.80000 112.278
60.97000 113.184
61.14000 113.431
61.31000 118.072
61.48000 118.800
61.65000 158.470
61.82000 157.116
61.99000 114.951
62.16000 115.726
62.33000 131.104
62.50000 120.623
62.67000 105.329
62.84000 107.370
63.01000 135.754
63.18000 119.361
63.35000 118.581
63.52000 118.623
63.69000 121.803
63.86000 129.115
64.03000 121.671
64.20000 120.564
64.37000 132.480
64.54000 133.927
64.71000 129.396
64.88000 138.496
65.05000 135.419
65.22000 131.171
65.39000 136.341
65.56000 154.672
65.73000 194.662
65.90000 482.121
66.07000 247.010
66.24000 187.941
66.41000 239.946
66.58000 226.928
66.75000 197.385
66.92000 205.486
67.09000 213.507
67.26000 225.398
67.43000 227.464
67.60000 244.414
67.77000 270.367
67.94000 291.572
68.11000 289.040
68.28000 330.749
68.45000 363.008
68.62000 476.546
68.79000 777.625
68.96000 2642.428
69.13000 23867.742
69.30000 19950.715
69.47000 8195.871
69.64000 718.115
69.81000 455.794
69.98000 358.939
70.00000 359.272