File: XRD/XRD/22-09-2025 Dep 2/XY Data/BTO_Mapping_Theta2Theta_22-09-2025_001_70_36-039_-17-355.xy
20.00000 563.775
20.17000 555.615
20.34000 575.299
20.51000 571.011
20.68000 577.622
20.85000 553.483
21.02000 552.464
21.19000 560.547
21.36000 562.154
21.53000 549.752
21.70000 550.657
21.87000 581.354
22.04000 662.371
22.21000 665.560
22.38000 595.045
22.55000 543.403
22.72000 532.611
22.89000 518.635
23.06000 510.280
23.23000 501.374
23.40000 512.258
23.57000 518.129
23.74000 526.815
23.91000 550.267
24.08000 552.059
24.25000 516.655
24.42000 497.628
24.59000 499.282
24.76000 482.805
24.93000 473.667
25.10000 483.940
25.27000 456.593
25.44000 460.936
25.61000 458.668
25.78000 474.855
25.95000 456.042
26.12000 452.116
26.29000 463.028
26.46000 442.215
26.63000 475.288
26.80000 431.926
26.97000 466.762
27.14000 447.025
27.31000 443.965
27.48000 441.690
27.65000 448.292
27.82000 417.384
27.99000 420.101
28.16000 418.319
28.33000 426.840
28.50000 428.887
28.67000 433.907
28.84000 423.694
29.01000 412.005
29.18000 422.766
29.35000 413.098
29.52000 425.965
29.69000 423.829
29.86000 426.685
30.03000 426.803
30.20000 438.294
30.37000 418.244
30.54000 413.017
30.71000 421.220
30.88000 462.903
31.05000 533.226
31.22000 1043.445
31.39000 2048.199
31.56000 1646.037
31.73000 777.030
31.90000 501.268
32.07000 421.704
32.24000 398.204
32.41000 418.195
32.58000 365.832
32.75000 391.043
32.92000 384.145
33.09000 370.394
33.26000 351.132
33.43000 341.953
33.60000 354.045
33.77000 332.861
33.94000 342.165
34.11000 342.803
34.28000 354.032
34.45000 347.297
34.62000 337.339
34.79000 321.369
34.96000 319.845
35.13000 326.947
35.30000 304.949
35.47000 294.536
35.64000 316.330
35.81000 293.934
35.98000 302.485
36.15000 299.282
36.32000 298.818
36.49000 318.254
36.66000 297.193
36.83000 296.616
37.00000 290.901
37.17000 304.269
37.34000 303.083
37.51000 301.915
37.68000 301.597
37.85000 291.071
38.02000 295.743
38.19000 292.741
38.36000 325.729
38.53000 441.222
38.70000 904.325
38.87000 899.430
39.04000 430.935
39.21000 305.766
39.38000 286.384
39.55000 283.422
39.72000 260.545
39.89000 256.392
40.06000 255.862
40.23000 259.961
40.40000 249.585
40.57000 251.883
40.74000 256.982
40.91000 255.210
41.08000 243.586
41.25000 248.466
41.42000 249.792
41.59000 252.526
41.76000 231.946
41.93000 229.576
42.10000 230.338
42.27000 237.935
42.44000 232.393
42.61000 237.768
42.78000 236.660
42.95000 222.736
43.12000 230.106
43.29000 217.959
43.46000 234.621
43.63000 228.172
43.80000 232.193
43.97000 223.871
44.14000 238.713
44.31000 232.518
44.48000 237.574
44.65000 243.008
44.82000 252.350
44.99000 273.687
45.16000 298.359
45.33000 311.265
45.50000 262.843
45.67000 251.609
45.84000 220.897
46.01000 221.118
46.18000 211.492
46.35000 221.312
46.52000 200.545
46.69000 215.342
46.86000 211.488
47.03000 211.842
47.20000 191.957
47.37000 186.519
47.54000 182.246
47.71000 186.542
47.88000 184.583
48.05000 181.284
48.22000 183.016
48.39000 182.484
48.56000 173.582
48.73000 180.179
48.90000 187.856
49.07000 174.277
49.24000 169.624
49.41000 171.666
49.58000 173.519
49.75000 165.936
49.92000 173.067
50.09000 171.106
50.26000 171.608
50.43000 190.450
50.60000 203.408
50.77000 222.391
50.94000 211.938
51.11000 191.354
51.28000 179.697
51.45000 172.697
51.62000 173.497
51.79000 167.800
51.96000 164.690
52.13000 175.298
52.30000 163.005
52.47000 156.052
52.64000 160.925
52.81000 154.899
52.98000 151.888
53.15000 157.669
53.32000 156.230
53.49000 157.134
53.66000 147.464
53.83000 154.303
54.00000 149.938
54.17000 152.918
54.34000 156.063
54.51000 158.178
54.68000 163.141
54.85000 143.362
55.02000 145.096
55.19000 160.045
55.36000 173.659
55.53000 178.867
55.70000 224.307
55.87000 414.027
56.04000 598.545
56.21000 459.679
56.38000 268.621
56.55000 193.864
56.72000 169.808
56.89000 149.999
57.06000 150.715
57.23000 155.991
57.40000 136.593
57.57000 135.410
57.74000 156.716
57.91000 126.379
58.08000 142.274
58.25000 146.317
58.42000 137.953
58.59000 136.827
58.76000 126.954
58.93000 134.045
59.10000 138.646
59.27000 149.924
59.44000 144.212
59.61000 134.380
59.78000 133.015
59.95000 136.108
60.12000 142.232
60.29000 135.634
60.46000 136.058
60.63000 144.269
60.80000 134.340
60.97000 134.500
61.14000 137.577
61.31000 144.134
61.48000 152.197
61.65000 260.559
61.82000 195.377
61.99000 142.112
62.16000 146.797
62.33000 145.993
62.50000 136.649
62.67000 155.118
62.84000 131.963
63.01000 151.438
63.18000 127.348
63.35000 157.951
63.52000 148.565
63.69000 147.854
63.86000 159.546
64.03000 153.314
64.20000 154.977
64.37000 162.269
64.54000 170.492
64.71000 162.669
64.88000 181.808
65.05000 196.704
65.22000 208.770
65.39000 239.708
65.56000 297.304
65.73000 581.634
65.90000 1014.608
66.07000 392.129
66.24000 302.991
66.41000 427.123
66.58000 352.821
66.75000 317.011
66.92000 332.112
67.09000 335.797
67.26000 369.382
67.43000 389.358
67.60000 433.552
67.77000 447.416
67.94000 517.013
68.11000 550.207
68.28000 603.577
68.45000 700.164
68.62000 973.265
68.79000 1752.870
68.96000 9099.066
69.13000 54190.016
69.30000 33910.781
69.47000 9629.174
69.64000 1280.445
69.81000 836.514
69.98000 665.055
70.00000 672.581