File: XRD/XRD/22-09-2025 Dep 2/XY Data/BTO_Mapping_Theta2Theta_22-09-2025_001_44_-27-029_-13-017.xy
20.00000 583.609
20.17000 565.514
20.34000 560.072
20.51000 564.466
20.68000 539.913
20.85000 569.448
21.02000 566.085
21.19000 556.221
21.36000 570.444
21.53000 571.194
21.70000 624.856
21.87000 789.019
22.04000 869.860
22.21000 720.719
22.38000 599.071
22.55000 551.476
22.72000 543.427
22.89000 513.557
23.06000 510.457
23.23000 518.293
23.40000 510.923
23.57000 498.863
23.74000 491.906
23.91000 506.345
24.08000 512.178
24.25000 501.776
24.42000 474.929
24.59000 501.219
24.76000 498.413
24.93000 484.758
25.10000 497.695
25.27000 484.169
25.44000 494.540
25.61000 469.667
25.78000 472.068
25.95000 477.976
26.12000 449.431
26.29000 478.539
26.46000 460.394
26.63000 454.397
26.80000 478.901
26.97000 437.457
27.14000 455.759
27.31000 455.262
27.48000 446.195
27.65000 447.615
27.82000 444.354
27.99000 446.937
28.16000 443.495
28.33000 441.454
28.50000 427.011
28.67000 440.693
28.84000 425.912
29.01000 414.082
29.18000 415.900
29.35000 423.690
29.52000 400.776
29.69000 419.594
29.86000 464.364
30.03000 467.122
30.20000 450.953
30.37000 453.480
30.54000 440.070
30.71000 454.518
30.88000 504.126
31.05000 827.317
31.22000 3008.802
31.39000 4583.494
31.56000 2061.159
31.73000 744.172
31.90000 494.337
32.07000 422.016
32.24000 405.170
32.41000 408.650
32.58000 414.099
32.75000 391.363
32.92000 453.912
33.09000 407.671
33.26000 370.869
33.43000 368.969
33.60000 361.571
33.77000 346.883
33.94000 332.626
34.11000 323.338
34.28000 348.277
34.45000 325.793
34.62000 318.859
34.79000 323.188
34.96000 328.746
35.13000 322.724
35.30000 314.282
35.47000 308.859
35.64000 309.912
35.81000 322.422
35.98000 313.071
36.15000 309.831
36.32000 326.053
36.49000 306.050
36.66000 315.375
36.83000 310.848
37.00000 323.648
37.17000 305.416
37.34000 304.258
37.51000 309.860
37.68000 309.375
37.85000 313.883
38.02000 304.065
38.19000 335.925
38.36000 416.407
38.53000 598.135
38.70000 673.881
38.87000 475.492
39.04000 355.184
39.21000 313.571
39.38000 287.870
39.55000 277.475
39.72000 275.256
39.89000 275.801
40.06000 273.891
40.23000 277.266
40.40000 264.591
40.57000 286.292
40.74000 268.370
40.91000 266.363
41.08000 254.192
41.25000 250.950
41.42000 242.126
41.59000 240.925
41.76000 248.373
41.93000 255.122
42.10000 229.959
42.27000 254.585
42.44000 235.922
42.61000 252.799
42.78000 252.017
42.95000 234.535
43.12000 244.043
43.29000 229.179
43.46000 239.621
43.63000 238.983
43.80000 228.619
43.97000 241.227
44.14000 238.148
44.31000 246.931
44.48000 264.678
44.65000 337.862
44.82000 465.986
44.99000 521.389
45.16000 426.433
45.33000 334.019
45.50000 286.210
45.67000 245.061
45.84000 249.526
46.01000 214.110
46.18000 216.828
46.35000 213.170
46.52000 218.661
46.69000 208.770
46.86000 200.824
47.03000 211.749
47.20000 198.705
47.37000 205.849
47.54000 190.147
47.71000 173.193
47.88000 186.427
48.05000 195.763
48.22000 194.267
48.39000 187.230
48.56000 193.068
48.73000 191.163
48.90000 182.136
49.07000 199.594
49.24000 179.801
49.41000 191.961
49.58000 176.475
49.75000 184.432
49.92000 180.952
50.09000 184.134
50.26000 208.139
50.43000 248.316
50.60000 271.805
50.77000 277.466
50.94000 215.936
51.11000 202.651
51.28000 175.239
51.45000 175.134
51.62000 175.765
51.79000 166.050
51.96000 176.931
52.13000 173.809
52.30000 174.668
52.47000 170.275
52.64000 166.982
52.81000 166.559
52.98000 161.231
53.15000 161.739
53.32000 177.115
53.49000 159.349
53.66000 154.608
53.83000 170.738
54.00000 161.369
54.17000 169.257
54.34000 163.471
54.51000 162.885
54.68000 157.482
54.85000 173.482
55.02000 167.758
55.19000 173.601
55.36000 198.974
55.53000 295.783
55.70000 476.025
55.87000 531.707
56.04000 411.799
56.21000 263.297
56.38000 212.197
56.55000 184.218
56.72000 157.507
56.89000 156.535
57.06000 156.088
57.23000 144.823
57.40000 149.852
57.57000 148.114
57.74000 159.115
57.91000 140.890
58.08000 138.892
58.25000 143.086
58.42000 141.247
58.59000 143.242
58.76000 134.009
58.93000 139.892
59.10000 137.544
59.27000 129.618
59.44000 134.759
59.61000 126.835
59.78000 129.249
59.95000 122.782
60.12000 137.170
60.29000 131.990
60.46000 138.591
60.63000 143.854
60.80000 133.296
60.97000 142.291
61.14000 145.631
61.31000 137.948
61.48000 160.355
61.65000 349.162
61.82000 239.562
61.99000 149.586
62.16000 150.378
62.33000 140.611
62.50000 161.376
62.67000 150.446
62.84000 151.158
63.01000 151.776
63.18000 148.090
63.35000 145.265
63.52000 146.515
63.69000 157.435
63.86000 152.772
64.03000 161.566
64.20000 165.645
64.37000 171.068
64.54000 186.939
64.71000 191.541
64.88000 195.195
65.05000 232.138
65.22000 323.336
65.39000 434.262
65.56000 499.100
65.73000 866.884
65.90000 1571.259
66.07000 501.908
66.24000 375.530
66.41000 587.800
66.58000 426.067
66.75000 364.338
66.92000 371.387
67.09000 404.711
67.26000 433.353
67.43000 499.767
67.60000 530.331
67.77000 552.611
67.94000 604.405
68.11000 679.017
68.28000 748.171
68.45000 883.438
68.62000 1363.039
68.79000 2754.921
68.96000 18693.270
69.13000 95337.742
69.30000 58762.570
69.47000 15683.812
69.64000 1778.310
69.81000 1087.281
69.98000 868.582
70.00000 813.421