File: XRD/XRD/22-09-2025 Dep 2/XY Data/BTO_Mapping_Theta2Theta_22-09-2025_001_22_-2-225_9-749.xy
20.00000 593.985
20.17000 589.019
20.34000 574.362
20.51000 557.153
20.68000 559.670
20.85000 565.806
21.02000 556.565
21.19000 541.130
21.36000 587.481
21.53000 549.903
21.70000 611.220
21.87000 693.977
22.04000 854.570
22.21000 747.766
22.38000 646.406
22.55000 554.527
22.72000 520.297
22.89000 508.003
23.06000 506.050
23.23000 516.393
23.40000 501.071
23.57000 530.133
23.74000 497.114
23.91000 504.447
24.08000 506.002
24.25000 490.656
24.42000 480.584
24.59000 473.337
24.76000 472.070
24.93000 481.684
25.10000 472.692
25.27000 483.945
25.44000 468.588
25.61000 466.974
25.78000 459.244
25.95000 462.381
26.12000 457.614
26.29000 466.723
26.46000 463.500
26.63000 458.265
26.80000 446.965
26.97000 454.599
27.14000 460.595
27.31000 442.937
27.48000 432.714
27.65000 441.269
27.82000 432.972
27.99000 436.531
28.16000 453.378
28.33000 437.481
28.50000 421.451
28.67000 413.694
28.84000 431.006
29.01000 437.130
29.18000 426.610
29.35000 408.360
29.52000 419.417
29.69000 418.301
29.86000 424.244
30.03000 466.433
30.20000 458.518
30.37000 442.192
30.54000 442.396
30.71000 465.237
30.88000 522.389
31.05000 761.538
31.22000 1879.787
31.39000 3487.126
31.56000 2035.548
31.73000 824.852
31.90000 534.593
32.07000 433.659
32.24000 430.985
32.41000 392.665
32.58000 399.874
32.75000 397.767
32.92000 430.037
33.09000 375.281
33.26000 360.798
33.43000 350.630
33.60000 340.019
33.77000 339.913
33.94000 358.114
34.11000 342.322
34.28000 343.382
34.45000 328.712
34.62000 332.403
34.79000 325.809
34.96000 328.022
35.13000 318.015
35.30000 301.519
35.47000 310.825
35.64000 311.559
35.81000 305.990
35.98000 313.756
36.15000 305.923
36.32000 306.288
36.49000 296.642
36.66000 311.778
36.83000 290.970
37.00000 301.398
37.17000 297.719
37.34000 293.313
37.51000 290.223
37.68000 301.621
37.85000 292.271
38.02000 307.761
38.19000 323.226
38.36000 370.427
38.53000 576.028
38.70000 942.459
38.87000 703.354
39.04000 377.235
39.21000 296.513
39.38000 303.661
39.55000 259.853
39.72000 269.747
39.89000 276.053
40.06000 266.168
40.23000 261.544
40.40000 269.956
40.57000 263.868
40.74000 261.380
40.91000 259.620
41.08000 255.374
41.25000 240.736
41.42000 253.902
41.59000 258.318
41.76000 243.493
41.93000 243.789
42.10000 259.520
42.27000 233.657
42.44000 229.755
42.61000 229.557
42.78000 235.488
42.95000 228.041
43.12000 221.471
43.29000 231.619
43.46000 225.678
43.63000 223.521
43.80000 224.038
43.97000 223.675
44.14000 241.397
44.31000 228.182
44.48000 253.429
44.65000 273.558
44.82000 327.128
44.99000 471.112
45.16000 427.511
45.33000 349.785
45.50000 305.141
45.67000 266.065
45.84000 235.512
46.01000 224.647
46.18000 213.796
46.35000 201.170
46.52000 207.366
46.69000 198.498
46.86000 202.705
47.03000 198.209
47.20000 195.278
47.37000 193.580
47.54000 185.350
47.71000 185.147
47.88000 193.759
48.05000 190.790
48.22000 191.552
48.39000 183.459
48.56000 178.339
48.73000 170.927
48.90000 181.438
49.07000 187.098
49.24000 180.583
49.41000 172.942
49.58000 183.178
49.75000 169.441
49.92000 180.973
50.09000 177.928
50.26000 181.411
50.43000 199.782
50.60000 237.567
50.77000 261.603
50.94000 222.114
51.11000 208.618
51.28000 183.528
51.45000 184.980
51.62000 165.299
51.79000 167.574
51.96000 173.295
52.13000 158.235
52.30000 165.486
52.47000 156.794
52.64000 152.009
52.81000 153.509
52.98000 157.964
53.15000 153.403
53.32000 164.312
53.49000 169.858
53.66000 165.724
53.83000 151.770
54.00000 160.200
54.17000 156.548
54.34000 152.388
54.51000 161.250
54.68000 160.914
54.85000 159.003
55.02000 158.124
55.19000 168.727
55.36000 180.637
55.53000 221.241
55.70000 331.595
55.87000 523.027
56.04000 540.295
56.21000 378.975
56.38000 248.784
56.55000 203.212
56.72000 173.255
56.89000 157.419
57.06000 145.239
57.23000 150.842
57.40000 144.463
57.57000 145.599
57.74000 133.365
57.91000 143.394
58.08000 152.873
58.25000 140.031
58.42000 137.311
58.59000 139.458
58.76000 138.411
58.93000 145.103
59.10000 130.309
59.27000 126.570
59.44000 140.310
59.61000 130.409
59.78000 133.029
59.95000 133.943
60.12000 141.219
60.29000 127.955
60.46000 140.614
60.63000 131.731
60.80000 140.405
60.97000 131.689
61.14000 138.100
61.31000 126.614
61.48000 149.405
61.65000 326.594
61.82000 217.943
61.99000 145.220
62.16000 146.801
62.33000 144.551
62.50000 143.681
62.67000 142.010
62.84000 145.247
63.01000 152.037
63.18000 152.667
63.35000 147.083
63.52000 145.801
63.69000 151.852
63.86000 150.511
64.03000 156.735
64.20000 159.299
64.37000 154.250
64.54000 174.349
64.71000 183.831
64.88000 192.117
65.05000 207.634
65.22000 255.178
65.39000 337.209
65.56000 445.265
65.73000 859.205
65.90000 1403.916
66.07000 442.609
66.24000 383.858
66.41000 530.497
66.58000 389.834
66.75000 362.379
66.92000 367.857
67.09000 411.983
67.26000 427.154
67.43000 446.795
67.60000 487.580
67.77000 530.733
67.94000 577.360
68.11000 646.939
68.28000 725.953
68.45000 831.816
68.62000 1280.179
68.79000 2653.084
68.96000 21001.389
69.13000 82997.781
69.30000 48069.469
69.47000 10937.541
69.64000 1554.931
69.81000 1016.187
69.98000 819.615
70.00000 788.555