File: XRD/XRD/22-09-2025 Dep 2/XY Data/BTO_Mapping_Theta2Theta_22-09-2025_001_29_-18-705_23-455.xy
20.00000 565.790
20.17000 545.059
20.34000 551.676
20.51000 569.186
20.68000 558.095
20.85000 539.361
21.02000 564.528
21.19000 580.812
21.36000 554.030
21.53000 553.518
21.70000 628.643
21.87000 744.821
22.04000 890.041
22.21000 726.928
22.38000 603.908
22.55000 573.744
22.72000 527.436
22.89000 540.344
23.06000 521.336
23.23000 498.275
23.40000 514.928
23.57000 507.592
23.74000 492.702
23.91000 510.938
24.08000 517.795
24.25000 511.143
24.42000 493.778
24.59000 476.313
24.76000 477.858
24.93000 477.397
25.10000 478.256
25.27000 460.770
25.44000 474.925
25.61000 463.761
25.78000 474.776
25.95000 451.251
26.12000 468.511
26.29000 470.277
26.46000 450.815
26.63000 482.432
26.80000 458.733
26.97000 466.858
27.14000 444.697
27.31000 430.510
27.48000 453.339
27.65000 455.435
27.82000 435.476
27.99000 428.441
28.16000 440.507
28.33000 425.228
28.50000 406.003
28.67000 423.154
28.84000 423.394
29.01000 405.672
29.18000 414.766
29.35000 425.194
29.52000 408.069
29.69000 417.683
29.86000 432.081
30.03000 458.685
30.20000 452.581
30.37000 435.621
30.54000 441.692
30.71000 472.504
30.88000 488.423
31.05000 708.492
31.22000 1982.848
31.39000 3578.727
31.56000 2039.105
31.73000 812.331
31.90000 500.293
32.07000 438.144
32.24000 416.654
32.41000 407.749
32.58000 376.683
32.75000 403.259
32.92000 431.003
33.09000 392.695
33.26000 356.289
33.43000 355.765
33.60000 347.020
33.77000 343.227
33.94000 355.936
34.11000 334.202
34.28000 344.296
34.45000 342.962
34.62000 328.249
34.79000 315.854
34.96000 332.731
35.13000 315.422
35.30000 319.119
35.47000 310.472
35.64000 323.282
35.81000 314.133
35.98000 310.606
36.15000 311.586
36.32000 302.590
36.49000 312.180
36.66000 301.453
36.83000 306.102
37.00000 303.974
37.17000 317.120
37.34000 304.733
37.51000 301.101
37.68000 308.111
37.85000 298.803
38.02000 296.978
38.19000 332.788
38.36000 376.748
38.53000 592.109
38.70000 814.923
38.87000 562.052
39.04000 369.023
39.21000 304.975
39.38000 297.006
39.55000 287.805
39.72000 278.895
39.89000 271.953
40.06000 280.128
40.23000 266.941
40.40000 275.538
40.57000 256.712
40.74000 266.816
40.91000 246.929
41.08000 267.736
41.25000 254.232
41.42000 252.452
41.59000 244.965
41.76000 236.236
41.93000 262.834
42.10000 244.050
42.27000 237.865
42.44000 236.971
42.61000 235.918
42.78000 231.977
42.95000 234.557
43.12000 240.388
43.29000 232.412
43.46000 222.754
43.63000 236.047
43.80000 233.875
43.97000 238.351
44.14000 223.134
44.31000 240.564
44.48000 251.984
44.65000 286.605
44.82000 382.575
44.99000 516.582
45.16000 465.537
45.33000 341.842
45.50000 289.590
45.67000 261.526
45.84000 246.226
46.01000 223.669
46.18000 220.842
46.35000 204.764
46.52000 213.777
46.69000 195.472
46.86000 212.799
47.03000 187.091
47.20000 190.550
47.37000 190.292
47.54000 188.267
47.71000 196.741
47.88000 200.739
48.05000 193.804
48.22000 185.183
48.39000 184.741
48.56000 183.961
48.73000 179.517
48.90000 187.203
49.07000 184.850
49.24000 168.721
49.41000 186.633
49.58000 179.398
49.75000 197.461
49.92000 178.496
50.09000 185.359
50.26000 192.869
50.43000 228.641
50.60000 276.638
50.77000 281.856
50.94000 248.181
51.11000 211.278
51.28000 180.493
51.45000 172.268
51.62000 174.006
51.79000 169.816
51.96000 168.221
52.13000 162.866
52.30000 157.786
52.47000 158.111
52.64000 158.123
52.81000 158.587
52.98000 155.005
53.15000 159.111
53.32000 165.784
53.49000 162.211
53.66000 156.828
53.83000 169.817
54.00000 162.794
54.17000 165.980
54.34000 153.967
54.51000 165.225
54.68000 147.724
54.85000 161.149
55.02000 159.924
55.19000 177.173
55.36000 195.752
55.53000 234.612
55.70000 375.846
55.87000 578.430
56.04000 529.396
56.21000 331.477
56.38000 232.671
56.55000 198.315
56.72000 166.114
56.89000 160.665
57.06000 150.234
57.23000 158.462
57.40000 156.539
57.57000 142.316
57.74000 154.183
57.91000 136.930
58.08000 136.974
58.25000 147.997
58.42000 137.645
58.59000 138.574
58.76000 139.133
58.93000 127.880
59.10000 133.708
59.27000 139.496
59.44000 146.159
59.61000 138.205
59.78000 135.375
59.95000 139.601
60.12000 140.950
60.29000 135.809
60.46000 142.262
60.63000 140.983
60.80000 139.548
60.97000 136.193
61.14000 134.442
61.31000 141.669
61.48000 154.751
61.65000 360.913
61.82000 233.125
61.99000 146.213
62.16000 152.643
62.33000 139.230
62.50000 137.360
62.67000 155.202
62.84000 155.017
63.01000 144.451
63.18000 155.344
63.35000 150.166
63.52000 143.481
63.69000 158.869
63.86000 147.696
64.03000 159.920
64.20000 166.313
64.37000 171.837
64.54000 171.868
64.71000 180.516
64.88000 184.227
65.05000 223.319
65.22000 260.525
65.39000 362.036
65.56000 467.615
65.73000 979.155
65.90000 1615.090
66.07000 488.928
66.24000 386.893
66.41000 583.009
66.58000 410.502
66.75000 372.460
66.92000 389.348
67.09000 420.855
67.26000 438.520
67.43000 490.084
67.60000 500.175
67.77000 584.598
67.94000 624.732
68.11000 706.356
68.28000 773.499
68.45000 916.599
68.62000 1441.714
68.79000 2999.406
68.96000 25063.270
69.13000 97266.086
69.30000 55922.313
69.47000 12578.437
69.64000 1719.779
69.81000 1059.436
69.98000 836.629
70.00000 836.731