File: XRD/XRD/22-09-2025 Dep 2/XY Data/BTO_Mapping_Theta2Theta_22-09-2025_001_07_9-010_4-339.xy
20.00000 568.525
20.17000 558.576
20.34000 540.694
20.51000 552.163
20.68000 565.704
20.85000 562.712
21.02000 572.297
21.19000 544.618
21.36000 562.503
21.53000 564.945
21.70000 596.108
21.87000 634.355
22.04000 776.557
22.21000 735.286
22.38000 615.656
22.55000 571.750
22.72000 523.163
22.89000 550.568
23.06000 516.554
23.23000 515.592
23.40000 514.256
23.57000 490.558
23.74000 519.205
23.91000 510.135
24.08000 522.097
24.25000 499.524
24.42000 489.914
24.59000 495.534
24.76000 491.545
24.93000 474.496
25.10000 486.784
25.27000 478.864
25.44000 477.704
25.61000 469.713
25.78000 458.598
25.95000 473.006
26.12000 476.234
26.29000 453.373
26.46000 437.787
26.63000 461.886
26.80000 447.728
26.97000 442.878
27.14000 437.396
27.31000 431.612
27.48000 436.314
27.65000 442.023
27.82000 424.624
27.99000 430.322
28.16000 429.717
28.33000 415.311
28.50000 421.838
28.67000 424.467
28.84000 426.257
29.01000 420.398
29.18000 425.256
29.35000 430.912
29.52000 415.733
29.69000 419.703
29.86000 444.529
30.03000 464.793
30.20000 455.743
30.37000 425.800
30.54000 437.753
30.71000 452.471
30.88000 525.348
31.05000 726.439
31.22000 1808.792
31.39000 3377.142
31.56000 2056.728
31.73000 816.455
31.90000 522.295
32.07000 451.396
32.24000 415.730
32.41000 393.747
32.58000 390.894
32.75000 366.076
32.92000 412.814
33.09000 382.179
33.26000 365.304
33.43000 353.900
33.60000 341.624
33.77000 349.852
33.94000 352.451
34.11000 346.789
34.28000 325.712
34.45000 344.445
34.62000 325.320
34.79000 320.765
34.96000 312.411
35.13000 314.816
35.30000 309.894
35.47000 302.042
35.64000 323.652
35.81000 312.797
35.98000 312.234
36.15000 300.231
36.32000 288.622
36.49000 297.321
36.66000 285.691
36.83000 298.150
37.00000 303.770
37.17000 291.353
37.34000 302.093
37.51000 299.259
37.68000 297.436
37.85000 283.558
38.02000 292.793
38.19000 305.985
38.36000 335.653
38.53000 582.062
38.70000 1017.158
38.87000 773.798
39.04000 397.911
39.21000 330.745
39.38000 292.760
39.55000 296.039
39.72000 272.365
39.89000 279.720
40.06000 253.634
40.23000 260.645
40.40000 256.029
40.57000 264.465
40.74000 245.946
40.91000 249.486
41.08000 238.758
41.25000 254.432
41.42000 243.114
41.59000 242.567
41.76000 245.792
41.93000 265.391
42.10000 239.518
42.27000 225.050
42.44000 247.624
42.61000 241.529
42.78000 236.114
42.95000 221.347
43.12000 228.030
43.29000 235.812
43.46000 242.274
43.63000 244.702
43.80000 214.614
43.97000 227.224
44.14000 217.217
44.31000 227.441
44.48000 242.232
44.65000 270.213
44.82000 286.455
44.99000 368.687
45.16000 401.867
45.33000 340.668
45.50000 304.684
45.67000 268.742
45.84000 224.619
46.01000 224.253
46.18000 208.134
46.35000 211.705
46.52000 212.818
46.69000 198.869
46.86000 190.852
47.03000 190.042
47.20000 202.790
47.37000 200.485
47.54000 186.249
47.71000 181.727
47.88000 188.888
48.05000 182.288
48.22000 182.030
48.39000 183.772
48.56000 189.134
48.73000 180.595
48.90000 184.216
49.07000 172.929
49.24000 172.719
49.41000 166.747
49.58000 175.874
49.75000 185.547
49.92000 183.133
50.09000 175.654
50.26000 169.653
50.43000 202.103
50.60000 229.041
50.77000 257.492
50.94000 241.951
51.11000 188.892
51.28000 184.933
51.45000 167.772
51.62000 171.936
51.79000 165.849
51.96000 167.131
52.13000 156.212
52.30000 156.690
52.47000 164.295
52.64000 169.552
52.81000 165.153
52.98000 166.542
53.15000 159.907
53.32000 171.127
53.49000 177.091
53.66000 148.382
53.83000 158.952
54.00000 162.589
54.17000 160.300
54.34000 164.810
54.51000 155.912
54.68000 156.879
54.85000 159.064
55.02000 173.656
55.19000 161.470
55.36000 176.972
55.53000 200.586
55.70000 266.644
55.87000 477.533
56.04000 512.877
56.21000 377.196
56.38000 241.492
56.55000 191.055
56.72000 168.606
56.89000 153.534
57.06000 146.494
57.23000 141.949
57.40000 149.059
57.57000 150.491
57.74000 161.382
57.91000 144.326
58.08000 141.452
58.25000 140.729
58.42000 136.529
58.59000 133.367
58.76000 129.814
58.93000 141.773
59.10000 138.977
59.27000 137.079
59.44000 135.551
59.61000 126.934
59.78000 139.408
59.95000 143.137
60.12000 133.536
60.29000 131.915
60.46000 129.855
60.63000 127.724
60.80000 138.042
60.97000 136.240
61.14000 134.362
61.31000 136.647
61.48000 141.441
61.65000 315.838
61.82000 214.185
61.99000 147.941
62.16000 145.030
62.33000 144.640
62.50000 144.336
62.67000 140.703
62.84000 149.227
63.01000 148.091
63.18000 148.691
63.35000 155.384
63.52000 148.363
63.69000 159.403
63.86000 159.596
64.03000 152.847
64.20000 162.673
64.37000 171.897
64.54000 164.560
64.71000 178.164
64.88000 187.764
65.05000 201.967
65.22000 241.973
65.39000 321.847
65.56000 412.773
65.73000 775.624
65.90000 1269.057
66.07000 415.480
66.24000 336.421
66.41000 494.659
66.58000 358.624
66.75000 330.434
66.92000 336.936
67.09000 353.807
67.26000 391.084
67.43000 434.298
67.60000 448.477
67.77000 500.856
67.94000 539.211
68.11000 592.062
68.28000 663.119
68.45000 770.430
68.62000 1140.862
68.79000 2199.565
68.96000 16408.381
69.13000 70166.469
69.30000 40872.105
69.47000 9561.519
69.64000 1397.590
69.81000 919.768
69.98000 756.751
70.00000 723.526