File: XRD/XRD/22-09-2025 Dep 2/XY Data/BTO_Mapping_Theta2Theta_22-09-2025_001_08_18-019_8-678.xy
20.00000 593.131
20.17000 601.313
20.34000 562.379
20.51000 540.045
20.68000 557.703
20.85000 566.282
21.02000 582.572
21.19000 564.575
21.36000 557.569
21.53000 550.979
21.70000 559.650
21.87000 621.739
22.04000 708.580
22.21000 699.423
22.38000 613.374
22.55000 543.160
22.72000 519.096
22.89000 532.195
23.06000 525.176
23.23000 516.646
23.40000 505.740
23.57000 492.066
23.74000 523.919
23.91000 521.372
24.08000 507.322
24.25000 482.575
24.42000 496.354
24.59000 505.885
24.76000 486.948
24.93000 468.659
25.10000 471.737
25.27000 472.631
25.44000 461.157
25.61000 438.170
25.78000 470.783
25.95000 469.460
26.12000 471.016
26.29000 461.799
26.46000 452.837
26.63000 451.051
26.80000 445.837
26.97000 437.949
27.14000 456.838
27.31000 440.946
27.48000 449.587
27.65000 443.863
27.82000 418.241
27.99000 431.595
28.16000 435.325
28.33000 449.214
28.50000 423.579
28.67000 437.478
28.84000 425.202
29.01000 429.129
29.18000 410.318
29.35000 415.282
29.52000 415.800
29.69000 424.042
29.86000 426.642
30.03000 449.158
30.20000 430.262
30.37000 426.106
30.54000 427.157
30.71000 460.267
30.88000 502.166
31.05000 644.919
31.22000 1549.978
31.39000 3009.253
31.56000 1933.189
31.73000 764.713
31.90000 516.646
32.07000 429.688
32.24000 403.247
32.41000 397.681
32.58000 402.109
32.75000 378.208
32.92000 400.703
33.09000 371.763
33.26000 345.228
33.43000 355.895
33.60000 337.294
33.77000 324.676
33.94000 339.894
34.11000 338.209
34.28000 328.666
34.45000 320.686
34.62000 338.666
34.79000 334.990
34.96000 323.089
35.13000 323.410
35.30000 306.927
35.47000 303.863
35.64000 305.773
35.81000 304.310
35.98000 307.979
36.15000 293.895
36.32000 300.026
36.49000 288.046
36.66000 293.020
36.83000 286.530
37.00000 318.135
37.17000 300.494
37.34000 302.138
37.51000 301.385
37.68000 293.094
37.85000 290.504
38.02000 279.567
38.19000 308.133
38.36000 346.353
38.53000 504.227
38.70000 980.125
38.87000 814.345
39.04000 389.399
39.21000 299.032
39.38000 277.559
39.55000 278.501
39.72000 279.803
39.89000 262.672
40.06000 261.584
40.23000 263.936
40.40000 269.924
40.57000 253.212
40.74000 262.547
40.91000 264.631
41.08000 252.706
41.25000 251.692
41.42000 247.921
41.59000 233.299
41.76000 246.871
41.93000 242.044
42.10000 252.527
42.27000 240.990
42.44000 240.107
42.61000 236.843
42.78000 233.169
42.95000 238.120
43.12000 232.039
43.29000 226.277
43.46000 223.397
43.63000 219.251
43.80000 227.459
43.97000 218.352
44.14000 227.966
44.31000 227.773
44.48000 229.216
44.65000 247.412
44.82000 250.954
44.99000 322.224
45.16000 373.403
45.33000 324.665
45.50000 284.552
45.67000 252.959
45.84000 232.858
46.01000 219.922
46.18000 225.412
46.35000 205.394
46.52000 201.151
46.69000 205.530
46.86000 193.304
47.03000 190.752
47.20000 187.641
47.37000 189.220
47.54000 176.140
47.71000 192.514
47.88000 186.237
48.05000 182.801
48.22000 177.246
48.39000 186.756
48.56000 179.769
48.73000 180.493
48.90000 179.977
49.07000 173.907
49.24000 169.941
49.41000 180.253
49.58000 170.548
49.75000 171.058
49.92000 170.926
50.09000 168.290
50.26000 183.667
50.43000 180.080
50.60000 237.650
50.77000 254.185
50.94000 225.593
51.11000 192.159
51.28000 176.357
51.45000 175.258
51.62000 167.065
51.79000 168.307
51.96000 159.973
52.13000 162.278
52.30000 152.582
52.47000 158.492
52.64000 164.250
52.81000 168.102
52.98000 160.582
53.15000 151.173
53.32000 149.269
53.49000 173.439
53.66000 158.283
53.83000 165.641
54.00000 156.443
54.17000 160.384
54.34000 146.955
54.51000 160.970
54.68000 160.413
54.85000 166.259
55.02000 164.447
55.19000 159.295
55.36000 174.479
55.53000 190.594
55.70000 250.896
55.87000 456.549
56.04000 524.680
56.21000 371.900
56.38000 226.197
56.55000 193.286
56.72000 157.705
56.89000 157.755
57.06000 143.785
57.23000 155.890
57.40000 148.278
57.57000 139.225
57.74000 142.510
57.91000 151.885
58.08000 149.355
58.25000 137.405
58.42000 138.341
58.59000 134.730
58.76000 135.293
58.93000 137.103
59.10000 119.940
59.27000 142.355
59.44000 139.600
59.61000 122.598
59.78000 128.778
59.95000 137.914
60.12000 133.530
60.29000 135.200
60.46000 135.001
60.63000 144.485
60.80000 128.448
60.97000 127.168
61.14000 133.220
61.31000 142.381
61.48000 147.961
61.65000 269.096
61.82000 202.242
61.99000 138.616
62.16000 135.934
62.33000 135.517
62.50000 143.554
62.67000 139.909
62.84000 146.230
63.01000 151.530
63.18000 152.787
63.35000 155.916
63.52000 153.436
63.69000 150.126
63.86000 157.080
64.03000 155.547
64.20000 164.371
64.37000 176.477
64.54000 168.896
64.71000 183.362
64.88000 180.230
65.05000 198.950
65.22000 220.768
65.39000 293.961
65.56000 397.865
65.73000 701.241
65.90000 1141.953
66.07000 385.149
66.24000 332.022
66.41000 449.401
66.58000 344.013
66.75000 322.229
66.92000 334.468
67.09000 366.786
67.26000 385.877
67.43000 417.385
67.60000 435.350
67.77000 479.371
67.94000 513.948
68.11000 570.516
68.28000 629.128
68.45000 767.014
68.62000 1066.316
68.79000 2036.838
68.96000 14172.635
69.13000 62207.891
69.30000 36204.824
69.47000 8451.257
69.64000 1285.422
69.81000 853.817
69.98000 709.745
70.00000 699.904