File: XRD/XRD/22-09-2025 Dep 2/XY Data/BTO_Mapping_Theta2Theta_22-09-2025_001_39_-30-000_0-000.xy
20.00000 587.214
20.17000 567.862
20.34000 583.195
20.51000 554.054
20.68000 557.624
20.85000 553.765
21.02000 576.442
21.19000 566.064
21.36000 560.832
21.53000 587.155
21.70000 648.674
21.87000 821.167
22.04000 875.785
22.21000 698.196
22.38000 598.479
22.55000 552.382
22.72000 544.600
22.89000 521.736
23.06000 521.913
23.23000 519.032
23.40000 515.180
23.57000 489.576
23.74000 508.704
23.91000 503.564
24.08000 520.586
24.25000 502.206
24.42000 496.598
24.59000 506.977
24.76000 480.356
24.93000 505.025
25.10000 485.133
25.27000 485.162
25.44000 476.011
25.61000 456.259
25.78000 475.279
25.95000 453.373
26.12000 456.738
26.29000 461.512
26.46000 458.103
26.63000 456.174
26.80000 458.593
26.97000 447.771
27.14000 445.249
27.31000 459.878
27.48000 446.104
27.65000 434.680
27.82000 439.657
27.99000 464.941
28.16000 449.487
28.33000 431.656
28.50000 440.517
28.67000 438.251
28.84000 434.224
29.01000 428.342
29.18000 435.982
29.35000 421.291
29.52000 424.262
29.69000 416.681
29.86000 491.776
30.03000 470.165
30.20000 472.699
30.37000 447.736
30.54000 448.298
30.71000 456.540
30.88000 523.737
31.05000 1045.016
31.22000 3834.562
31.39000 4555.623
31.56000 1639.412
31.73000 655.110
31.90000 470.844
32.07000 440.645
32.24000 414.143
32.41000 410.577
32.58000 385.783
32.75000 401.200
32.92000 437.926
33.09000 401.831
33.26000 370.063
33.43000 348.925
33.60000 355.290
33.77000 349.575
33.94000 352.864
34.11000 343.671
34.28000 337.440
34.45000 344.737
34.62000 339.082
34.79000 333.405
34.96000 325.534
35.13000 303.417
35.30000 329.101
35.47000 321.408
35.64000 313.564
35.81000 300.046
35.98000 309.441
36.15000 307.351
36.32000 316.971
36.49000 301.347
36.66000 311.068
36.83000 308.077
37.00000 315.317
37.17000 310.103
37.34000 324.383
37.51000 305.683
37.68000 305.077
37.85000 299.041
38.02000 309.460
38.19000 339.165
38.36000 442.209
38.53000 608.420
38.70000 606.698
38.87000 435.020
39.04000 349.173
39.21000 307.936
39.38000 290.799
39.55000 273.390
39.72000 259.360
39.89000 285.626
40.06000 273.083
40.23000 273.577
40.40000 264.083
40.57000 262.132
40.74000 272.214
40.91000 258.451
41.08000 241.509
41.25000 263.423
41.42000 265.439
41.59000 243.712
41.76000 254.338
41.93000 248.673
42.10000 240.622
42.27000 245.579
42.44000 228.072
42.61000 252.419
42.78000 234.527
42.95000 241.341
43.12000 245.435
43.29000 234.303
43.46000 237.953
43.63000 241.404
43.80000 231.487
43.97000 236.368
44.14000 242.714
44.31000 259.131
44.48000 286.700
44.65000 391.787
44.82000 518.047
44.99000 514.578
45.16000 424.258
45.33000 331.556
45.50000 272.913
45.67000 259.355
45.84000 240.450
46.01000 229.458
46.18000 197.686
46.35000 209.787
46.52000 208.309
46.69000 213.589
46.86000 199.879
47.03000 200.426
47.20000 191.712
47.37000 205.661
47.54000 215.817
47.71000 205.851
47.88000 189.087
48.05000 201.457
48.22000 188.416
48.39000 173.604
48.56000 181.582
48.73000 188.791
48.90000 192.301
49.07000 185.973
49.24000 195.677
49.41000 182.637
49.58000 182.316
49.75000 185.302
49.92000 178.818
50.09000 198.235
50.26000 212.992
50.43000 264.867
50.60000 264.019
50.77000 259.131
50.94000 204.158
51.11000 196.850
51.28000 184.311
51.45000 178.422
51.62000 177.610
51.79000 169.565
51.96000 176.957
52.13000 168.330
52.30000 164.973
52.47000 177.151
52.64000 174.120
52.81000 167.038
52.98000 171.165
53.15000 163.476
53.32000 168.912
53.49000 175.596
53.66000 165.705
53.83000 157.990
54.00000 173.736
54.17000 169.634
54.34000 158.701
54.51000 160.034
54.68000 161.005
54.85000 170.130
55.02000 162.974
55.19000 176.688
55.36000 239.834
55.53000 357.171
55.70000 536.476
55.87000 515.970
56.04000 347.122
56.21000 241.043
56.38000 198.200
56.55000 169.017
56.72000 164.707
56.89000 147.788
57.06000 158.205
57.23000 152.359
57.40000 153.314
57.57000 156.835
57.74000 135.751
57.91000 145.853
58.08000 141.409
58.25000 143.933
58.42000 138.520
58.59000 139.615
58.76000 156.408
58.93000 146.967
59.10000 141.130
59.27000 136.463
59.44000 141.089
59.61000 135.314
59.78000 130.580
59.95000 133.864
60.12000 148.434
60.29000 129.853
60.46000 130.836
60.63000 138.288
60.80000 139.653
60.97000 138.313
61.14000 151.940
61.31000 138.796
61.48000 153.258
61.65000 353.205
61.82000 236.170
61.99000 150.004
62.16000 148.140
62.33000 147.652
62.50000 137.270
62.67000 150.044
62.84000 150.297
63.01000 154.986
63.18000 147.824
63.35000 154.582
63.52000 158.130
63.69000 157.235
63.86000 153.660
64.03000 166.606
64.20000 176.903
64.37000 161.247
64.54000 183.528
64.71000 185.636
64.88000 208.215
65.05000 254.066
65.22000 378.586
65.39000 486.363
65.56000 499.631
65.73000 828.706
65.90000 1587.060
66.07000 494.136
66.24000 374.112
66.41000 584.936
66.58000 420.230
66.75000 370.946
66.92000 391.394
67.09000 402.887
67.26000 427.315
67.43000 455.983
67.60000 502.990
67.77000 538.674
67.94000 590.706
68.11000 658.844
68.28000 746.618
68.45000 919.186
68.62000 1346.626
68.79000 2692.373
68.96000 19536.184
69.13000 92846.406
69.30000 55068.211
69.47000 13765.168
69.64000 1688.320
69.81000 1099.017
69.98000 842.817
70.00000 799.472