File: XRD/XRD/22-09-2025 Dep 2/XY Data/BTO_Mapping_Theta2Theta_22-09-2025_001_68_18-019_-8-678.xy
20.00000 571.596
20.17000 577.970
20.34000 563.401
20.51000 565.875
20.68000 566.021
20.85000 558.470
21.02000 555.919
21.19000 561.692
21.36000 553.066
21.53000 555.049
21.70000 572.164
21.87000 633.317
22.04000 707.997
22.21000 713.827
22.38000 622.963
22.55000 582.824
22.72000 537.701
22.89000 522.532
23.06000 531.373
23.23000 512.557
23.40000 510.322
23.57000 499.405
23.74000 521.975
23.91000 526.351
24.08000 532.514
24.25000 505.394
24.42000 496.506
24.59000 492.548
24.76000 478.937
24.93000 485.155
25.10000 485.438
25.27000 476.588
25.44000 472.052
25.61000 487.472
25.78000 460.719
25.95000 458.321
26.12000 458.205
26.29000 453.240
26.46000 454.427
26.63000 453.721
26.80000 429.586
26.97000 446.388
27.14000 444.429
27.31000 455.458
27.48000 434.839
27.65000 438.817
27.82000 421.973
27.99000 427.362
28.16000 439.327
28.33000 435.359
28.50000 415.437
28.67000 433.480
28.84000 427.282
29.01000 421.838
29.18000 419.846
29.35000 412.500
29.52000 423.547
29.69000 404.939
29.86000 432.836
30.03000 448.032
30.20000 424.467
30.37000 423.825
30.54000 443.425
30.71000 440.137
30.88000 500.544
31.05000 647.522
31.22000 1495.992
31.39000 3071.572
31.56000 1997.119
31.73000 802.322
31.90000 509.208
32.07000 447.110
32.24000 415.852
32.41000 416.209
32.58000 361.642
32.75000 387.436
32.92000 432.306
33.09000 377.087
33.26000 357.012
33.43000 326.193
33.60000 362.132
33.77000 344.013
33.94000 352.957
34.11000 344.342
34.28000 340.461
34.45000 342.073
34.62000 338.583
34.79000 320.474
34.96000 325.277
35.13000 314.471
35.30000 312.573
35.47000 311.178
35.64000 313.966
35.81000 291.964
35.98000 315.476
36.15000 304.007
36.32000 297.835
36.49000 290.900
36.66000 295.698
36.83000 282.963
37.00000 303.246
37.17000 305.827
37.34000 306.404
37.51000 294.273
37.68000 288.229
37.85000 291.222
38.02000 290.592
38.19000 305.920
38.36000 342.525
38.53000 502.652
38.70000 1009.628
38.87000 876.187
39.04000 414.647
39.21000 320.597
39.38000 281.002
39.55000 274.116
39.72000 271.853
39.89000 267.155
40.06000 258.284
40.23000 259.304
40.40000 268.989
40.57000 265.193
40.74000 241.365
40.91000 252.731
41.08000 239.495
41.25000 242.993
41.42000 242.122
41.59000 256.147
41.76000 244.518
41.93000 241.559
42.10000 232.235
42.27000 228.033
42.44000 233.374
42.61000 229.771
42.78000 232.919
42.95000 240.481
43.12000 229.079
43.29000 231.676
43.46000 219.406
43.63000 235.220
43.80000 225.864
43.97000 234.691
44.14000 219.459
44.31000 224.266
44.48000 229.851
44.65000 236.789
44.82000 268.667
44.99000 324.658
45.16000 366.776
45.33000 337.960
45.50000 297.082
45.67000 264.942
45.84000 239.319
46.01000 220.759
46.18000 202.851
46.35000 193.544
46.52000 213.802
46.69000 204.825
46.86000 199.116
47.03000 205.067
47.20000 186.440
47.37000 185.175
47.54000 197.796
47.71000 185.323
47.88000 194.958
48.05000 181.919
48.22000 167.427
48.39000 191.325
48.56000 188.947
48.73000 172.894
48.90000 186.424
49.07000 182.342
49.24000 171.124
49.41000 167.907
49.58000 174.293
49.75000 163.511
49.92000 164.168
50.09000 173.622
50.26000 171.758
50.43000 192.001
50.60000 225.359
50.77000 248.452
50.94000 225.614
51.11000 191.210
51.28000 184.442
51.45000 171.776
51.62000 170.258
51.79000 169.454
51.96000 159.706
52.13000 171.429
52.30000 160.570
52.47000 162.843
52.64000 158.142
52.81000 159.467
52.98000 154.534
53.15000 155.144
53.32000 157.748
53.49000 154.272
53.66000 155.503
53.83000 157.138
54.00000 169.843
54.17000 155.919
54.34000 161.602
54.51000 143.517
54.68000 155.920
54.85000 159.550
55.02000 147.657
55.19000 166.752
55.36000 166.512
55.53000 196.157
55.70000 255.078
55.87000 432.731
56.04000 528.066
56.21000 363.942
56.38000 247.962
56.55000 187.667
56.72000 177.649
56.89000 152.376
57.06000 144.285
57.23000 147.912
57.40000 148.603
57.57000 151.818
57.74000 135.007
57.91000 139.262
58.08000 147.767
58.25000 133.307
58.42000 139.276
58.59000 143.816
58.76000 124.929
58.93000 139.458
59.10000 141.831
59.27000 136.615
59.44000 131.638
59.61000 140.411
59.78000 137.392
59.95000 131.327
60.12000 131.473
60.29000 132.384
60.46000 135.397
60.63000 121.698
60.80000 142.796
60.97000 141.740
61.14000 137.742
61.31000 131.023
61.48000 144.267
61.65000 276.990
61.82000 207.803
61.99000 140.636
62.16000 137.646
62.33000 143.799
62.50000 147.626
62.67000 148.246
62.84000 153.769
63.01000 151.485
63.18000 141.255
63.35000 146.581
63.52000 140.481
63.69000 151.037
63.86000 152.000
64.03000 164.021
64.20000 161.439
64.37000 172.389
64.54000 165.330
64.71000 179.404
64.88000 183.275
65.05000 201.213
65.22000 226.210
65.39000 284.531
65.56000 403.676
65.73000 676.075
65.90000 1132.083
66.07000 404.944
66.24000 324.235
66.41000 443.356
66.58000 351.559
66.75000 334.697
66.92000 341.558
67.09000 352.971
67.26000 382.662
67.43000 405.464
67.60000 436.335
67.77000 481.457
67.94000 515.588
68.11000 581.802
68.28000 620.012
68.45000 760.954
68.62000 1038.980
68.79000 1933.752
68.96000 12325.130
69.13000 61256.945
69.30000 37321.781
69.47000 9539.581
69.64000 1322.580
69.81000 878.876
69.98000 722.591
70.00000 696.139