File: XRD/XRD/22-09-2025 Dep 2/XY Data/BTO_Mapping_Theta2Theta_22-09-2025_001_45_-36-039_-17-355.xy
20.00000 569.791
20.17000 597.438
20.34000 575.104
20.51000 576.943
20.68000 563.535
20.85000 576.944
21.02000 554.997
21.19000 575.373
21.36000 575.651
21.53000 547.129
21.70000 642.291
21.87000 795.938
22.04000 870.411
22.21000 691.611
22.38000 596.714
22.55000 573.837
22.72000 529.627
22.89000 528.898
23.06000 522.723
23.23000 500.463
23.40000 532.369
23.57000 521.925
23.74000 501.743
23.91000 512.786
24.08000 480.604
24.25000 472.340
24.42000 488.286
24.59000 501.885
24.76000 488.793
24.93000 475.047
25.10000 480.894
25.27000 485.170
25.44000 476.820
25.61000 480.720
25.78000 464.330
25.95000 488.744
26.12000 457.253
26.29000 477.523
26.46000 463.271
26.63000 463.966
26.80000 483.292
26.97000 462.572
27.14000 443.254
27.31000 456.908
27.48000 451.327
27.65000 439.509
27.82000 423.686
27.99000 454.780
28.16000 439.200
28.33000 438.956
28.50000 450.696
28.67000 421.458
28.84000 437.492
29.01000 428.643
29.18000 432.716
29.35000 429.238
29.52000 438.327
29.69000 435.133
29.86000 502.262
30.03000 489.266
30.20000 462.170
30.37000 457.539
30.54000 484.908
30.71000 481.400
30.88000 548.295
31.05000 1276.990
31.22000 5683.334
31.39000 5912.061
31.56000 1700.245
31.73000 721.074
31.90000 494.372
32.07000 429.120
32.24000 407.403
32.41000 404.860
32.58000 414.842
32.75000 409.045
32.92000 476.114
33.09000 408.745
33.26000 376.947
33.43000 361.850
33.60000 371.018
33.77000 359.925
33.94000 357.788
34.11000 348.664
34.28000 340.778
34.45000 338.539
34.62000 343.662
34.79000 331.550
34.96000 338.191
35.13000 318.809
35.30000 318.057
35.47000 312.427
35.64000 319.997
35.81000 311.932
35.98000 315.016
36.15000 315.024
36.32000 314.852
36.49000 306.081
36.66000 323.074
36.83000 307.377
37.00000 317.304
37.17000 316.997
37.34000 310.409
37.51000 307.424
37.68000 308.988
37.85000 313.306
38.02000 321.221
38.19000 341.552
38.36000 411.603
38.53000 546.764
38.70000 519.475
38.87000 387.699
39.04000 313.112
39.21000 320.631
39.38000 281.236
39.55000 269.426
39.72000 273.281
39.89000 278.268
40.06000 267.133
40.23000 270.517
40.40000 267.211
40.57000 272.902
40.74000 266.174
40.91000 249.481
41.08000 256.245
41.25000 263.393
41.42000 261.490
41.59000 246.649
41.76000 241.994
41.93000 256.146
42.10000 246.729
42.27000 241.475
42.44000 231.388
42.61000 247.991
42.78000 249.382
42.95000 239.002
43.12000 235.667
43.29000 247.107
43.46000 225.083
43.63000 245.562
43.80000 236.581
43.97000 219.497
44.14000 244.686
44.31000 246.414
44.48000 281.328
44.65000 401.334
44.82000 508.464
44.99000 497.689
45.16000 394.926
45.33000 338.673
45.50000 284.265
45.67000 253.387
45.84000 231.946
46.01000 214.745
46.18000 208.830
46.35000 217.231
46.52000 212.446
46.69000 206.500
46.86000 194.569
47.03000 201.266
47.20000 204.197
47.37000 202.615
47.54000 196.862
47.71000 205.389
47.88000 190.244
48.05000 195.023
48.22000 183.778
48.39000 192.443
48.56000 182.773
48.73000 187.441
48.90000 186.723
49.07000 191.390
49.24000 188.189
49.41000 188.329
49.58000 185.135
49.75000 193.988
49.92000 187.277
50.09000 195.960
50.26000 224.939
50.43000 281.812
50.60000 298.870
50.77000 251.835
50.94000 208.787
51.11000 180.909
51.28000 181.549
51.45000 180.838
51.62000 183.955
51.79000 177.374
51.96000 161.081
52.13000 171.827
52.30000 159.727
52.47000 164.461
52.64000 170.181
52.81000 169.754
52.98000 166.099
53.15000 171.599
53.32000 162.821
53.49000 169.590
53.66000 159.745
53.83000 164.853
54.00000 163.552
54.17000 164.071
54.34000 159.050
54.51000 158.535
54.68000 153.222
54.85000 170.410
55.02000 172.762
55.19000 188.653
55.36000 240.348
55.53000 392.826
55.70000 549.070
55.87000 470.463
56.04000 320.465
56.21000 225.949
56.38000 193.049
56.55000 170.097
56.72000 166.540
56.89000 157.393
57.06000 147.217
57.23000 143.197
57.40000 152.762
57.57000 148.538
57.74000 156.100
57.91000 147.059
58.08000 148.094
58.25000 137.654
58.42000 149.527
58.59000 142.369
58.76000 142.323
58.93000 120.731
59.10000 141.878
59.27000 140.673
59.44000 130.925
59.61000 135.225
59.78000 139.475
59.95000 144.881
60.12000 134.806
60.29000 142.668
60.46000 132.926
60.63000 123.344
60.80000 140.049
60.97000 133.680
61.14000 144.275
61.31000 144.351
61.48000 155.794
61.65000 355.495
61.82000 263.402
61.99000 150.235
62.16000 156.196
62.33000 152.935
62.50000 153.942
62.67000 141.815
62.84000 160.960
63.01000 147.242
63.18000 148.658
63.35000 152.023
63.52000 162.569
63.69000 155.416
63.86000 166.066
64.03000 164.716
64.20000 164.031
64.37000 175.331
64.54000 179.356
64.71000 188.655
64.88000 220.477
65.05000 318.944
65.22000 550.449
65.39000 631.691
65.56000 520.338
65.73000 780.349
65.90000 1622.411
66.07000 524.061
66.24000 377.921
66.41000 580.858
66.58000 437.960
66.75000 366.052
66.92000 376.533
67.09000 392.778
67.26000 448.764
67.43000 464.038
67.60000 512.538
67.77000 562.371
67.94000 601.235
68.11000 657.643
68.28000 760.017
68.45000 876.762
68.62000 1277.841
68.79000 2667.351
68.96000 15289.162
69.13000 94655.359
69.30000 61514.816
69.47000 18281.555
69.64000 1845.909
69.81000 1121.410
69.98000 832.946
70.00000 819.548