File: XRD/XRD/22-09-2025 Dep 2/XY Data/BTO_Mapping_Theta2Theta_22-09-2025_001_17_2-225_9-749.xy
20.00000 575.658
20.17000 540.182
20.34000 561.190
20.51000 562.596
20.68000 538.593
20.85000 564.784
21.02000 561.163
21.19000 559.972
21.36000 553.542
21.53000 567.701
21.70000 597.492
21.87000 677.992
22.04000 820.646
22.21000 741.046
22.38000 620.786
22.55000 548.645
22.72000 517.984
22.89000 526.621
23.06000 525.616
23.23000 521.472
23.40000 520.212
23.57000 492.082
23.74000 495.007
23.91000 493.796
24.08000 508.696
24.25000 493.791
24.42000 495.257
24.59000 484.646
24.76000 481.268
24.93000 483.744
25.10000 495.885
25.27000 464.073
25.44000 473.779
25.61000 438.362
25.78000 453.059
25.95000 461.601
26.12000 447.003
26.29000 460.822
26.46000 457.881
26.63000 465.294
26.80000 453.226
26.97000 436.238
27.14000 439.116
27.31000 436.835
27.48000 453.327
27.65000 433.379
27.82000 433.701
27.99000 415.562
28.16000 450.647
28.33000 436.210
28.50000 418.756
28.67000 405.600
28.84000 430.900
29.01000 411.441
29.18000 423.092
29.35000 413.092
29.52000 419.098
29.69000 432.015
29.86000 426.371
30.03000 443.386
30.20000 453.564
30.37000 439.122
30.54000 451.090
30.71000 483.303
30.88000 557.442
31.05000 719.985
31.22000 1888.789
31.39000 3449.427
31.56000 2102.552
31.73000 829.776
31.90000 529.432
32.07000 439.425
32.24000 418.172
32.41000 411.699
32.58000 387.678
32.75000 401.462
32.92000 434.318
33.09000 372.362
33.26000 356.897
33.43000 367.859
33.60000 326.727
33.77000 364.534
33.94000 347.770
34.11000 342.106
34.28000 334.814
34.45000 320.410
34.62000 332.475
34.79000 319.571
34.96000 318.940
35.13000 317.949
35.30000 313.727
35.47000 312.383
35.64000 309.967
35.81000 314.774
35.98000 315.605
36.15000 309.340
36.32000 291.343
36.49000 303.248
36.66000 291.680
36.83000 303.794
37.00000 298.723
37.17000 314.022
37.34000 294.604
37.51000 314.771
37.68000 299.594
37.85000 300.643
38.02000 295.141
38.19000 305.977
38.36000 385.088
38.53000 586.652
38.70000 988.958
38.87000 711.004
39.04000 391.577
39.21000 305.292
39.38000 299.250
39.55000 274.532
39.72000 268.610
39.89000 274.373
40.06000 256.852
40.23000 265.436
40.40000 268.132
40.57000 258.289
40.74000 267.127
40.91000 240.078
41.08000 239.453
41.25000 254.777
41.42000 248.952
41.59000 249.823
41.76000 238.731
41.93000 241.301
42.10000 240.721
42.27000 242.552
42.44000 229.250
42.61000 249.498
42.78000 227.502
42.95000 246.304
43.12000 231.110
43.29000 237.697
43.46000 236.387
43.63000 232.460
43.80000 217.483
43.97000 218.074
44.14000 234.080
44.31000 231.828
44.48000 228.662
44.65000 255.998
44.82000 309.698
44.99000 411.315
45.16000 447.637
45.33000 369.761
45.50000 284.583
45.67000 264.883
45.84000 232.084
46.01000 234.412
46.18000 203.558
46.35000 197.243
46.52000 203.955
46.69000 200.331
46.86000 195.314
47.03000 196.876
47.20000 189.223
47.37000 200.016
47.54000 194.227
47.71000 193.953
47.88000 186.439
48.05000 194.851
48.22000 182.738
48.39000 176.618
48.56000 193.392
48.73000 172.922
48.90000 182.923
49.07000 183.413
49.24000 184.154
49.41000 184.362
49.58000 181.871
49.75000 172.068
49.92000 182.149
50.09000 182.962
50.26000 190.305
50.43000 187.990
50.60000 250.817
50.77000 255.381
50.94000 230.821
51.11000 198.500
51.28000 180.087
51.45000 176.967
51.62000 163.969
51.79000 159.225
51.96000 164.276
52.13000 161.655
52.30000 158.991
52.47000 163.655
52.64000 167.733
52.81000 155.711
52.98000 158.605
53.15000 163.549
53.32000 167.464
53.49000 159.764
53.66000 162.674
53.83000 161.571
54.00000 160.508
54.17000 162.010
54.34000 149.645
54.51000 160.062
54.68000 164.625
54.85000 155.012
55.02000 163.693
55.19000 159.813
55.36000 179.434
55.53000 209.718
55.70000 310.596
55.87000 481.299
56.04000 528.856
56.21000 363.257
56.38000 231.447
56.55000 191.282
56.72000 169.254
56.89000 159.621
57.06000 142.460
57.23000 144.805
57.40000 139.975
57.57000 151.396
57.74000 153.067
57.91000 149.151
58.08000 131.532
58.25000 144.415
58.42000 137.303
58.59000 143.018
58.76000 137.798
58.93000 143.754
59.10000 131.399
59.27000 132.668
59.44000 137.077
59.61000 137.329
59.78000 133.740
59.95000 134.994
60.12000 132.208
60.29000 132.761
60.46000 130.150
60.63000 124.572
60.80000 128.361
60.97000 139.444
61.14000 141.701
61.31000 143.945
61.48000 140.516
61.65000 302.878
61.82000 221.643
61.99000 151.047
62.16000 147.433
62.33000 141.052
62.50000 141.100
62.67000 153.757
62.84000 143.336
63.01000 146.147
63.18000 164.649
63.35000 151.267
63.52000 152.764
63.69000 149.961
63.86000 154.694
64.03000 162.548
64.20000 145.419
64.37000 166.435
64.54000 169.965
64.71000 160.582
64.88000 187.930
65.05000 204.670
65.22000 234.103
65.39000 329.850
65.56000 446.285
65.73000 811.848
65.90000 1337.033
66.07000 446.493
66.24000 352.829
66.41000 506.147
66.58000 363.347
66.75000 345.340
66.92000 367.743
67.09000 380.634
67.26000 402.660
67.43000 443.575
67.60000 459.560
67.77000 534.080
67.94000 561.355
68.11000 607.839
68.28000 699.379
68.45000 835.906
68.62000 1247.613
68.79000 2481.588
68.96000 19291.066
69.13000 77893.148
69.30000 45290.043
69.47000 10354.253
69.64000 1501.656
69.81000 962.533
69.98000 768.778
70.00000 762.808