File: XRD/XRD/22-09-2025 Dep 2/XY Data/BTO_Mapping_Theta2Theta_22-09-2025_001_15_24-940_31-273.xy
20.00000 569.261
20.17000 559.658
20.34000 568.620
20.51000 561.830
20.68000 554.697
20.85000 551.096
21.02000 559.325
21.19000 567.625
21.36000 560.445
21.53000 556.973
21.70000 544.987
21.87000 584.256
22.04000 681.573
22.21000 688.473
22.38000 623.043
22.55000 552.967
22.72000 548.313
22.89000 532.524
23.06000 515.625
23.23000 499.227
23.40000 513.327
23.57000 515.825
23.74000 530.779
23.91000 520.097
24.08000 518.331
24.25000 515.134
24.42000 495.588
24.59000 494.374
24.76000 493.473
24.93000 470.011
25.10000 486.318
25.27000 470.706
25.44000 489.593
25.61000 467.279
25.78000 474.724
25.95000 444.265
26.12000 433.822
26.29000 460.189
26.46000 431.748
26.63000 448.241
26.80000 456.866
26.97000 437.143
27.14000 451.601
27.31000 444.573
27.48000 425.205
27.65000 423.755
27.82000 435.801
27.99000 428.069
28.16000 439.940
28.33000 435.401
28.50000 422.274
28.67000 406.206
28.84000 419.404
29.01000 414.921
29.18000 407.721
29.35000 406.030
29.52000 425.469
29.69000 414.947
29.86000 418.412
30.03000 442.846
30.20000 422.004
30.37000 433.157
30.54000 430.476
30.71000 434.056
30.88000 458.415
31.05000 555.502
31.22000 1097.920
31.39000 2270.127
31.56000 1670.344
31.73000 765.532
31.90000 489.025
32.07000 428.963
32.24000 420.260
32.41000 392.030
32.58000 376.859
32.75000 387.545
32.92000 376.430
33.09000 348.662
33.26000 351.484
33.43000 350.513
33.60000 345.453
33.77000 348.241
33.94000 330.322
34.11000 331.678
34.28000 334.377
34.45000 333.672
34.62000 336.039
34.79000 321.024
34.96000 316.194
35.13000 321.709
35.30000 294.207
35.47000 303.347
35.64000 321.178
35.81000 302.460
35.98000 301.586
36.15000 315.451
36.32000 311.620
36.49000 282.320
36.66000 282.956
36.83000 294.566
37.00000 310.702
37.17000 299.863
37.34000 291.547
37.51000 319.306
37.68000 292.124
37.85000 288.736
38.02000 303.079
38.19000 298.164
38.36000 327.421
38.53000 459.260
38.70000 933.998
38.87000 875.054
39.04000 440.183
39.21000 305.560
39.38000 279.575
39.55000 266.556
39.72000 279.849
39.89000 275.527
40.06000 268.208
40.23000 264.679
40.40000 263.300
40.57000 261.742
40.74000 242.234
40.91000 248.860
41.08000 233.251
41.25000 245.793
41.42000 252.379
41.59000 249.505
41.76000 234.686
41.93000 236.555
42.10000 237.565
42.27000 240.412
42.44000 229.570
42.61000 227.320
42.78000 228.469
42.95000 226.238
43.12000 217.490
43.29000 218.963
43.46000 231.133
43.63000 227.464
43.80000 229.975
43.97000 222.148
44.14000 222.762
44.31000 219.272
44.48000 234.851
44.65000 241.687
44.82000 265.580
44.99000 290.838
45.16000 325.746
45.33000 312.402
45.50000 272.060
45.67000 255.866
45.84000 230.227
46.01000 220.160
46.18000 198.962
46.35000 208.053
46.52000 204.225
46.69000 204.161
46.86000 211.764
47.03000 207.378
47.20000 197.804
47.37000 190.983
47.54000 182.181
47.71000 184.103
47.88000 188.193
48.05000 190.459
48.22000 193.757
48.39000 187.801
48.56000 185.166
48.73000 186.081
48.90000 178.494
49.07000 175.348
49.24000 161.014
49.41000 172.486
49.58000 176.359
49.75000 179.670
49.92000 170.785
50.09000 167.178
50.26000 182.323
50.43000 178.968
50.60000 211.245
50.77000 244.918
50.94000 232.916
51.11000 190.887
51.28000 181.083
51.45000 176.586
51.62000 173.822
51.79000 163.220
51.96000 179.489
52.13000 160.949
52.30000 157.268
52.47000 161.063
52.64000 163.576
52.81000 158.336
52.98000 157.473
53.15000 153.416
53.32000 167.859
53.49000 156.736
53.66000 159.541
53.83000 159.620
54.00000 152.640
54.17000 157.819
54.34000 162.219
54.51000 159.087
54.68000 156.773
54.85000 155.208
55.02000 156.693
55.19000 158.615
55.36000 168.325
55.53000 184.421
55.70000 239.807
55.87000 422.881
56.04000 549.329
56.21000 446.065
56.38000 257.610
56.55000 186.056
56.72000 162.193
56.89000 159.797
57.06000 149.248
57.23000 143.249
57.40000 139.860
57.57000 144.081
57.74000 137.547
57.91000 144.778
58.08000 143.025
58.25000 139.617
58.42000 134.398
58.59000 132.110
58.76000 146.727
58.93000 121.815
59.10000 130.238
59.27000 137.646
59.44000 137.675
59.61000 136.577
59.78000 135.196
59.95000 132.673
60.12000 131.524
60.29000 127.816
60.46000 139.654
60.63000 131.425
60.80000 145.662
60.97000 135.289
61.14000 137.646
61.31000 135.486
61.48000 148.582
61.65000 263.726
61.82000 193.114
61.99000 144.710
62.16000 141.493
62.33000 138.348
62.50000 147.670
62.67000 142.567
62.84000 147.074
63.01000 148.322
63.18000 147.523
63.35000 143.046
63.52000 141.589
63.69000 151.111
63.86000 149.221
64.03000 153.184
64.20000 160.065
64.37000 158.864
64.54000 163.300
64.71000 176.397
64.88000 180.403
65.05000 192.989
65.22000 201.867
65.39000 242.555
65.56000 337.102
65.73000 630.092
65.90000 1057.605
66.07000 378.661
66.24000 318.134
66.41000 425.876
66.58000 345.085
66.75000 321.060
66.92000 339.737
67.09000 352.957
67.26000 369.378
67.43000 409.246
67.60000 437.282
67.77000 461.987
67.94000 511.733
68.11000 554.270
68.28000 638.573
68.45000 729.714
68.62000 1060.254
68.79000 1901.989
68.96000 12614.005
69.13000 58109.867
69.30000 34210.246
69.47000 8316.275
69.64000 1256.732
69.81000 834.682
69.98000 671.162
70.00000 662.290