File: XRD/XRD/22-09-2025 Dep 2/XY Data/BTO_Mapping_Theta2Theta_22-09-2025_001_35_-36-039_17-355.xy
20.00000 572.748
20.17000 584.454
20.34000 579.115
20.51000 572.877
20.68000 577.352
20.85000 567.890
21.02000 563.906
21.19000 539.878
21.36000 570.558
21.53000 582.933
21.70000 626.392
21.87000 808.210
22.04000 844.799
22.21000 682.682
22.38000 585.496
22.55000 553.909
22.72000 522.977
22.89000 518.074
23.06000 502.073
23.23000 511.544
23.40000 493.153
23.57000 512.534
23.74000 515.448
23.91000 503.764
24.08000 514.747
24.25000 510.552
24.42000 495.040
24.59000 489.336
24.76000 478.584
24.93000 477.046
25.10000 498.243
25.27000 487.854
25.44000 477.451
25.61000 467.970
25.78000 455.996
25.95000 471.754
26.12000 466.636
26.29000 464.034
26.46000 483.208
26.63000 459.679
26.80000 472.824
26.97000 440.222
27.14000 467.558
27.31000 457.497
27.48000 455.610
27.65000 454.166
27.82000 445.593
27.99000 456.413
28.16000 441.546
28.33000 429.400
28.50000 434.122
28.67000 436.671
28.84000 431.712
29.01000 430.656
29.18000 430.712
29.35000 436.008
29.52000 410.698
29.69000 446.345
29.86000 472.497
30.03000 501.109
30.20000 450.397
30.37000 442.070
30.54000 474.809
30.71000 484.588
30.88000 583.182
31.05000 1387.322
31.22000 5486.457
31.39000 5044.826
31.56000 1455.204
31.73000 659.052
31.90000 485.075
32.07000 437.990
32.24000 421.270
32.41000 427.522
32.58000 401.584
32.75000 399.885
32.92000 435.856
33.09000 387.221
33.26000 377.774
33.43000 359.704
33.60000 368.976
33.77000 355.422
33.94000 365.958
34.11000 348.669
34.28000 348.885
34.45000 330.105
34.62000 332.233
34.79000 334.868
34.96000 335.814
35.13000 334.088
35.30000 343.873
35.47000 318.896
35.64000 314.586
35.81000 321.695
35.98000 317.103
36.15000 313.004
36.32000 300.121
36.49000 330.423
36.66000 330.462
36.83000 330.006
37.00000 316.987
37.17000 326.355
37.34000 312.435
37.51000 316.742
37.68000 312.978
37.85000 312.615
38.02000 325.724
38.19000 357.696
38.36000 433.357
38.53000 552.609
38.70000 509.143
38.87000 390.909
39.04000 317.400
39.21000 306.122
39.38000 291.227
39.55000 286.913
39.72000 271.010
39.89000 270.045
40.06000 278.058
40.23000 260.513
40.40000 270.182
40.57000 270.418
40.74000 257.108
40.91000 256.410
41.08000 263.874
41.25000 264.783
41.42000 247.573
41.59000 247.083
41.76000 250.221
41.93000 240.566
42.10000 259.576
42.27000 214.603
42.44000 228.856
42.61000 246.047
42.78000 235.171
42.95000 243.498
43.12000 242.906
43.29000 233.778
43.46000 238.360
43.63000 230.334
43.80000 240.963
43.97000 255.497
44.14000 236.203
44.31000 246.896
44.48000 298.634
44.65000 385.801
44.82000 503.508
44.99000 489.388
45.16000 389.670
45.33000 302.810
45.50000 268.872
45.67000 267.426
45.84000 238.436
46.01000 213.604
46.18000 203.731
46.35000 206.464
46.52000 206.793
46.69000 206.489
46.86000 194.993
47.03000 208.200
47.20000 196.976
47.37000 207.112
47.54000 193.628
47.71000 200.734
47.88000 189.481
48.05000 183.717
48.22000 183.045
48.39000 191.578
48.56000 194.949
48.73000 200.435
48.90000 181.919
49.07000 188.107
49.24000 178.994
49.41000 182.117
49.58000 182.914
49.75000 199.171
49.92000 189.873
50.09000 191.262
50.26000 229.520
50.43000 280.549
50.60000 283.031
50.77000 232.663
50.94000 204.932
51.11000 195.267
51.28000 185.849
51.45000 190.894
51.62000 171.428
51.79000 166.896
51.96000 161.917
52.13000 158.027
52.30000 163.565
52.47000 175.489
52.64000 163.544
52.81000 172.933
52.98000 160.296
53.15000 162.361
53.32000 163.946
53.49000 166.896
53.66000 154.493
53.83000 156.432
54.00000 155.039
54.17000 158.228
54.34000 162.501
54.51000 155.902
54.68000 162.660
54.85000 165.063
55.02000 187.609
55.19000 188.744
55.36000 236.020
55.53000 427.448
55.70000 577.917
55.87000 473.156
56.04000 312.100
56.21000 230.062
56.38000 189.563
56.55000 172.497
56.72000 151.267
56.89000 155.544
57.06000 143.836
57.23000 143.614
57.40000 154.078
57.57000 152.410
57.74000 147.395
57.91000 139.664
58.08000 149.877
58.25000 148.197
58.42000 140.805
58.59000 147.697
58.76000 140.406
58.93000 137.346
59.10000 146.421
59.27000 130.923
59.44000 137.507
59.61000 128.932
59.78000 136.965
59.95000 136.147
60.12000 130.429
60.29000 133.106
60.46000 128.093
60.63000 132.708
60.80000 141.257
60.97000 136.911
61.14000 145.688
61.31000 131.482
61.48000 159.971
61.65000 364.097
61.82000 254.058
61.99000 145.176
62.16000 152.967
62.33000 151.134
62.50000 144.744
62.67000 145.770
62.84000 156.130
63.01000 141.723
63.18000 144.824
63.35000 150.983
63.52000 158.138
63.69000 161.997
63.86000 154.369
64.03000 169.922
64.20000 163.157
64.37000 176.663
64.54000 182.509
64.71000 191.817
64.88000 212.830
65.05000 324.297
65.22000 515.512
65.39000 564.646
65.56000 485.452
65.73000 832.865
65.90000 1550.332
66.07000 498.034
66.24000 372.481
66.41000 556.265
66.58000 420.362
66.75000 368.220
66.92000 378.428
67.09000 411.786
67.26000 419.626
67.43000 454.344
67.60000 527.931
67.77000 559.624
67.94000 570.871
68.11000 663.730
68.28000 747.171
68.45000 887.619
68.62000 1297.852
68.79000 2624.395
68.96000 18748.074
69.13000 93272.398
69.30000 56242.914
69.47000 14564.973
69.64000 1742.231
69.81000 1076.099
69.98000 808.382
70.00000 821.707