File: XRD/XRD/22-09-2025 Dep 2/XY Data/BTO_Mapping_Theta2Theta_22-09-2025_001_30_-24-940_31-273.xy
20.00000 561.213
20.17000 577.258
20.34000 565.599
20.51000 555.667
20.68000 552.322
20.85000 563.082
21.02000 557.337
21.19000 555.122
21.36000 555.848
21.53000 555.353
21.70000 583.529
21.87000 700.193
22.04000 830.220
22.21000 701.959
22.38000 611.390
22.55000 556.094
22.72000 518.599
22.89000 532.767
23.06000 524.231
23.23000 513.890
23.40000 498.744
23.57000 513.866
23.74000 514.162
23.91000 503.621
24.08000 492.382
24.25000 519.089
24.42000 498.716
24.59000 489.602
24.76000 488.228
24.93000 494.905
25.10000 483.511
25.27000 479.527
25.44000 488.053
25.61000 472.988
25.78000 476.034
25.95000 462.785
26.12000 469.493
26.29000 442.195
26.46000 456.953
26.63000 456.076
26.80000 469.397
26.97000 455.246
27.14000 442.747
27.31000 460.493
27.48000 444.167
27.65000 444.802
27.82000 435.920
27.99000 445.452
28.16000 450.091
28.33000 459.879
28.50000 450.873
28.67000 419.826
28.84000 407.705
29.01000 419.497
29.18000 409.605
29.35000 418.293
29.52000 404.563
29.69000 410.929
29.86000 427.092
30.03000 472.288
30.20000 455.044
30.37000 433.837
30.54000 440.032
30.71000 467.334
30.88000 511.620
31.05000 725.383
31.22000 2424.165
31.39000 4595.195
31.56000 2509.146
31.73000 888.127
31.90000 518.364
32.07000 439.495
32.24000 424.282
32.41000 415.615
32.58000 385.829
32.75000 382.119
32.92000 429.778
33.09000 385.007
33.26000 361.484
33.43000 350.839
33.60000 346.876
33.77000 357.526
33.94000 358.022
34.11000 345.527
34.28000 352.378
34.45000 336.816
34.62000 326.470
34.79000 336.019
34.96000 322.878
35.13000 312.379
35.30000 328.813
35.47000 314.203
35.64000 300.148
35.81000 327.630
35.98000 321.291
36.15000 317.093
36.32000 303.109
36.49000 309.118
36.66000 291.328
36.83000 291.786
37.00000 325.744
37.17000 322.372
37.34000 297.701
37.51000 275.187
37.68000 292.384
37.85000 303.365
38.02000 303.520
38.19000 322.304
38.36000 381.611
38.53000 564.404
38.70000 738.620
38.87000 545.950
39.04000 359.343
39.21000 313.818
39.38000 291.306
39.55000 277.070
39.72000 262.281
39.89000 269.040
40.06000 268.945
40.23000 275.953
40.40000 275.147
40.57000 254.715
40.74000 258.273
40.91000 240.267
41.08000 251.664
41.25000 252.852
41.42000 251.147
41.59000 256.671
41.76000 243.790
41.93000 251.619
42.10000 243.118
42.27000 234.678
42.44000 239.266
42.61000 221.428
42.78000 241.121
42.95000 233.956
43.12000 236.901
43.29000 239.756
43.46000 222.344
43.63000 230.720
43.80000 225.178
43.97000 230.269
44.14000 226.901
44.31000 230.669
44.48000 252.120
44.65000 281.908
44.82000 380.980
44.99000 453.986
45.16000 398.798
45.33000 323.248
45.50000 274.854
45.67000 256.882
45.84000 238.650
46.01000 214.384
46.18000 214.404
46.35000 213.174
46.52000 202.771
46.69000 204.337
46.86000 204.616
47.03000 199.195
47.20000 199.348
47.37000 191.574
47.54000 198.898
47.71000 178.067
47.88000 197.784
48.05000 180.414
48.22000 197.037
48.39000 183.912
48.56000 191.202
48.73000 185.796
48.90000 178.798
49.07000 191.231
49.24000 180.643
49.41000 185.585
49.58000 183.811
49.75000 198.632
49.92000 165.915
50.09000 189.209
50.26000 185.820
50.43000 224.165
50.60000 284.113
50.77000 268.345
50.94000 243.405
51.11000 209.825
51.28000 178.153
51.45000 166.980
51.62000 171.915
51.79000 183.733
51.96000 164.628
52.13000 161.306
52.30000 158.224
52.47000 159.625
52.64000 158.066
52.81000 167.249
52.98000 158.798
53.15000 164.510
53.32000 164.950
53.49000 174.805
53.66000 162.342
53.83000 159.615
54.00000 150.519
54.17000 163.079
54.34000 157.754
54.51000 160.791
54.68000 170.554
54.85000 162.098
55.02000 168.362
55.19000 172.348
55.36000 177.124
55.53000 243.730
55.70000 392.189
55.87000 553.924
56.04000 484.008
56.21000 339.012
56.38000 216.126
56.55000 184.160
56.72000 162.070
56.89000 151.976
57.06000 149.549
57.23000 163.353
57.40000 145.357
57.57000 154.366
57.74000 142.476
57.91000 143.932
58.08000 150.584
58.25000 140.506
58.42000 147.691
58.59000 143.625
58.76000 141.763
58.93000 133.252
59.10000 133.359
59.27000 136.168
59.44000 136.193
59.61000 135.835
59.78000 129.805
59.95000 138.825
60.12000 132.416
60.29000 135.402
60.46000 129.737
60.63000 140.582
60.80000 142.273
60.97000 133.334
61.14000 143.421
61.31000 141.560
61.48000 163.312
61.65000 373.305
61.82000 246.173
61.99000 152.402
62.16000 149.860
62.33000 140.395
62.50000 149.514
62.67000 137.724
62.84000 150.480
63.01000 151.388
63.18000 148.015
63.35000 146.549
63.52000 153.908
63.69000 145.790
63.86000 153.174
64.03000 162.138
64.20000 166.327
64.37000 171.068
64.54000 179.333
64.71000 182.141
64.88000 181.440
65.05000 224.017
65.22000 269.782
65.39000 391.066
65.56000 511.211
65.73000 958.313
65.90000 1697.598
66.07000 506.432
66.24000 391.268
66.41000 581.999
66.58000 425.751
66.75000 361.716
66.92000 388.352
67.09000 419.556
67.26000 444.348
67.43000 457.545
67.60000 528.124
67.77000 570.554
67.94000 606.919
68.11000 689.462
68.28000 762.013
68.45000 927.803
68.62000 1355.920
68.79000 2843.394
68.96000 22336.676
69.13000 96063.398
69.30000 57162.754
69.47000 14140.544
69.64000 1751.621
69.81000 1080.561
69.98000 855.173
70.00000 828.693