File: XRD/XRD/30-09-2025 Dep 1/XY Data/BTO_Mapping_Theta2Theta_30-09-2025_001_29_-32-361_23-511.xy
20.00000 541.767
20.17000 575.066
20.34000 574.767
20.51000 542.904
20.68000 551.696
20.85000 555.343
21.02000 551.097
21.19000 526.302
21.36000 558.625
21.53000 551.512
21.70000 551.986
21.87000 608.972
22.04000 657.920
22.21000 661.817
22.38000 569.656
22.55000 530.004
22.72000 538.603
22.89000 515.442
23.06000 524.266
23.23000 537.016
23.40000 511.150
23.57000 505.779
23.74000 522.409
23.91000 535.750
24.08000 549.189
24.25000 505.913
24.42000 495.269
24.59000 485.462
24.76000 487.506
24.93000 478.074
25.10000 484.436
25.27000 480.936
25.44000 464.103
25.61000 455.729
25.78000 445.994
25.95000 460.063
26.12000 482.531
26.29000 453.588
26.46000 466.580
26.63000 452.579
26.80000 452.461
26.97000 443.312
27.14000 437.558
27.31000 444.280
27.48000 427.781
27.65000 447.999
27.82000 436.569
27.99000 424.328
28.16000 440.749
28.33000 427.841
28.50000 426.055
28.67000 432.273
28.84000 413.527
29.01000 415.904
29.18000 410.063
29.35000 402.086
29.52000 419.862
29.69000 383.478
29.86000 418.072
30.03000 420.831
30.20000 419.539
30.37000 420.349
30.54000 418.702
30.71000 432.188
30.88000 437.761
31.05000 514.017
31.22000 947.191
31.39000 1761.900
31.56000 1212.255
31.73000 546.734
31.90000 421.759
32.07000 401.736
32.24000 401.119
32.41000 369.804
32.58000 353.517
32.75000 375.465
32.92000 364.562
33.09000 388.702
33.26000 353.444
33.43000 352.129
33.60000 337.624
33.77000 358.427
33.94000 346.663
34.11000 345.779
34.28000 351.570
34.45000 363.676
34.62000 363.984
34.79000 326.893
34.96000 329.105
35.13000 323.673
35.30000 332.310
35.47000 323.654
35.64000 317.128
35.81000 310.650
35.98000 302.793
36.15000 308.773
36.32000 303.373
36.49000 306.027
36.66000 313.694
36.83000 293.516
37.00000 301.636
37.17000 295.774
37.34000 292.963
37.51000 292.274
37.68000 294.757
37.85000 289.484
38.02000 279.904
38.19000 293.507
38.36000 320.875
38.53000 455.687
38.70000 869.040
38.87000 818.308
39.04000 398.592
39.21000 307.824
39.38000 288.184
39.55000 265.270
39.72000 272.593
39.89000 283.244
40.06000 258.290
40.23000 252.676
40.40000 253.962
40.57000 266.746
40.74000 259.814
40.91000 250.319
41.08000 255.868
41.25000 258.534
41.42000 250.320
41.59000 233.897
41.76000 236.413
41.93000 233.500
42.10000 231.606
42.27000 247.281
42.44000 243.102
42.61000 234.922
42.78000 240.510
42.95000 230.431
43.12000 231.280
43.29000 227.463
43.46000 212.392
43.63000 216.174
43.80000 230.760
43.97000 222.439
44.14000 225.697
44.31000 232.871
44.48000 236.405
44.65000 231.598
44.82000 264.605
44.99000 309.346
45.16000 348.541
45.33000 298.629
45.50000 253.480
45.67000 236.961
45.84000 208.779
46.01000 205.646
46.18000 195.519
46.35000 206.321
46.52000 215.485
46.69000 205.367
46.86000 192.610
47.03000 200.485
47.20000 185.233
47.37000 197.199
47.54000 196.265
47.71000 189.159
47.88000 179.883
48.05000 188.053
48.22000 189.155
48.39000 190.950
48.56000 186.375
48.73000 174.971
48.90000 173.795
49.07000 177.046
49.24000 178.112
49.41000 188.066
49.58000 177.189
49.75000 160.535
49.92000 188.166
50.09000 181.067
50.26000 168.303
50.43000 200.450
50.60000 211.164
50.77000 217.947
50.94000 188.712
51.11000 176.973
51.28000 165.438
51.45000 160.925
51.62000 168.948
51.79000 160.500
51.96000 163.102
52.13000 150.555
52.30000 160.764
52.47000 152.371
52.64000 161.130
52.81000 155.299
52.98000 155.498
53.15000 169.689
53.32000 167.797
53.49000 162.479
53.66000 160.183
53.83000 155.607
54.00000 154.539
54.17000 153.950
54.34000 157.566
54.51000 156.594
54.68000 159.678
54.85000 151.741
55.02000 153.325
55.19000 159.766
55.36000 159.112
55.53000 188.835
55.70000 277.594
55.87000 464.692
56.04000 550.890
56.21000 343.176
56.38000 193.024
56.55000 173.308
56.72000 153.235
56.89000 149.642
57.06000 146.359
57.23000 149.204
57.40000 141.303
57.57000 130.337
57.74000 141.184
57.91000 133.531
58.08000 142.360
58.25000 139.996
58.42000 146.261
58.59000 139.624
58.76000 140.148
58.93000 141.007
59.10000 132.801
59.27000 138.375
59.44000 127.350
59.61000 123.382
59.78000 135.779
59.95000 124.116
60.12000 126.525
60.29000 141.789
60.46000 142.756
60.63000 138.543
60.80000 142.377
60.97000 136.766
61.14000 137.820
61.31000 138.882
61.48000 137.546
61.65000 231.534
61.82000 211.464
61.99000 142.611
62.16000 131.025
62.33000 136.997
62.50000 146.061
62.67000 145.313
62.84000 145.766
63.01000 142.873
63.18000 150.629
63.35000 143.712
63.52000 145.960
63.69000 145.364
63.86000 148.318
64.03000 162.909
64.20000 169.680
64.37000 167.570
64.54000 166.576
64.71000 166.823
64.88000 169.871
65.05000 179.165
65.22000 205.737
65.39000 245.465
65.56000 298.190
65.73000 454.286
65.90000 916.147
66.07000 370.864
66.24000 267.001
66.41000 389.452
66.58000 325.184
66.75000 291.631
66.92000 324.456
67.09000 329.420
67.26000 353.402
67.43000 397.719
67.60000 413.020
67.77000 436.980
67.94000 477.305
68.11000 530.619
68.28000 585.085
68.45000 659.840
68.62000 867.206
68.79000 1552.895
68.96000 5818.640
69.13000 48181.305
69.30000 33083.090
69.47000 10423.220
69.64000 1224.278
69.81000 817.857
69.98000 662.499
70.00000 634.756