File: XRD/XRD/30-09-2025 Dep 1/XY Data/BTO_Mapping_Theta2Theta_30-09-2025_001_04_30-000_0-000.xy
20.00000 542.244
20.17000 558.365
20.34000 585.421
20.51000 569.151
20.68000 550.092
20.85000 566.066
21.02000 550.332
21.19000 546.159
21.36000 543.158
21.53000 546.692
21.70000 578.528
21.87000 706.470
22.04000 833.846
22.21000 682.603
22.38000 558.062
22.55000 540.146
22.72000 526.047
22.89000 521.807
23.06000 521.913
23.23000 545.161
23.40000 516.817
23.57000 519.056
23.74000 511.028
23.91000 488.967
24.08000 496.195
24.25000 494.570
24.42000 511.736
24.59000 490.970
24.76000 479.725
24.93000 481.451
25.10000 488.755
25.27000 480.670
25.44000 474.404
25.61000 459.381
25.78000 472.183
25.95000 465.689
26.12000 455.454
26.29000 466.467
26.46000 453.907
26.63000 475.947
26.80000 444.204
26.97000 451.951
27.14000 436.461
27.31000 459.311
27.48000 432.451
27.65000 445.396
27.82000 453.455
27.99000 421.193
28.16000 461.007
28.33000 433.885
28.50000 434.754
28.67000 415.677
28.84000 427.326
29.01000 419.594
29.18000 418.845
29.35000 406.329
29.52000 426.124
29.69000 410.681
29.86000 457.693
30.03000 466.603
30.20000 442.858
30.37000 433.786
30.54000 434.969
30.71000 487.605
30.88000 492.911
31.05000 767.807
31.22000 2443.071
31.39000 4072.630
31.56000 1652.659
31.73000 581.070
31.90000 431.803
32.07000 420.090
32.24000 422.202
32.41000 386.541
32.58000 390.984
32.75000 394.731
32.92000 448.929
33.09000 420.840
33.26000 366.111
33.43000 347.616
33.60000 336.423
33.77000 341.370
33.94000 333.448
34.11000 330.772
34.28000 341.193
34.45000 332.949
34.62000 328.029
34.79000 325.642
34.96000 316.281
35.13000 323.882
35.30000 323.242
35.47000 317.574
35.64000 320.169
35.81000 312.138
35.98000 292.109
36.15000 301.116
36.32000 296.658
36.49000 300.914
36.66000 312.627
36.83000 298.672
37.00000 306.387
37.17000 293.183
37.34000 301.725
37.51000 315.651
37.68000 274.287
37.85000 288.638
38.02000 296.036
38.19000 301.952
38.36000 352.279
38.53000 514.549
38.70000 805.108
38.87000 557.613
39.04000 322.667
39.21000 276.962
39.38000 274.995
39.55000 261.343
39.72000 259.586
39.89000 275.707
40.06000 256.425
40.23000 251.438
40.40000 251.365
40.57000 258.411
40.74000 262.926
40.91000 236.926
41.08000 254.245
41.25000 241.826
41.42000 247.818
41.59000 246.593
41.76000 231.040
41.93000 244.551
42.10000 241.980
42.27000 238.680
42.44000 233.748
42.61000 232.602
42.78000 221.785
42.95000 242.215
43.12000 225.818
43.29000 215.275
43.46000 226.423
43.63000 226.974
43.80000 235.128
43.97000 230.522
44.14000 227.350
44.31000 232.297
44.48000 222.652
44.65000 244.510
44.82000 314.662
44.99000 427.773
45.16000 424.566
45.33000 306.147
45.50000 237.501
45.67000 219.686
45.84000 213.974
46.01000 184.761
46.18000 215.442
46.35000 208.779
46.52000 211.052
46.69000 189.717
46.86000 206.520
47.03000 181.220
47.20000 209.195
47.37000 190.209
47.54000 189.777
47.71000 183.591
47.88000 190.824
48.05000 192.532
48.22000 183.295
48.39000 177.521
48.56000 181.215
48.73000 171.587
48.90000 186.305
49.07000 184.654
49.24000 185.521
49.41000 181.884
49.58000 169.848
49.75000 185.194
49.92000 183.322
50.09000 179.782
50.26000 193.101
50.43000 214.898
50.60000 264.072
50.77000 267.239
50.94000 213.372
51.11000 188.636
51.28000 166.349
51.45000 176.117
51.62000 167.763
51.79000 165.714
51.96000 162.091
52.13000 152.953
52.30000 166.453
52.47000 163.925
52.64000 172.179
52.81000 155.838
52.98000 156.114
53.15000 163.484
53.32000 160.355
53.49000 166.993
53.66000 159.558
53.83000 156.090
54.00000 151.308
54.17000 153.897
54.34000 161.246
54.51000 152.417
54.68000 176.743
54.85000 153.273
55.02000 172.779
55.19000 153.804
55.36000 171.933
55.53000 203.659
55.70000 370.905
55.87000 632.512
56.04000 579.704
56.21000 310.338
56.38000 193.997
56.55000 165.815
56.72000 155.274
56.89000 157.391
57.06000 148.071
57.23000 150.191
57.40000 145.035
57.57000 147.202
57.74000 142.835
57.91000 134.450
58.08000 151.139
58.25000 134.711
58.42000 136.733
58.59000 135.231
58.76000 128.482
58.93000 124.257
59.10000 129.754
59.27000 135.124
59.44000 144.771
59.61000 139.867
59.78000 132.169
59.95000 137.832
60.12000 129.487
60.29000 130.335
60.46000 127.005
60.63000 135.315
60.80000 130.497
60.97000 127.847
61.14000 138.729
61.31000 136.875
61.48000 158.421
61.65000 320.494
61.82000 204.794
61.99000 142.634
62.16000 150.814
62.33000 136.602
62.50000 128.303
62.67000 138.392
62.84000 147.780
63.01000 151.620
63.18000 149.006
63.35000 148.571
63.52000 142.406
63.69000 152.937
63.86000 168.363
64.03000 146.171
64.20000 166.083
64.37000 159.272
64.54000 181.408
64.71000 177.701
64.88000 186.115
65.05000 199.425
65.22000 258.218
65.39000 368.693
65.56000 499.455
65.73000 852.139
65.90000 1293.078
66.07000 381.918
66.24000 347.663
66.41000 488.124
66.58000 359.643
66.75000 338.632
66.92000 358.512
67.09000 362.199
67.26000 407.047
67.43000 439.548
67.60000 463.392
67.77000 492.449
67.94000 560.620
68.11000 611.860
68.28000 707.360
68.45000 819.661
68.62000 1248.487
68.79000 2346.417
68.96000 21803.471
69.13000 77546.367
69.30000 43191.137
69.47000 8478.028
69.64000 1411.253
69.81000 946.224
69.98000 769.292
70.00000 760.456