File: XRD/XRD/30-09-2025 Dep 1/XY Data/BTO_Mapping_Theta2Theta_30-09-2025_001_57_26-765_-29-726.xy
20.00000 589.187
20.17000 589.813
20.34000 561.105
20.51000 562.773
20.68000 575.956
20.85000 564.169
21.02000 561.000
21.19000 554.204
21.36000 562.795
21.53000 604.728
21.70000 719.340
21.87000 1060.629
22.04000 984.396
22.21000 683.687
22.38000 600.778
22.55000 537.647
22.72000 537.394
22.89000 535.579
23.06000 513.444
23.23000 540.057
23.40000 536.615
23.57000 532.203
23.74000 532.931
23.91000 504.349
24.08000 506.861
24.25000 505.919
24.42000 512.619
24.59000 513.790
24.76000 507.254
24.93000 504.195
25.10000 491.204
25.27000 496.594
25.44000 493.269
25.61000 483.952
25.78000 482.602
25.95000 484.419
26.12000 487.494
26.29000 466.852
26.46000 469.607
26.63000 471.148
26.80000 468.195
26.97000 454.017
27.14000 469.881
27.31000 461.866
27.48000 465.504
27.65000 465.561
27.82000 447.240
27.99000 440.593
28.16000 440.612
28.33000 447.337
28.50000 450.823
28.67000 438.733
28.84000 433.829
29.01000 441.278
29.18000 437.119
29.35000 444.072
29.52000 439.344
29.69000 465.289
29.86000 487.610
30.03000 461.434
30.20000 453.774
30.37000 452.533
30.54000 486.243
30.71000 516.664
30.88000 694.362
31.05000 2320.534
31.22000 4451.498
31.39000 2332.716
31.56000 740.736
31.73000 507.156
31.90000 459.536
32.07000 445.168
32.24000 396.647
32.41000 418.526
32.58000 393.871
32.75000 398.260
32.92000 459.321
33.09000 476.822
33.26000 364.901
33.43000 363.622
33.60000 362.839
33.77000 357.155
33.94000 358.062
34.11000 355.524
34.28000 344.458
34.45000 313.675
34.62000 339.610
34.79000 323.704
34.96000 326.830
35.13000 327.854
35.30000 334.881
35.47000 334.589
35.64000 311.423
35.81000 304.437
35.98000 300.730
36.15000 310.521
36.32000 320.044
36.49000 314.727
36.66000 322.979
36.83000 325.127
37.00000 320.114
37.17000 304.913
37.34000 320.735
37.51000 291.041
37.68000 301.238
37.85000 305.457
38.02000 310.882
38.19000 327.186
38.36000 392.402
38.53000 464.117
38.70000 397.786
38.87000 305.527
39.04000 294.344
39.21000 282.748
39.38000 284.534
39.55000 265.159
39.72000 276.707
39.89000 263.937
40.06000 274.225
40.23000 262.108
40.40000 279.320
40.57000 252.570
40.74000 256.524
40.91000 253.457
41.08000 242.175
41.25000 261.721
41.42000 261.665
41.59000 250.259
41.76000 254.544
41.93000 245.134
42.10000 241.100
42.27000 227.980
42.44000 239.483
42.61000 255.450
42.78000 242.592
42.95000 253.849
43.12000 235.649
43.29000 257.077
43.46000 236.602
43.63000 229.906
43.80000 246.366
43.97000 248.439
44.14000 249.771
44.31000 261.054
44.48000 340.754
44.65000 549.641
44.82000 733.009
44.99000 616.509
45.16000 416.752
45.33000 303.852
45.50000 261.902
45.67000 232.990
45.84000 227.267
46.01000 214.749
46.18000 222.980
46.35000 213.462
46.52000 216.797
46.69000 200.025
46.86000 218.163
47.03000 205.292
47.20000 204.842
47.37000 191.450
47.54000 199.329
47.71000 200.978
47.88000 187.678
48.05000 194.607
48.22000 192.937
48.39000 188.958
48.56000 189.592
48.73000 182.293
48.90000 177.118
49.07000 193.418
49.24000 189.867
49.41000 181.538
49.58000 186.106
49.75000 180.595
49.92000 184.530
50.09000 205.270
50.26000 242.382
50.43000 297.138
50.60000 282.151
50.77000 227.747
50.94000 187.572
51.11000 186.020
51.28000 181.477
51.45000 165.808
51.62000 171.121
51.79000 171.636
51.96000 177.815
52.13000 173.448
52.30000 167.077
52.47000 176.760
52.64000 153.755
52.81000 175.992
52.98000 163.618
53.15000 173.265
53.32000 169.993
53.49000 167.010
53.66000 170.750
53.83000 163.111
54.00000 157.195
54.17000 168.264
54.34000 165.333
54.51000 167.833
54.68000 152.245
54.85000 167.888
55.02000 171.190
55.19000 194.197
55.36000 248.727
55.53000 443.072
55.70000 544.666
55.87000 431.067
56.04000 263.257
56.21000 204.574
56.38000 176.132
56.55000 153.869
56.72000 168.629
56.89000 156.788
57.06000 146.897
57.23000 146.945
57.40000 144.961
57.57000 148.896
57.74000 151.862
57.91000 144.125
58.08000 134.499
58.25000 138.875
58.42000 146.499
58.59000 133.881
58.76000 139.354
58.93000 129.084
59.10000 135.292
59.27000 138.566
59.44000 142.755
59.61000 150.416
59.78000 131.947
59.95000 129.776
60.12000 131.244
60.29000 135.622
60.46000 138.374
60.63000 130.068
60.80000 134.919
60.97000 145.531
61.14000 149.681
61.31000 144.751
61.48000 158.884
61.65000 355.975
61.82000 220.105
61.99000 159.775
62.16000 152.150
62.33000 145.678
62.50000 153.282
62.67000 143.696
62.84000 151.237
63.01000 147.169
63.18000 162.316
63.35000 147.530
63.52000 154.693
63.69000 147.667
63.86000 174.264
64.03000 170.093
64.20000 164.928
64.37000 175.589
64.54000 175.810
64.71000 191.307
64.88000 227.055
65.05000 328.178
65.22000 423.120
65.39000 393.508
65.56000 360.334
65.73000 867.248
65.90000 1407.517
66.07000 418.715
66.24000 349.650
66.41000 560.271
66.58000 376.210
66.75000 354.250
66.92000 371.342
67.09000 414.478
67.26000 422.954
67.43000 480.428
67.60000 508.727
67.77000 554.839
67.94000 604.244
68.11000 673.363
68.28000 729.243
68.45000 890.772
68.62000 1310.450
68.79000 2704.586
68.96000 26547.930
69.13000 91578.367
69.30000 51987.098
69.47000 10651.222
69.64000 1611.927
69.81000 1054.680
69.98000 808.429
70.00000 813.090