File: XRD/XRD/30-09-2025 Dep 1/XY Data/BTO_Mapping_Theta2Theta_30-09-2025_001_10_6-691_7-431.xy
20.00000 574.261
20.17000 552.554
20.34000 561.370
20.51000 543.474
20.68000 566.236
20.85000 542.594
21.02000 548.836
21.19000 563.176
21.36000 537.737
21.53000 556.692
21.70000 556.238
21.87000 611.896
22.04000 763.541
22.21000 639.799
22.38000 556.614
22.55000 526.892
22.72000 519.887
22.89000 512.937
23.06000 526.358
23.23000 526.149
23.40000 507.823
23.57000 510.420
23.74000 519.128
23.91000 518.723
24.08000 530.081
24.25000 534.825
24.42000 497.035
24.59000 496.950
24.76000 493.861
24.93000 483.787
25.10000 483.308
25.27000 486.605
25.44000 473.629
25.61000 469.301
25.78000 472.920
25.95000 446.584
26.12000 464.775
26.29000 462.912
26.46000 461.008
26.63000 425.290
26.80000 452.486
26.97000 447.623
27.14000 448.479
27.31000 452.765
27.48000 449.721
27.65000 456.649
27.82000 444.586
27.99000 446.298
28.16000 431.201
28.33000 416.116
28.50000 447.123
28.67000 418.568
28.84000 418.871
29.01000 413.218
29.18000 421.299
29.35000 405.632
29.52000 409.388
29.69000 407.675
29.86000 424.697
30.03000 466.801
30.20000 435.552
30.37000 442.255
30.54000 452.607
30.71000 443.730
30.88000 478.930
31.05000 663.472
31.22000 1920.172
31.39000 3582.705
31.56000 1648.666
31.73000 568.847
31.90000 441.645
32.07000 411.558
32.24000 389.938
32.41000 388.721
32.58000 381.899
32.75000 362.152
32.92000 396.315
33.09000 423.207
33.26000 336.728
33.43000 359.830
33.60000 360.541
33.77000 352.573
33.94000 333.246
34.11000 343.144
34.28000 351.183
34.45000 344.464
34.62000 337.872
34.79000 324.314
34.96000 339.146
35.13000 323.040
35.30000 315.235
35.47000 314.603
35.64000 323.317
35.81000 288.882
35.98000 305.939
36.15000 305.107
36.32000 303.667
36.49000 309.389
36.66000 305.642
36.83000 294.323
37.00000 277.126
37.17000 315.047
37.34000 300.804
37.51000 298.885
37.68000 296.795
37.85000 292.359
38.02000 293.949
38.19000 294.208
38.36000 347.073
38.53000 528.206
38.70000 892.297
38.87000 666.312
39.04000 330.055
39.21000 285.140
39.38000 264.733
39.55000 266.604
39.72000 273.988
39.89000 263.748
40.06000 259.629
40.23000 251.106
40.40000 247.490
40.57000 254.355
40.74000 248.152
40.91000 247.989
41.08000 251.639
41.25000 254.773
41.42000 230.233
41.59000 236.841
41.76000 261.417
41.93000 235.300
42.10000 236.023
42.27000 252.347
42.44000 248.015
42.61000 242.017
42.78000 240.669
42.95000 234.723
43.12000 227.619
43.29000 232.076
43.46000 236.446
43.63000 215.497
43.80000 226.565
43.97000 232.206
44.14000 212.629
44.31000 224.558
44.48000 230.200
44.65000 247.637
44.82000 280.269
44.99000 394.753
45.16000 390.593
45.33000 281.375
45.50000 250.615
45.67000 213.538
45.84000 215.735
46.01000 214.930
46.18000 210.606
46.35000 207.480
46.52000 200.139
46.69000 210.330
46.86000 199.756
47.03000 190.171
47.20000 183.400
47.37000 186.533
47.54000 185.565
47.71000 195.817
47.88000 188.677
48.05000 199.691
48.22000 182.069
48.39000 177.166
48.56000 190.195
48.73000 173.694
48.90000 178.449
49.07000 183.197
49.24000 182.463
49.41000 181.566
49.58000 171.165
49.75000 179.115
49.92000 166.274
50.09000 166.590
50.26000 185.159
50.43000 196.572
50.60000 242.196
50.77000 256.353
50.94000 211.421
51.11000 180.411
51.28000 166.745
51.45000 181.262
51.62000 179.318
51.79000 174.309
51.96000 162.807
52.13000 170.143
52.30000 165.282
52.47000 166.654
52.64000 154.533
52.81000 160.726
52.98000 156.325
53.15000 167.175
53.32000 150.194
53.49000 155.939
53.66000 162.643
53.83000 149.144
54.00000 158.332
54.17000 154.959
54.34000 147.344
54.51000 142.989
54.68000 161.761
54.85000 156.652
55.02000 159.954
55.19000 164.720
55.36000 168.465
55.53000 210.367
55.70000 332.027
55.87000 617.345
56.04000 577.933
56.21000 319.599
56.38000 192.499
56.55000 170.661
56.72000 156.799
56.89000 147.323
57.06000 148.178
57.23000 143.568
57.40000 156.322
57.57000 147.480
57.74000 152.415
57.91000 139.488
58.08000 136.469
58.25000 146.496
58.42000 126.083
58.59000 137.858
58.76000 135.577
58.93000 140.023
59.10000 135.083
59.27000 130.807
59.44000 132.894
59.61000 141.142
59.78000 128.763
59.95000 145.542
60.12000 142.275
60.29000 130.625
60.46000 128.290
60.63000 137.172
60.80000 131.257
60.97000 138.771
61.14000 137.144
61.31000 125.831
61.48000 157.644
61.65000 291.753
61.82000 204.630
61.99000 142.015
62.16000 139.858
62.33000 141.926
62.50000 140.225
62.67000 142.089
62.84000 141.249
63.01000 144.203
63.18000 139.596
63.35000 143.478
63.52000 144.257
63.69000 151.014
63.86000 162.221
64.03000 157.781
64.20000 166.060
64.37000 157.978
64.54000 165.492
64.71000 173.360
64.88000 193.914
65.05000 202.952
65.22000 233.415
65.39000 339.847
65.56000 416.595
65.73000 697.388
65.90000 1133.599
66.07000 375.542
66.24000 311.153
66.41000 445.854
66.58000 367.003
66.75000 309.402
66.92000 327.139
67.09000 376.982
67.26000 375.867
67.43000 399.865
67.60000 445.013
67.77000 462.495
67.94000 506.326
68.11000 567.099
68.28000 649.796
68.45000 767.833
68.62000 1048.824
68.79000 1968.970
68.96000 12912.742
69.13000 63624.426
69.30000 37424.098
69.47000 8742.729
69.64000 1281.709
69.81000 865.501
69.98000 688.510
70.00000 705.928