File: XRD/XRD/30-09-2025 Dep 1/XY Data/BTO_Mapping_Theta2Theta_30-09-2025_001_36_-29-344_-6-237.xy
20.00000 580.497
20.17000 551.480
20.34000 570.523
20.51000 551.398
20.68000 552.047
20.85000 561.154
21.02000 548.837
21.19000 558.784
21.36000 545.758
21.53000 529.985
21.70000 568.842
21.87000 592.230
22.04000 698.437
22.21000 655.834
22.38000 542.897
22.55000 516.621
22.72000 510.101
22.89000 505.911
23.06000 514.335
23.23000 525.035
23.40000 524.807
23.57000 515.937
23.74000 507.030
23.91000 508.731
24.08000 523.534
24.25000 518.113
24.42000 493.567
24.59000 467.129
24.76000 497.224
24.93000 462.003
25.10000 473.352
25.27000 480.655
25.44000 463.696
25.61000 467.275
25.78000 475.662
25.95000 464.153
26.12000 466.011
26.29000 453.657
26.46000 458.297
26.63000 461.430
26.80000 446.013
26.97000 471.824
27.14000 448.270
27.31000 455.266
27.48000 442.063
27.65000 436.447
27.82000 438.476
27.99000 438.079
28.16000 436.778
28.33000 441.867
28.50000 422.688
28.67000 407.062
28.84000 441.778
29.01000 413.067
29.18000 404.016
29.35000 442.630
29.52000 421.117
29.69000 429.646
29.86000 413.961
30.03000 452.023
30.20000 452.593
30.37000 425.958
30.54000 438.094
30.71000 431.099
30.88000 472.494
31.05000 583.442
31.22000 1564.902
31.39000 3626.628
31.56000 2137.855
31.73000 646.429
31.90000 446.090
32.07000 424.602
32.24000 427.144
32.41000 386.721
32.58000 383.508
32.75000 354.603
32.92000 390.915
33.09000 432.342
33.26000 363.554
33.43000 354.513
33.60000 343.765
33.77000 343.254
33.94000 333.497
34.11000 348.079
34.28000 352.301
34.45000 343.889
34.62000 354.926
34.79000 321.847
34.96000 316.285
35.13000 330.935
35.30000 320.792
35.47000 310.845
35.64000 319.165
35.81000 311.682
35.98000 320.335
36.15000 314.179
36.32000 311.622
36.49000 290.208
36.66000 303.702
36.83000 306.051
37.00000 305.300
37.17000 304.067
37.34000 286.167
37.51000 279.699
37.68000 286.232
37.85000 285.258
38.02000 295.116
38.19000 297.251
38.36000 310.894
38.53000 435.456
38.70000 811.073
38.87000 692.715
39.04000 360.191
39.21000 277.904
39.38000 281.016
39.55000 278.259
39.72000 273.129
39.89000 247.272
40.06000 271.129
40.23000 255.429
40.40000 279.602
40.57000 257.982
40.74000 257.619
40.91000 250.533
41.08000 234.911
41.25000 231.161
41.42000 249.505
41.59000 244.931
41.76000 244.222
41.93000 233.605
42.10000 234.578
42.27000 246.491
42.44000 232.419
42.61000 241.598
42.78000 237.837
42.95000 220.420
43.12000 240.099
43.29000 224.525
43.46000 224.234
43.63000 219.550
43.80000 220.427
43.97000 224.625
44.14000 228.849
44.31000 228.513
44.48000 219.368
44.65000 247.198
44.82000 265.736
44.99000 326.566
45.16000 374.480
45.33000 290.990
45.50000 249.153
45.67000 216.250
45.84000 214.776
46.01000 220.528
46.18000 205.601
46.35000 212.274
46.52000 214.175
46.69000 189.194
46.86000 202.525
47.03000 198.452
47.20000 195.983
47.37000 194.895
47.54000 191.875
47.71000 192.339
47.88000 188.269
48.05000 190.783
48.22000 192.829
48.39000 186.147
48.56000 181.631
48.73000 186.575
48.90000 179.366
49.07000 170.179
49.24000 177.549
49.41000 177.460
49.58000 172.315
49.75000 172.279
49.92000 192.169
50.09000 171.763
50.26000 196.285
50.43000 186.690
50.60000 242.642
50.77000 261.001
50.94000 226.359
51.11000 187.426
51.28000 165.844
51.45000 174.484
51.62000 171.225
51.79000 165.563
51.96000 159.904
52.13000 155.296
52.30000 169.998
52.47000 165.273
52.64000 165.300
52.81000 163.050
52.98000 161.303
53.15000 159.056
53.32000 160.793
53.49000 167.503
53.66000 170.475
53.83000 158.630
54.00000 159.893
54.17000 152.049
54.34000 149.367
54.51000 153.266
54.68000 145.187
54.85000 162.416
55.02000 159.872
55.19000 162.612
55.36000 168.092
55.53000 191.531
55.70000 274.400
55.87000 537.826
56.04000 616.233
56.21000 349.043
56.38000 199.236
56.55000 162.489
56.72000 156.912
56.89000 149.913
57.06000 154.790
57.23000 152.321
57.40000 140.381
57.57000 151.641
57.74000 143.997
57.91000 147.035
58.08000 144.644
58.25000 145.551
58.42000 143.099
58.59000 131.717
58.76000 137.950
58.93000 141.695
59.10000 138.832
59.27000 126.157
59.44000 140.241
59.61000 129.131
59.78000 139.685
59.95000 135.340
60.12000 125.961
60.29000 135.030
60.46000 132.947
60.63000 133.861
60.80000 141.732
60.97000 128.817
61.14000 141.644
61.31000 138.071
61.48000 144.067
61.65000 260.144
61.82000 216.903
61.99000 140.396
62.16000 142.162
62.33000 154.530
62.50000 139.585
62.67000 145.410
62.84000 139.902
63.01000 152.688
63.18000 148.221
63.35000 139.739
63.52000 138.479
63.69000 149.510
63.86000 148.269
64.03000 159.412
64.20000 159.952
64.37000 158.088
64.54000 161.816
64.71000 161.732
64.88000 181.341
65.05000 195.475
65.22000 232.948
65.39000 309.020
65.56000 444.490
65.73000 605.830
65.90000 1120.757
66.07000 421.934
66.24000 292.414
66.41000 423.924
66.58000 370.171
66.75000 310.974
66.92000 316.302
67.09000 352.824
67.26000 388.245
67.43000 384.130
67.60000 422.411
67.77000 444.628
67.94000 500.461
68.11000 570.659
68.28000 625.487
68.45000 695.984
68.62000 970.276
68.79000 1747.132
68.96000 7002.346
69.13000 58873.742
69.30000 39931.777
69.47000 12384.113
69.64000 1338.738
69.81000 863.087
69.98000 712.842
70.00000 723.326