File: XRD/XRD/30-09-2025 Dep 1/XY Data/BTO_Mapping_Theta2Theta_30-09-2025_001_17_12-361_38-042.xy
20.00000 565.529
20.17000 565.764
20.34000 578.124
20.51000 551.057
20.68000 572.710
20.85000 574.796
21.02000 555.481
21.19000 551.503
21.36000 565.453
21.53000 555.549
21.70000 576.443
21.87000 611.875
22.04000 681.411
22.21000 634.164
22.38000 541.803
22.55000 530.403
22.72000 522.681
22.89000 537.139
23.06000 515.093
23.23000 511.517
23.40000 519.494
23.57000 514.582
23.74000 524.862
23.91000 564.028
24.08000 548.411
24.25000 518.618
24.42000 502.966
24.59000 499.130
24.76000 492.217
24.93000 475.868
25.10000 482.118
25.27000 482.511
25.44000 474.080
25.61000 471.797
25.78000 474.561
25.95000 474.965
26.12000 445.375
26.29000 464.832
26.46000 432.514
26.63000 444.633
26.80000 441.265
26.97000 423.056
27.14000 445.985
27.31000 442.073
27.48000 446.588
27.65000 453.004
27.82000 446.372
27.99000 432.135
28.16000 449.537
28.33000 414.008
28.50000 429.361
28.67000 418.377
28.84000 417.016
29.01000 415.495
29.18000 400.541
29.35000 402.236
29.52000 409.584
29.69000 406.389
29.86000 405.872
30.03000 425.692
30.20000 433.897
30.37000 411.483
30.54000 406.601
30.71000 409.204
30.88000 435.864
31.05000 521.988
31.22000 1075.057
31.39000 1809.953
31.56000 1130.167
31.73000 531.940
31.90000 416.511
32.07000 406.030
32.24000 398.968
32.41000 380.023
32.58000 380.376
32.75000 359.310
32.92000 356.995
33.09000 398.091
33.26000 363.597
33.43000 335.116
33.60000 346.405
33.77000 344.780
33.94000 349.219
34.11000 355.864
34.28000 366.005
34.45000 359.890
34.62000 355.275
34.79000 333.814
34.96000 340.733
35.13000 320.347
35.30000 302.835
35.47000 305.616
35.64000 321.184
35.81000 321.449
35.98000 305.997
36.15000 316.727
36.32000 301.994
36.49000 294.986
36.66000 307.302
36.83000 294.431
37.00000 311.501
37.17000 288.664
37.34000 294.025
37.51000 278.812
37.68000 298.478
37.85000 298.696
38.02000 318.054
38.19000 305.224
38.36000 321.892
38.53000 496.772
38.70000 945.836
38.87000 771.195
39.04000 384.802
39.21000 291.041
39.38000 291.997
39.55000 285.650
39.72000 275.296
39.89000 256.227
40.06000 257.883
40.23000 251.445
40.40000 256.292
40.57000 260.606
40.74000 242.572
40.91000 241.811
41.08000 249.653
41.25000 237.293
41.42000 243.053
41.59000 241.500
41.76000 237.376
41.93000 229.310
42.10000 246.051
42.27000 238.496
42.44000 253.795
42.61000 234.094
42.78000 236.699
42.95000 230.571
43.12000 241.545
43.29000 226.485
43.46000 229.421
43.63000 238.282
43.80000 216.715
43.97000 224.525
44.14000 212.612
44.31000 228.749
44.48000 236.728
44.65000 235.126
44.82000 263.362
44.99000 321.030
45.16000 338.271
45.33000 296.341
45.50000 245.852
45.67000 219.236
45.84000 215.533
46.01000 218.079
46.18000 198.978
46.35000 203.075
46.52000 199.369
46.69000 204.902
46.86000 204.710
47.03000 198.408
47.20000 188.537
47.37000 195.181
47.54000 185.548
47.71000 184.971
47.88000 193.388
48.05000 186.902
48.22000 168.559
48.39000 195.522
48.56000 184.847
48.73000 179.154
48.90000 180.181
49.07000 174.048
49.24000 185.123
49.41000 180.267
49.58000 185.202
49.75000 165.404
49.92000 168.409
50.09000 172.800
50.26000 178.846
50.43000 192.571
50.60000 211.125
50.77000 215.403
50.94000 206.285
51.11000 179.921
51.28000 148.415
51.45000 157.979
51.62000 166.777
51.79000 172.612
51.96000 167.318
52.13000 160.307
52.30000 166.583
52.47000 149.711
52.64000 155.647
52.81000 155.895
52.98000 164.367
53.15000 152.619
53.32000 158.571
53.49000 171.812
53.66000 160.240
53.83000 161.785
54.00000 157.287
54.17000 157.872
54.34000 161.207
54.51000 152.600
54.68000 165.560
54.85000 155.349
55.02000 154.482
55.19000 161.830
55.36000 162.237
55.53000 194.772
55.70000 298.827
55.87000 514.962
56.04000 524.617
56.21000 313.092
56.38000 205.516
56.55000 165.002
56.72000 157.111
56.89000 146.793
57.06000 156.194
57.23000 140.903
57.40000 143.236
57.57000 147.828
57.74000 140.525
57.91000 148.846
58.08000 139.692
58.25000 147.032
58.42000 132.949
58.59000 126.545
58.76000 139.752
58.93000 129.958
59.10000 143.309
59.27000 136.487
59.44000 122.281
59.61000 144.196
59.78000 132.484
59.95000 127.784
60.12000 134.515
60.29000 131.177
60.46000 134.663
60.63000 126.928
60.80000 122.275
60.97000 132.971
61.14000 134.365
61.31000 131.171
61.48000 149.292
61.65000 242.441
61.82000 192.576
61.99000 145.901
62.16000 149.262
62.33000 137.078
62.50000 150.477
62.67000 143.441
62.84000 141.336
63.01000 139.366
63.18000 156.989
63.35000 145.197
63.52000 143.027
63.69000 146.117
63.86000 159.546
64.03000 158.992
64.20000 151.432
64.37000 164.128
64.54000 155.425
64.71000 167.356
64.88000 179.593
65.05000 203.083
65.22000 197.647
65.39000 258.878
65.56000 297.658
65.73000 522.521
65.90000 931.643
66.07000 336.050
66.24000 284.884
66.41000 402.820
66.58000 326.516
66.75000 314.651
66.92000 331.712
67.09000 313.068
67.26000 357.137
67.43000 384.372
67.60000 401.943
67.77000 462.136
67.94000 489.234
68.11000 511.928
68.28000 584.066
68.45000 700.300
68.62000 910.644
68.79000 1694.774
68.96000 10000.614
69.13000 49114.691
69.30000 29095.877
69.47000 6992.706
69.64000 1147.645
69.81000 793.459
69.98000 650.315
70.00000 651.568