File: XRD/XRD/30-09-2025 Dep 1/XY Data/BTO_Mapping_Theta2Theta_30-09-2025_001_61_36-542_-16-269.xy
20.00000 577.615
20.17000 564.418
20.34000 563.479
20.51000 577.487
20.68000 558.552
20.85000 555.634
21.02000 551.545
21.19000 562.388
21.36000 572.800
21.53000 590.134
21.70000 615.406
21.87000 817.103
22.04000 859.855
22.21000 623.418
22.38000 552.304
22.55000 531.095
22.72000 525.916
22.89000 536.281
23.06000 528.969
23.23000 535.411
23.40000 542.578
23.57000 514.413
23.74000 517.134
23.91000 513.905
24.08000 497.772
24.25000 485.217
24.42000 519.364
24.59000 497.081
24.76000 494.502
24.93000 488.986
25.10000 497.148
25.27000 474.267
25.44000 474.839
25.61000 475.180
25.78000 473.631
25.95000 489.163
26.12000 469.281
26.29000 471.077
26.46000 477.575
26.63000 451.261
26.80000 459.514
26.97000 471.693
27.14000 459.135
27.31000 446.172
27.48000 436.625
27.65000 466.395
27.82000 458.983
27.99000 437.446
28.16000 453.761
28.33000 444.031
28.50000 435.752
28.67000 438.929
28.84000 406.593
29.01000 428.700
29.18000 435.990
29.35000 426.570
29.52000 427.830
29.69000 438.814
29.86000 457.544
30.03000 470.986
30.20000 433.868
30.37000 447.198
30.54000 458.680
30.71000 472.664
30.88000 541.382
31.05000 1156.368
31.22000 3843.810
31.39000 3724.784
31.56000 1083.083
31.73000 505.321
31.90000 456.373
32.07000 427.164
32.24000 416.593
32.41000 396.360
32.58000 380.927
32.75000 383.493
32.92000 466.686
33.09000 474.337
33.26000 354.576
33.43000 355.119
33.60000 337.941
33.77000 338.835
33.94000 341.324
34.11000 341.614
34.28000 332.048
34.45000 334.490
34.62000 322.590
34.79000 339.238
34.96000 326.101
35.13000 326.645
35.30000 331.383
35.47000 328.653
35.64000 325.853
35.81000 309.239
35.98000 313.055
36.15000 311.705
36.32000 319.628
36.49000 305.692
36.66000 300.381
36.83000 322.893
37.00000 315.050
37.17000 296.786
37.34000 292.484
37.51000 325.804
37.68000 300.473
37.85000 299.391
38.02000 298.709
38.19000 307.741
38.36000 356.602
38.53000 491.792
38.70000 586.415
38.87000 378.395
39.04000 293.711
39.21000 287.494
39.38000 268.493
39.55000 264.471
39.72000 269.847
39.89000 275.190
40.06000 274.337
40.23000 259.415
40.40000 268.404
40.57000 256.024
40.74000 236.459
40.91000 260.346
41.08000 248.472
41.25000 252.921
41.42000 246.107
41.59000 248.892
41.76000 251.835
41.93000 250.540
42.10000 229.495
42.27000 243.505
42.44000 254.259
42.61000 229.956
42.78000 227.007
42.95000 228.031
43.12000 240.696
43.29000 232.318
43.46000 222.033
43.63000 220.712
43.80000 225.676
43.97000 218.439
44.14000 231.841
44.31000 227.409
44.48000 252.496
44.65000 296.406
44.82000 453.817
44.99000 532.747
45.16000 398.332
45.33000 265.961
45.50000 237.265
45.67000 221.487
45.84000 222.851
46.01000 213.887
46.18000 218.023
46.35000 198.534
46.52000 213.488
46.69000 188.163
46.86000 197.660
47.03000 200.607
47.20000 194.030
47.37000 203.794
47.54000 191.919
47.71000 189.254
47.88000 193.963
48.05000 184.477
48.22000 177.891
48.39000 184.742
48.56000 182.802
48.73000 184.159
48.90000 184.616
49.07000 186.480
49.24000 185.737
49.41000 185.517
49.58000 188.961
49.75000 179.905
49.92000 173.044
50.09000 195.141
50.26000 204.806
50.43000 250.817
50.60000 297.738
50.77000 253.332
50.94000 203.203
51.11000 173.706
51.28000 177.660
51.45000 168.187
51.62000 162.719
51.79000 177.132
51.96000 168.315
52.13000 165.264
52.30000 173.156
52.47000 161.536
52.64000 156.102
52.81000 157.896
52.98000 165.242
53.15000 161.540
53.32000 169.105
53.49000 164.599
53.66000 154.893
53.83000 161.648
54.00000 161.325
54.17000 157.564
54.34000 153.526
54.51000 165.668
54.68000 159.882
54.85000 161.696
55.02000 168.527
55.19000 171.071
55.36000 184.963
55.53000 291.557
55.70000 556.558
55.87000 667.126
56.04000 426.266
56.21000 242.258
56.38000 177.819
56.55000 157.864
56.72000 157.662
56.89000 150.101
57.06000 150.973
57.23000 144.156
57.40000 147.161
57.57000 146.457
57.74000 153.927
57.91000 144.619
58.08000 141.300
58.25000 138.866
58.42000 142.877
58.59000 137.199
58.76000 138.954
58.93000 129.705
59.10000 149.233
59.27000 143.032
59.44000 144.760
59.61000 136.562
59.78000 133.462
59.95000 131.628
60.12000 136.729
60.29000 131.026
60.46000 127.185
60.63000 133.151
60.80000 133.088
60.97000 134.399
61.14000 138.123
61.31000 130.921
61.48000 151.816
61.65000 338.739
61.82000 205.278
61.99000 142.955
62.16000 141.510
62.33000 144.966
62.50000 138.918
62.67000 144.220
62.84000 140.674
63.01000 147.653
63.18000 143.482
63.35000 147.306
63.52000 149.480
63.69000 147.872
63.86000 148.448
64.03000 163.102
64.20000 160.244
64.37000 156.463
64.54000 168.546
64.71000 181.633
64.88000 198.111
65.05000 230.953
65.22000 325.348
65.39000 454.761
65.56000 447.588
65.73000 894.941
65.90000 1376.192
66.07000 412.678
66.24000 347.160
66.41000 524.180
66.58000 387.303
66.75000 353.953
66.92000 361.605
67.09000 384.205
67.26000 420.506
67.43000 443.269
67.60000 487.242
67.77000 535.018
67.94000 595.684
68.11000 624.443
68.28000 709.834
68.45000 844.513
68.62000 1314.022
68.79000 2544.499
68.96000 26117.441
69.13000 85154.180
69.30000 47182.852
69.47000 9154.275
69.64000 1495.743
69.81000 985.324
69.98000 806.733
70.00000 782.722