File: XRD/XRD/30-09-2025 Dep 1/XY Data/BTO_Mapping_Theta2Theta_30-09-2025_001_23_-10-000_17-321.xy
20.00000 574.312
20.17000 541.316
20.34000 573.238
20.51000 549.232
20.68000 562.956
20.85000 563.166
21.02000 561.471
21.19000 546.735
21.36000 527.046
21.53000 535.054
21.70000 541.768
21.87000 589.704
22.04000 649.063
22.21000 605.741
22.38000 566.141
22.55000 551.611
22.72000 514.952
22.89000 526.231
23.06000 530.224
23.23000 486.340
23.40000 533.598
23.57000 499.642
23.74000 521.478
23.91000 518.971
24.08000 528.174
24.25000 503.982
24.42000 483.006
24.59000 477.777
24.76000 480.218
24.93000 488.337
25.10000 473.701
25.27000 471.067
25.44000 463.474
25.61000 471.866
25.78000 461.999
25.95000 464.436
26.12000 476.944
26.29000 473.204
26.46000 450.765
26.63000 446.872
26.80000 451.803
26.97000 454.107
27.14000 448.976
27.31000 450.313
27.48000 437.750
27.65000 450.136
27.82000 434.481
27.99000 420.501
28.16000 423.187
28.33000 434.324
28.50000 431.473
28.67000 402.586
28.84000 427.351
29.01000 406.746
29.18000 397.013
29.35000 419.833
29.52000 423.359
29.69000 409.189
29.86000 425.389
30.03000 441.746
30.20000 434.585
30.37000 428.798
30.54000 395.205
30.71000 422.305
30.88000 437.972
31.05000 564.355
31.22000 1371.317
31.39000 2829.176
31.56000 1633.851
31.73000 572.201
31.90000 419.552
32.07000 414.767
32.24000 386.925
32.41000 397.269
32.58000 396.746
32.75000 372.581
32.92000 369.038
33.09000 375.385
33.26000 341.339
33.43000 350.050
33.60000 327.533
33.77000 326.878
33.94000 332.580
34.11000 349.110
34.28000 353.625
34.45000 366.534
34.62000 361.380
34.79000 352.751
34.96000 331.407
35.13000 322.375
35.30000 320.173
35.47000 310.367
35.64000 286.792
35.81000 314.189
35.98000 312.604
36.15000 289.840
36.32000 294.220
36.49000 300.678
36.66000 300.904
36.83000 297.351
37.00000 313.556
37.17000 281.090
37.34000 302.156
37.51000 297.043
37.68000 284.836
37.85000 292.738
38.02000 304.100
38.19000 314.846
38.36000 338.994
38.53000 519.599
38.70000 1079.731
38.87000 890.122
39.04000 389.881
39.21000 297.294
39.38000 279.343
39.55000 285.057
39.72000 267.175
39.89000 271.093
40.06000 267.892
40.23000 257.339
40.40000 245.746
40.57000 262.043
40.74000 240.490
40.91000 248.318
41.08000 248.592
41.25000 251.029
41.42000 244.341
41.59000 236.347
41.76000 231.685
41.93000 229.868
42.10000 234.234
42.27000 236.509
42.44000 240.209
42.61000 235.851
42.78000 235.238
42.95000 217.520
43.12000 223.290
43.29000 223.765
43.46000 218.112
43.63000 239.840
43.80000 229.608
43.97000 216.173
44.14000 216.203
44.31000 233.070
44.48000 218.793
44.65000 224.167
44.82000 248.020
44.99000 281.879
45.16000 299.943
45.33000 272.365
45.50000 243.021
45.67000 209.841
45.84000 216.209
46.01000 208.731
46.18000 203.210
46.35000 202.537
46.52000 201.515
46.69000 190.843
46.86000 191.585
47.03000 188.850
47.20000 202.363
47.37000 185.389
47.54000 189.103
47.71000 184.387
47.88000 191.734
48.05000 192.517
48.22000 180.787
48.39000 186.460
48.56000 185.496
48.73000 185.700
48.90000 176.878
49.07000 186.945
49.24000 183.097
49.41000 177.788
49.58000 167.190
49.75000 175.666
49.92000 173.237
50.09000 168.556
50.26000 168.096
50.43000 184.406
50.60000 216.022
50.77000 242.710
50.94000 220.731
51.11000 169.149
51.28000 162.624
51.45000 150.361
51.62000 157.137
51.79000 159.086
51.96000 170.875
52.13000 160.136
52.30000 165.073
52.47000 169.171
52.64000 159.196
52.81000 152.527
52.98000 160.322
53.15000 163.881
53.32000 158.192
53.49000 154.710
53.66000 166.126
53.83000 154.304
54.00000 151.012
54.17000 158.278
54.34000 148.503
54.51000 149.882
54.68000 159.318
54.85000 136.354
55.02000 161.180
55.19000 167.463
55.36000 175.907
55.53000 188.930
55.70000 293.776
55.87000 545.828
56.04000 578.986
56.21000 360.526
56.38000 199.102
56.55000 168.476
56.72000 157.378
56.89000 142.846
57.06000 140.344
57.23000 146.895
57.40000 144.487
57.57000 145.120
57.74000 138.395
57.91000 138.326
58.08000 149.252
58.25000 132.561
58.42000 144.252
58.59000 135.862
58.76000 137.283
58.93000 131.657
59.10000 142.111
59.27000 138.255
59.44000 135.081
59.61000 132.167
59.78000 146.963
59.95000 132.366
60.12000 133.925
60.29000 134.145
60.46000 134.750
60.63000 134.868
60.80000 123.176
60.97000 124.257
61.14000 130.464
61.31000 132.944
61.48000 137.373
61.65000 240.202
61.82000 197.694
61.99000 142.666
62.16000 139.060
62.33000 141.139
62.50000 144.945
62.67000 135.293
62.84000 138.349
63.01000 147.166
63.18000 147.567
63.35000 139.913
63.52000 144.530
63.69000 135.001
63.86000 148.267
64.03000 147.010
64.20000 160.702
64.37000 155.389
64.54000 161.659
64.71000 173.360
64.88000 180.461
65.05000 183.892
65.22000 213.712
65.39000 287.132
65.56000 348.936
65.73000 554.982
65.90000 925.557
66.07000 350.934
66.24000 278.353
66.41000 384.364
66.58000 318.915
66.75000 297.993
66.92000 312.005
67.09000 345.997
67.26000 329.819
67.43000 389.677
67.60000 419.168
67.77000 435.758
67.94000 462.720
68.11000 491.274
68.28000 580.759
68.45000 655.139
68.62000 881.615
68.79000 1567.147
68.96000 7675.504
69.13000 47029.418
69.30000 29482.213
69.47000 7948.791
69.64000 1133.073
69.81000 786.474
69.98000 633.106
70.00000 630.743