File: XRD/XRD/30-09-2025 Dep 1/XY Data/BTO_Mapping_Theta2Theta_30-09-2025_001_33_-39-126_8-316.xy
20.00000 571.883
20.17000 578.292
20.34000 553.370
20.51000 555.911
20.68000 571.828
20.85000 545.000
21.02000 556.358
21.19000 555.783
21.36000 539.199
21.53000 533.724
21.70000 566.765
21.87000 582.646
22.04000 641.565
22.21000 630.695
22.38000 549.794
22.55000 538.025
22.72000 510.549
22.89000 523.043
23.06000 519.682
23.23000 516.754
23.40000 518.775
23.57000 499.743
23.74000 511.234
23.91000 523.954
24.08000 524.147
24.25000 515.249
24.42000 500.422
24.59000 499.412
24.76000 474.405
24.93000 463.680
25.10000 458.549
25.27000 480.254
25.44000 467.520
25.61000 470.360
25.78000 458.844
25.95000 465.936
26.12000 447.138
26.29000 458.855
26.46000 462.372
26.63000 459.300
26.80000 471.751
26.97000 449.380
27.14000 443.867
27.31000 449.899
27.48000 435.964
27.65000 425.032
27.82000 424.790
27.99000 412.334
28.16000 429.903
28.33000 439.701
28.50000 432.903
28.67000 413.257
28.84000 423.307
29.01000 412.127
29.18000 398.510
29.35000 397.596
29.52000 394.478
29.69000 402.844
29.86000 407.714
30.03000 435.395
30.20000 433.577
30.37000 422.860
30.54000 411.805
30.71000 419.699
30.88000 445.499
31.05000 499.214
31.22000 1025.570
31.39000 2220.960
31.56000 1543.710
31.73000 578.295
31.90000 426.047
32.07000 394.863
32.24000 400.904
32.41000 396.530
32.58000 382.537
32.75000 380.056
32.92000 378.376
33.09000 397.810
33.26000 366.834
33.43000 356.492
33.60000 344.992
33.77000 338.923
33.94000 345.066
34.11000 350.595
34.28000 355.717
34.45000 352.262
34.62000 349.903
34.79000 343.361
34.96000 332.868
35.13000 327.360
35.30000 314.217
35.47000 310.995
35.64000 315.430
35.81000 310.586
35.98000 313.517
36.15000 313.750
36.32000 305.330
36.49000 297.990
36.66000 301.382
36.83000 303.133
37.00000 299.224
37.17000 305.013
37.34000 289.385
37.51000 302.514
37.68000 279.036
37.85000 283.200
38.02000 282.072
38.19000 299.631
38.36000 322.556
38.53000 461.037
38.70000 975.856
38.87000 977.830
39.04000 436.215
39.21000 282.645
39.38000 287.757
39.55000 283.698
39.72000 272.301
39.89000 277.455
40.06000 262.113
40.23000 268.488
40.40000 236.988
40.57000 262.236
40.74000 241.725
40.91000 250.864
41.08000 244.663
41.25000 253.250
41.42000 251.448
41.59000 239.869
41.76000 250.957
41.93000 235.000
42.10000 248.611
42.27000 252.393
42.44000 240.723
42.61000 240.549
42.78000 229.682
42.95000 231.719
43.12000 228.203
43.29000 222.911
43.46000 237.900
43.63000 213.642
43.80000 228.465
43.97000 226.516
44.14000 221.884
44.31000 223.410
44.48000 223.310
44.65000 240.236
44.82000 253.388
44.99000 282.912
45.16000 314.993
45.33000 267.354
45.50000 227.197
45.67000 212.642
45.84000 214.038
46.01000 202.716
46.18000 210.751
46.35000 206.818
46.52000 204.078
46.69000 210.179
46.86000 206.493
47.03000 219.765
47.20000 194.003
47.37000 192.490
47.54000 192.085
47.71000 185.315
47.88000 172.771
48.05000 188.762
48.22000 196.404
48.39000 189.586
48.56000 176.015
48.73000 182.960
48.90000 186.317
49.07000 187.173
49.24000 170.374
49.41000 179.881
49.58000 175.422
49.75000 186.408
49.92000 163.465
50.09000 169.525
50.26000 169.290
50.43000 185.383
50.60000 220.777
50.77000 227.819
50.94000 211.939
51.11000 177.671
51.28000 166.310
51.45000 155.397
51.62000 153.352
51.79000 159.257
51.96000 160.094
52.13000 166.934
52.30000 165.529
52.47000 148.590
52.64000 165.721
52.81000 164.184
52.98000 155.733
53.15000 151.086
53.32000 162.656
53.49000 162.967
53.66000 165.235
53.83000 156.896
54.00000 152.684
54.17000 157.296
54.34000 161.933
54.51000 165.320
54.68000 143.177
54.85000 155.552
55.02000 149.952
55.19000 166.927
55.36000 171.689
55.53000 181.180
55.70000 270.739
55.87000 503.749
56.04000 594.258
56.21000 387.719
56.38000 221.220
56.55000 174.078
56.72000 162.263
56.89000 149.683
57.06000 144.162
57.23000 142.637
57.40000 143.325
57.57000 130.490
57.74000 136.825
57.91000 135.554
58.08000 139.349
58.25000 138.526
58.42000 145.005
58.59000 142.900
58.76000 133.712
58.93000 129.809
59.10000 141.893
59.27000 131.111
59.44000 132.730
59.61000 128.826
59.78000 136.134
59.95000 133.013
60.12000 134.772
60.29000 123.490
60.46000 134.958
60.63000 132.148
60.80000 131.080
60.97000 142.844
61.14000 134.550
61.31000 134.407
61.48000 142.416
61.65000 225.911
61.82000 214.402
61.99000 145.549
62.16000 137.394
62.33000 131.991
62.50000 138.126
62.67000 142.062
62.84000 154.125
63.01000 146.572
63.18000 147.857
63.35000 151.469
63.52000 142.292
63.69000 147.214
63.86000 143.067
64.03000 147.079
64.20000 161.295
64.37000 169.535
64.54000 167.825
64.71000 177.965
64.88000 173.131
65.05000 193.476
65.22000 218.512
65.39000 249.089
65.56000 321.717
65.73000 464.517
65.90000 883.449
66.07000 391.841
66.24000 283.427
66.41000 385.712
66.58000 342.881
66.75000 284.934
66.92000 295.765
67.09000 334.402
67.26000 346.338
67.43000 369.091
67.60000 396.964
67.77000 433.974
67.94000 471.507
68.11000 523.463
68.28000 565.440
68.45000 671.310
68.62000 831.234
68.79000 1550.438
68.96000 5047.355
69.13000 47256.098
69.30000 33344.551
69.47000 11116.134
69.64000 1217.655
69.81000 778.311
69.98000 661.259
70.00000 636.313