File: XRD/XRD/30-09-2025 Dep 1/XY Data/BTO_Mapping_Theta2Theta_30-09-2025_001_35_-19-563_-4-158.xy
20.00000 557.472
20.17000 586.759
20.34000 560.968
20.51000 551.220
20.68000 559.689
20.85000 553.301
21.02000 558.138
21.19000 547.451
21.36000 580.274
21.53000 536.598
21.70000 545.512
21.87000 611.054
22.04000 738.526
22.21000 667.139
22.38000 546.445
22.55000 537.365
22.72000 520.364
22.89000 515.319
23.06000 503.618
23.23000 506.001
23.40000 493.903
23.57000 501.862
23.74000 508.059
23.91000 515.204
24.08000 535.221
24.25000 501.561
24.42000 482.041
24.59000 506.860
24.76000 493.677
24.93000 493.273
25.10000 470.492
25.27000 487.160
25.44000 508.379
25.61000 478.825
25.78000 475.434
25.95000 462.693
26.12000 467.825
26.29000 478.868
26.46000 454.643
26.63000 458.314
26.80000 448.411
26.97000 445.562
27.14000 431.993
27.31000 462.888
27.48000 432.523
27.65000 433.233
27.82000 430.265
27.99000 444.863
28.16000 434.983
28.33000 431.438
28.50000 413.703
28.67000 433.483
28.84000 433.065
29.01000 418.653
29.18000 418.618
29.35000 412.363
29.52000 406.360
29.69000 406.472
29.86000 411.613
30.03000 436.723
30.20000 433.702
30.37000 440.263
30.54000 425.434
30.71000 454.600
30.88000 482.960
31.05000 625.326
31.22000 1774.642
31.39000 3738.644
31.56000 1906.713
31.73000 621.911
31.90000 450.856
32.07000 422.140
32.24000 407.876
32.41000 383.713
32.58000 403.936
32.75000 375.570
32.92000 402.371
33.09000 431.151
33.26000 359.752
33.43000 352.165
33.60000 352.397
33.77000 342.782
33.94000 335.955
34.11000 347.534
34.28000 332.399
34.45000 341.486
34.62000 331.092
34.79000 338.256
34.96000 337.785
35.13000 318.147
35.30000 314.071
35.47000 318.474
35.64000 340.928
35.81000 316.828
35.98000 310.044
36.15000 317.819
36.32000 306.028
36.49000 298.521
36.66000 302.111
36.83000 307.889
37.00000 309.180
37.17000 295.927
37.34000 291.363
37.51000 286.845
37.68000 289.344
37.85000 282.529
38.02000 299.795
38.19000 284.450
38.36000 322.739
38.53000 458.112
38.70000 850.920
38.87000 644.616
39.04000 335.417
39.21000 285.622
39.38000 270.038
39.55000 280.135
39.72000 267.205
39.89000 269.918
40.06000 268.157
40.23000 242.270
40.40000 251.834
40.57000 263.260
40.74000 257.797
40.91000 247.593
41.08000 253.717
41.25000 241.912
41.42000 241.785
41.59000 243.737
41.76000 243.935
41.93000 237.707
42.10000 241.254
42.27000 240.278
42.44000 232.158
42.61000 236.204
42.78000 238.415
42.95000 231.474
43.12000 221.485
43.29000 219.251
43.46000 224.788
43.63000 236.331
43.80000 226.243
43.97000 219.385
44.14000 227.185
44.31000 239.300
44.48000 230.097
44.65000 233.084
44.82000 257.672
44.99000 357.527
45.16000 419.515
45.33000 307.869
45.50000 257.055
45.67000 219.040
45.84000 204.528
46.01000 208.564
46.18000 208.581
46.35000 206.858
46.52000 208.252
46.69000 218.894
46.86000 193.120
47.03000 192.033
47.20000 191.578
47.37000 199.360
47.54000 194.422
47.71000 193.985
47.88000 193.568
48.05000 184.782
48.22000 194.003
48.39000 186.322
48.56000 186.164
48.73000 177.373
48.90000 184.160
49.07000 185.245
49.24000 183.133
49.41000 183.448
49.58000 178.814
49.75000 177.126
49.92000 195.890
50.09000 166.865
50.26000 188.463
50.43000 203.603
50.60000 256.735
50.77000 273.675
50.94000 219.836
51.11000 188.924
51.28000 164.950
51.45000 168.003
51.62000 161.181
51.79000 161.278
51.96000 170.133
52.13000 156.555
52.30000 158.158
52.47000 168.646
52.64000 165.118
52.81000 154.516
52.98000 151.628
53.15000 165.448
53.32000 169.253
53.49000 171.886
53.66000 163.816
53.83000 156.456
54.00000 167.533
54.17000 149.410
54.34000 153.135
54.51000 155.856
54.68000 161.452
54.85000 156.080
55.02000 157.093
55.19000 154.971
55.36000 160.455
55.53000 200.834
55.70000 299.625
55.87000 568.137
56.04000 585.908
56.21000 326.473
56.38000 196.243
56.55000 158.013
56.72000 153.119
56.89000 161.563
57.06000 142.281
57.23000 151.055
57.40000 144.909
57.57000 146.320
57.74000 140.351
57.91000 137.242
58.08000 148.514
58.25000 137.267
58.42000 144.537
58.59000 135.634
58.76000 130.473
58.93000 143.160
59.10000 139.420
59.27000 140.273
59.44000 144.622
59.61000 135.724
59.78000 135.673
59.95000 127.018
60.12000 139.099
60.29000 128.565
60.46000 131.728
60.63000 135.986
60.80000 131.237
60.97000 142.870
61.14000 144.082
61.31000 136.213
61.48000 147.138
61.65000 283.394
61.82000 228.384
61.99000 144.609
62.16000 137.484
62.33000 145.980
62.50000 153.818
62.67000 131.418
62.84000 144.668
63.01000 147.582
63.18000 145.016
63.35000 148.927
63.52000 147.732
63.69000 148.958
63.86000 154.327
64.03000 150.147
64.20000 156.045
64.37000 152.091
64.54000 166.204
64.71000 164.752
64.88000 176.999
65.05000 201.480
65.22000 233.480
65.39000 325.156
65.56000 441.737
65.73000 637.322
65.90000 1153.044
66.07000 412.403
66.24000 302.240
66.41000 463.112
66.58000 364.410
66.75000 320.813
66.92000 335.000
67.09000 358.614
67.26000 390.630
67.43000 413.744
67.60000 460.323
67.77000 510.195
67.94000 502.696
68.11000 569.985
68.28000 656.600
68.45000 741.864
68.62000 995.452
68.79000 1933.359
68.96000 9407.271
69.13000 66073.711
69.30000 42588.594
69.47000 12037.532
69.64000 1406.049
69.81000 916.452
69.98000 734.046
70.00000 721.081