File: XRD/XRD/30-09-2025 Dep 1/XY Data/BTO_Mapping_Theta2Theta_30-09-2025_001_47_-2-091_-19-890.xy
20.00000 571.137
20.17000 571.417
20.34000 581.028
20.51000 573.394
20.68000 584.702
20.85000 550.237
21.02000 547.803
21.19000 558.662
21.36000 550.986
21.53000 577.735
21.70000 596.665
21.87000 803.853
22.04000 936.526
22.21000 689.489
22.38000 555.503
22.55000 556.241
22.72000 546.870
22.89000 535.187
23.06000 518.411
23.23000 531.913
23.40000 496.562
23.57000 513.174
23.74000 521.452
23.91000 505.030
24.08000 513.734
24.25000 483.411
24.42000 477.594
24.59000 510.731
24.76000 503.851
24.93000 492.278
25.10000 487.860
25.27000 494.390
25.44000 480.983
25.61000 478.990
25.78000 486.722
25.95000 487.565
26.12000 486.426
26.29000 466.309
26.46000 470.344
26.63000 441.939
26.80000 448.915
26.97000 455.095
27.14000 469.094
27.31000 448.283
27.48000 431.642
27.65000 444.324
27.82000 457.078
27.99000 445.185
28.16000 435.791
28.33000 443.245
28.50000 445.501
28.67000 439.616
28.84000 418.001
29.01000 430.763
29.18000 428.472
29.35000 431.385
29.52000 426.309
29.69000 423.751
29.86000 453.630
30.03000 464.120
30.20000 453.257
30.37000 422.222
30.54000 438.612
30.71000 439.861
30.88000 505.703
31.05000 888.194
31.22000 2858.288
31.39000 3797.843
31.56000 1273.714
31.73000 555.557
31.90000 458.316
32.07000 418.443
32.24000 410.173
32.41000 395.824
32.58000 398.159
32.75000 390.899
32.92000 449.206
33.09000 473.033
33.26000 355.420
33.43000 369.528
33.60000 355.624
33.77000 339.006
33.94000 345.872
34.11000 341.242
34.28000 330.874
34.45000 345.101
34.62000 332.831
34.79000 333.320
34.96000 317.690
35.13000 333.713
35.30000 327.564
35.47000 309.841
35.64000 330.793
35.81000 308.092
35.98000 304.276
36.15000 305.616
36.32000 300.894
36.49000 302.710
36.66000 322.602
36.83000 327.031
37.00000 310.239
37.17000 310.274
37.34000 298.145
37.51000 299.915
37.68000 302.594
37.85000 308.256
38.02000 301.940
38.19000 309.742
38.36000 357.399
38.53000 489.863
38.70000 599.674
38.87000 402.050
39.04000 296.453
39.21000 285.211
39.38000 287.890
39.55000 271.381
39.72000 274.311
39.89000 279.631
40.06000 273.195
40.23000 264.085
40.40000 271.706
40.57000 247.921
40.74000 254.379
40.91000 254.915
41.08000 262.530
41.25000 259.441
41.42000 256.565
41.59000 240.164
41.76000 234.354
41.93000 255.142
42.10000 249.634
42.27000 240.634
42.44000 236.329
42.61000 234.193
42.78000 227.729
42.95000 236.638
43.12000 229.206
43.29000 226.855
43.46000 223.772
43.63000 232.837
43.80000 233.523
43.97000 230.131
44.14000 228.365
44.31000 236.131
44.48000 238.434
44.65000 280.532
44.82000 446.060
44.99000 589.541
45.16000 451.596
45.33000 288.191
45.50000 230.133
45.67000 227.656
45.84000 216.603
46.01000 217.397
46.18000 211.562
46.35000 209.624
46.52000 202.372
46.69000 200.609
46.86000 208.607
47.03000 197.378
47.20000 198.847
47.37000 204.087
47.54000 194.350
47.71000 192.532
47.88000 191.481
48.05000 191.509
48.22000 187.696
48.39000 193.177
48.56000 190.762
48.73000 187.320
48.90000 180.292
49.07000 181.659
49.24000 187.923
49.41000 187.801
49.58000 189.339
49.75000 177.849
49.92000 184.224
50.09000 182.709
50.26000 199.239
50.43000 226.120
50.60000 305.558
50.77000 269.815
50.94000 222.623
51.11000 181.601
51.28000 177.449
51.45000 175.727
51.62000 168.663
51.79000 156.854
51.96000 167.279
52.13000 166.146
52.30000 171.571
52.47000 159.732
52.64000 168.810
52.81000 161.378
52.98000 170.221
53.15000 154.881
53.32000 165.758
53.49000 167.068
53.66000 153.202
53.83000 157.039
54.00000 150.186
54.17000 174.565
54.34000 158.458
54.51000 154.699
54.68000 155.462
54.85000 161.882
55.02000 168.489
55.19000 163.450
55.36000 187.715
55.53000 259.225
55.70000 469.973
55.87000 643.864
56.04000 445.331
56.21000 234.706
56.38000 178.110
56.55000 160.375
56.72000 159.029
56.89000 146.719
57.06000 156.945
57.23000 155.065
57.40000 162.255
57.57000 150.468
57.74000 152.205
57.91000 133.583
58.08000 151.166
58.25000 153.269
58.42000 142.293
58.59000 141.996
58.76000 135.420
58.93000 135.209
59.10000 147.648
59.27000 128.782
59.44000 120.311
59.61000 144.276
59.78000 134.665
59.95000 134.984
60.12000 146.719
60.29000 127.089
60.46000 128.155
60.63000 143.503
60.80000 144.583
60.97000 132.505
61.14000 126.988
61.31000 141.931
61.48000 151.923
61.65000 326.853
61.82000 227.873
61.99000 138.543
62.16000 148.228
62.33000 144.582
62.50000 140.391
62.67000 153.530
62.84000 142.000
63.01000 146.987
63.18000 141.337
63.35000 158.686
63.52000 150.336
63.69000 158.469
63.86000 145.991
64.03000 142.353
64.20000 163.717
64.37000 167.513
64.54000 180.983
64.71000 184.967
64.88000 193.629
65.05000 221.660
65.22000 301.434
65.39000 418.078
65.56000 422.054
65.73000 742.162
65.90000 1356.283
66.07000 429.801
66.24000 322.407
66.41000 513.381
66.58000 389.102
66.75000 346.645
66.92000 352.408
67.09000 392.718
67.26000 410.334
67.43000 432.889
67.60000 463.280
67.77000 521.350
67.94000 554.088
68.11000 627.199
68.28000 685.392
68.45000 812.710
68.62000 1175.769
68.79000 2303.697
68.96000 17018.109
69.13000 80728.297
69.30000 48863.824
69.47000 12007.706
69.64000 1525.330
69.81000 996.990
69.98000 771.797
70.00000 775.319