File: XRD/XRD/30-09-2025 Dep 1/XY Data/BTO_Mapping_Theta2Theta_30-09-2025_001_39_-16-180_-11-756.xy
20.00000 558.855
20.17000 568.530
20.34000 576.334
20.51000 565.688
20.68000 550.749
20.85000 554.401
21.02000 561.302
21.19000 588.495
21.36000 535.786
21.53000 565.223
21.70000 550.207
21.87000 676.535
22.04000 837.415
22.21000 701.985
22.38000 570.692
22.55000 532.833
22.72000 532.727
22.89000 524.208
23.06000 534.267
23.23000 546.850
23.40000 502.762
23.57000 500.365
23.74000 491.665
23.91000 504.392
24.08000 496.127
24.25000 501.281
24.42000 498.632
24.59000 484.547
24.76000 501.785
24.93000 480.968
25.10000 471.167
25.27000 475.900
25.44000 471.331
25.61000 486.254
25.78000 476.363
25.95000 481.123
26.12000 471.246
26.29000 466.800
26.46000 441.513
26.63000 454.120
26.80000 442.187
26.97000 426.870
27.14000 464.650
27.31000 448.687
27.48000 452.042
27.65000 451.539
27.82000 432.309
27.99000 433.820
28.16000 436.335
28.33000 441.363
28.50000 419.434
28.67000 432.221
28.84000 430.694
29.01000 414.401
29.18000 425.708
29.35000 427.435
29.52000 408.113
29.69000 417.883
29.86000 433.534
30.03000 460.157
30.20000 456.206
30.37000 431.044
30.54000 441.243
30.71000 469.254
30.88000 488.095
31.05000 675.299
31.22000 2033.001
31.39000 3921.172
31.56000 1802.766
31.73000 574.520
31.90000 440.780
32.07000 418.260
32.24000 410.422
32.41000 395.989
32.58000 377.630
32.75000 381.998
32.92000 435.298
33.09000 446.655
33.26000 373.610
33.43000 363.694
33.60000 371.558
33.77000 350.561
33.94000 333.353
34.11000 335.521
34.28000 344.149
34.45000 329.443
34.62000 338.313
34.79000 331.093
34.96000 337.133
35.13000 323.091
35.30000 326.475
35.47000 317.073
35.64000 301.488
35.81000 308.219
35.98000 314.968
36.15000 310.105
36.32000 305.722
36.49000 303.640
36.66000 306.296
36.83000 300.764
37.00000 302.098
37.17000 301.525
37.34000 297.640
37.51000 300.778
37.68000 288.216
37.85000 296.147
38.02000 309.097
38.19000 300.757
38.36000 329.827
38.53000 475.853
38.70000 760.196
38.87000 551.924
39.04000 342.694
39.21000 287.727
39.38000 277.793
39.55000 280.183
39.72000 259.946
39.89000 272.039
40.06000 260.477
40.23000 256.043
40.40000 242.263
40.57000 244.674
40.74000 256.686
40.91000 254.626
41.08000 251.436
41.25000 252.581
41.42000 233.655
41.59000 243.971
41.76000 240.904
41.93000 246.462
42.10000 243.354
42.27000 237.221
42.44000 232.337
42.61000 237.238
42.78000 235.332
42.95000 238.073
43.12000 232.619
43.29000 217.501
43.46000 233.099
43.63000 222.665
43.80000 229.609
43.97000 216.160
44.14000 231.096
44.31000 233.746
44.48000 226.468
44.65000 231.667
44.82000 308.568
44.99000 462.010
45.16000 449.702
45.33000 298.695
45.50000 246.445
45.67000 225.125
45.84000 217.170
46.01000 200.386
46.18000 213.923
46.35000 217.399
46.52000 200.631
46.69000 199.208
46.86000 194.813
47.03000 204.873
47.20000 196.558
47.37000 188.154
47.54000 192.794
47.71000 192.189
47.88000 190.732
48.05000 194.565
48.22000 188.919
48.39000 189.290
48.56000 177.856
48.73000 187.313
48.90000 177.694
49.07000 175.298
49.24000 177.128
49.41000 187.875
49.58000 180.568
49.75000 169.697
49.92000 182.605
50.09000 170.302
50.26000 188.683
50.43000 204.278
50.60000 260.983
50.77000 281.213
50.94000 214.718
51.11000 187.061
51.28000 171.841
51.45000 169.938
51.62000 165.913
51.79000 161.230
51.96000 165.918
52.13000 165.219
52.30000 150.224
52.47000 158.153
52.64000 160.567
52.81000 164.372
52.98000 153.249
53.15000 168.373
53.32000 171.428
53.49000 152.319
53.66000 157.440
53.83000 167.619
54.00000 148.428
54.17000 165.337
54.34000 155.544
54.51000 156.870
54.68000 156.433
54.85000 153.317
55.02000 164.696
55.19000 169.207
55.36000 171.234
55.53000 205.151
55.70000 336.638
55.87000 611.578
56.04000 566.252
56.21000 317.320
56.38000 195.919
56.55000 160.455
56.72000 149.818
56.89000 154.187
57.06000 149.568
57.23000 145.704
57.40000 148.686
57.57000 144.180
57.74000 130.154
57.91000 149.000
58.08000 149.962
58.25000 134.614
58.42000 137.402
58.59000 137.255
58.76000 129.279
58.93000 131.310
59.10000 132.674
59.27000 151.041
59.44000 137.983
59.61000 144.690
59.78000 128.601
59.95000 134.389
60.12000 127.759
60.29000 133.708
60.46000 134.276
60.63000 127.928
60.80000 141.182
60.97000 142.398
61.14000 144.167
61.31000 130.221
61.48000 145.287
61.65000 302.521
61.82000 249.529
61.99000 141.455
62.16000 138.129
62.33000 149.408
62.50000 139.786
62.67000 146.179
62.84000 145.050
63.01000 147.221
63.18000 154.534
63.35000 157.927
63.52000 153.777
63.69000 161.736
63.86000 174.276
64.03000 152.634
64.20000 163.590
64.37000 169.604
64.54000 175.660
64.71000 176.653
64.88000 193.002
65.05000 199.512
65.22000 246.823
65.39000 351.051
65.56000 435.193
65.73000 747.220
65.90000 1323.553
66.07000 452.543
66.24000 355.303
66.41000 504.513
66.58000 379.503
66.75000 332.721
66.92000 354.115
67.09000 382.258
67.26000 389.850
67.43000 422.367
67.60000 487.352
67.77000 515.893
67.94000 566.938
68.11000 620.207
68.28000 673.906
68.45000 802.164
68.62000 1129.362
68.79000 2182.566
68.96000 12522.054
69.13000 76503.445
69.30000 48456.688
69.47000 13266.849
69.64000 1510.159
69.81000 989.297
69.98000 788.013
70.00000 769.923