File: XRD/XRD/30-09-2025 Dep 1/XY Data/BTO_Mapping_Theta2Theta_30-09-2025_001_58_9-135_-4-067.xy
20.00000 579.765
20.17000 597.949
20.34000 582.063
20.51000 566.115
20.68000 569.752
20.85000 557.889
21.02000 561.673
21.19000 543.363
21.36000 567.217
21.53000 559.540
21.70000 571.792
21.87000 733.719
22.04000 871.031
22.21000 697.598
22.38000 570.379
22.55000 540.661
22.72000 556.957
22.89000 524.136
23.06000 515.330
23.23000 526.729
23.40000 495.473
23.57000 512.402
23.74000 506.327
23.91000 494.735
24.08000 495.058
24.25000 490.715
24.42000 502.906
24.59000 472.738
24.76000 510.258
24.93000 482.479
25.10000 482.702
25.27000 470.399
25.44000 479.295
25.61000 472.960
25.78000 468.528
25.95000 470.180
26.12000 479.160
26.29000 465.303
26.46000 473.409
26.63000 456.281
26.80000 450.044
26.97000 452.702
27.14000 436.532
27.31000 454.419
27.48000 440.322
27.65000 459.206
27.82000 459.412
27.99000 437.670
28.16000 441.603
28.33000 434.672
28.50000 426.503
28.67000 439.998
28.84000 423.593
29.01000 421.025
29.18000 434.634
29.35000 409.605
29.52000 419.316
29.69000 422.265
29.86000 446.364
30.03000 451.524
30.20000 442.509
30.37000 437.320
30.54000 444.011
30.71000 465.990
30.88000 522.148
31.05000 770.156
31.22000 2317.139
31.39000 3922.895
31.56000 1588.056
31.73000 576.016
31.90000 459.476
32.07000 425.888
32.24000 422.558
32.41000 412.596
32.58000 379.994
32.75000 370.832
32.92000 441.853
33.09000 445.291
33.26000 370.439
33.43000 351.185
33.60000 336.210
33.77000 355.808
33.94000 336.257
34.11000 338.727
34.28000 337.301
34.45000 333.064
34.62000 331.055
34.79000 331.471
34.96000 330.893
35.13000 332.601
35.30000 320.359
35.47000 318.572
35.64000 306.707
35.81000 312.332
35.98000 321.852
36.15000 300.365
36.32000 311.123
36.49000 294.365
36.66000 302.586
36.83000 298.999
37.00000 306.666
37.17000 308.874
37.34000 312.841
37.51000 307.202
37.68000 281.009
37.85000 290.316
38.02000 295.085
38.19000 309.741
38.36000 340.535
38.53000 512.861
38.70000 774.916
38.87000 524.081
39.04000 323.369
39.21000 292.993
39.38000 279.623
39.55000 277.976
39.72000 264.784
39.89000 274.115
40.06000 265.093
40.23000 260.420
40.40000 259.746
40.57000 272.054
40.74000 254.317
40.91000 263.364
41.08000 250.126
41.25000 244.949
41.42000 246.100
41.59000 249.442
41.76000 230.762
41.93000 237.918
42.10000 222.223
42.27000 229.368
42.44000 253.888
42.61000 235.869
42.78000 242.539
42.95000 231.899
43.12000 230.899
43.29000 219.869
43.46000 228.031
43.63000 209.403
43.80000 227.036
43.97000 226.368
44.14000 233.683
44.31000 225.502
44.48000 231.669
44.65000 246.426
44.82000 333.539
44.99000 498.333
45.16000 431.479
45.33000 296.531
45.50000 241.717
45.67000 224.729
45.84000 219.932
46.01000 220.483
46.18000 206.830
46.35000 196.343
46.52000 198.923
46.69000 203.544
46.86000 191.828
47.03000 204.364
47.20000 190.826
47.37000 186.795
47.54000 190.792
47.71000 188.790
47.88000 180.746
48.05000 186.203
48.22000 185.976
48.39000 176.917
48.56000 179.005
48.73000 187.546
48.90000 177.045
49.07000 186.292
49.24000 172.259
49.41000 183.295
49.58000 179.774
49.75000 166.852
49.92000 173.483
50.09000 189.522
50.26000 189.531
50.43000 209.935
50.60000 282.332
50.77000 264.068
50.94000 213.319
51.11000 190.843
51.28000 181.007
51.45000 169.055
51.62000 155.780
51.79000 180.229
51.96000 172.592
52.13000 164.490
52.30000 172.830
52.47000 160.266
52.64000 156.647
52.81000 166.560
52.98000 158.278
53.15000 159.765
53.32000 176.042
53.49000 161.555
53.66000 158.730
53.83000 158.155
54.00000 151.575
54.17000 164.690
54.34000 161.770
54.51000 162.021
54.68000 160.091
54.85000 154.590
55.02000 164.823
55.19000 169.292
55.36000 184.204
55.53000 213.969
55.70000 373.688
55.87000 660.356
56.04000 539.649
56.21000 293.540
56.38000 173.593
56.55000 159.891
56.72000 169.841
56.89000 154.234
57.06000 146.797
57.23000 144.188
57.40000 154.218
57.57000 147.173
57.74000 144.348
57.91000 155.088
58.08000 158.914
58.25000 138.351
58.42000 146.563
58.59000 140.513
58.76000 142.189
58.93000 137.056
59.10000 133.958
59.27000 135.742
59.44000 139.333
59.61000 125.534
59.78000 130.472
59.95000 132.643
60.12000 138.900
60.29000 132.785
60.46000 134.279
60.63000 138.059
60.80000 138.975
60.97000 132.908
61.14000 139.257
61.31000 131.448
61.48000 155.123
61.65000 320.147
61.82000 223.074
61.99000 143.581
62.16000 138.311
62.33000 145.652
62.50000 146.791
62.67000 148.394
62.84000 141.504
63.01000 154.330
63.18000 153.945
63.35000 141.106
63.52000 148.891
63.69000 159.486
63.86000 154.755
64.03000 164.054
64.20000 161.308
64.37000 175.385
64.54000 171.024
64.71000 173.316
64.88000 191.743
65.05000 207.176
65.22000 249.187
65.39000 377.083
65.56000 461.751
65.73000 800.083
65.90000 1284.622
66.07000 415.340
66.24000 322.978
66.41000 510.527
66.58000 373.837
66.75000 323.840
66.92000 350.278
67.09000 388.420
67.26000 395.512
67.43000 420.287
67.60000 499.314
67.77000 511.418
67.94000 560.457
68.11000 618.904
68.28000 696.830
68.45000 787.756
68.62000 1193.840
68.79000 2282.850
68.96000 17198.264
69.13000 77273.680
69.30000 45486.621
69.47000 10415.413
69.64000 1498.326
69.81000 961.128
69.98000 765.362
70.00000 768.564