File: XRD/XRD/30-09-2025 Dep 1/XY Data/BTO_Mapping_Theta2Theta_30-09-2025_001_01_0-000_0-000.xy
20.00000 566.421
20.17000 566.312
20.34000 552.084
20.51000 578.164
20.68000 529.607
20.85000 559.093
21.02000 569.213
21.19000 569.820
21.36000 543.766
21.53000 551.980
21.70000 565.790
21.87000 670.400
22.04000 820.990
22.21000 674.563
22.38000 567.472
22.55000 548.129
22.72000 531.269
22.89000 532.802
23.06000 497.170
23.23000 508.495
23.40000 490.286
23.57000 494.750
23.74000 509.136
23.91000 494.256
24.08000 526.744
24.25000 492.066
24.42000 518.503
24.59000 498.177
24.76000 480.619
24.93000 463.522
25.10000 485.970
25.27000 467.956
25.44000 454.270
25.61000 474.478
25.78000 470.100
25.95000 442.983
26.12000 470.457
26.29000 470.295
26.46000 455.476
26.63000 453.962
26.80000 445.302
26.97000 449.858
27.14000 463.518
27.31000 449.602
27.48000 441.999
27.65000 438.606
27.82000 448.273
27.99000 439.174
28.16000 445.252
28.33000 428.789
28.50000 407.860
28.67000 406.270
28.84000 420.205
29.01000 421.781
29.18000 400.707
29.35000 420.286
29.52000 409.370
29.69000 415.750
29.86000 431.138
30.03000 449.730
30.20000 436.079
30.37000 434.755
30.54000 427.478
30.71000 426.842
30.88000 511.599
31.05000 704.849
31.22000 2098.812
31.39000 3654.016
31.56000 1559.816
31.73000 565.669
31.90000 456.242
32.07000 428.402
32.24000 401.598
32.41000 387.929
32.58000 387.659
32.75000 369.430
32.92000 423.416
33.09000 423.349
33.26000 343.860
33.43000 354.845
33.60000 343.195
33.77000 327.998
33.94000 320.456
34.11000 332.575
34.28000 328.739
34.45000 336.724
34.62000 318.921
34.79000 330.280
34.96000 307.235
35.13000 320.514
35.30000 319.339
35.47000 312.230
35.64000 308.394
35.81000 318.720
35.98000 311.869
36.15000 319.073
36.32000 280.567
36.49000 293.271
36.66000 292.710
36.83000 300.990
37.00000 307.778
37.17000 289.442
37.34000 300.447
37.51000 288.089
37.68000 294.917
37.85000 290.247
38.02000 293.330
38.19000 318.275
38.36000 344.221
38.53000 516.954
38.70000 834.238
38.87000 590.765
39.04000 331.991
39.21000 287.701
39.38000 271.340
39.55000 277.961
39.72000 270.316
39.89000 274.842
40.06000 270.505
40.23000 254.888
40.40000 267.655
40.57000 265.936
40.74000 271.820
40.91000 250.938
41.08000 244.696
41.25000 252.343
41.42000 252.086
41.59000 253.719
41.76000 226.019
41.93000 234.919
42.10000 240.022
42.27000 232.698
42.44000 237.134
42.61000 223.924
42.78000 226.239
42.95000 226.531
43.12000 240.110
43.29000 219.214
43.46000 220.840
43.63000 222.495
43.80000 213.636
43.97000 230.887
44.14000 224.547
44.31000 211.134
44.48000 239.909
44.65000 243.305
44.82000 288.935
44.99000 434.834
45.16000 434.142
45.33000 304.983
45.50000 235.337
45.67000 226.225
45.84000 222.720
46.01000 213.154
46.18000 202.847
46.35000 212.662
46.52000 203.145
46.69000 191.769
46.86000 196.440
47.03000 201.973
47.20000 196.948
47.37000 206.734
47.54000 187.373
47.71000 199.686
47.88000 189.503
48.05000 190.576
48.22000 180.726
48.39000 189.979
48.56000 201.770
48.73000 190.863
48.90000 175.858
49.07000 185.477
49.24000 183.127
49.41000 179.062
49.58000 184.140
49.75000 188.986
49.92000 176.372
50.09000 184.379
50.26000 176.020
50.43000 205.652
50.60000 260.588
50.77000 277.329
50.94000 218.198
51.11000 183.333
51.28000 179.400
51.45000 162.087
51.62000 183.850
51.79000 155.622
51.96000 164.705
52.13000 169.638
52.30000 159.754
52.47000 171.815
52.64000 162.092
52.81000 162.903
52.98000 158.582
53.15000 157.139
53.32000 165.418
53.49000 176.076
53.66000 150.264
53.83000 155.363
54.00000 152.352
54.17000 162.277
54.34000 145.650
54.51000 162.741
54.68000 159.088
54.85000 148.862
55.02000 160.920
55.19000 167.945
55.36000 173.173
55.53000 203.417
55.70000 350.010
55.87000 652.359
56.04000 565.249
56.21000 291.618
56.38000 179.490
56.55000 164.857
56.72000 155.829
56.89000 137.099
57.06000 143.223
57.23000 142.605
57.40000 137.506
57.57000 128.370
57.74000 150.967
57.91000 146.508
58.08000 135.495
58.25000 141.340
58.42000 140.321
58.59000 143.023
58.76000 134.564
58.93000 133.144
59.10000 137.027
59.27000 134.504
59.44000 140.086
59.61000 130.451
59.78000 135.611
59.95000 129.994
60.12000 137.216
60.29000 134.605
60.46000 133.800
60.63000 140.310
60.80000 136.327
60.97000 137.243
61.14000 141.486
61.31000 129.329
61.48000 154.716
61.65000 290.572
61.82000 217.432
61.99000 149.474
62.16000 153.926
62.33000 135.354
62.50000 136.811
62.67000 141.663
62.84000 149.695
63.01000 154.039
63.18000 161.156
63.35000 163.010
63.52000 153.426
63.69000 153.588
63.86000 154.691
64.03000 163.911
64.20000 161.595
64.37000 157.424
64.54000 179.283
64.71000 184.257
64.88000 179.276
65.05000 202.677
65.22000 242.690
65.39000 348.167
65.56000 443.080
65.73000 751.575
65.90000 1247.211
66.07000 417.752
66.24000 316.578
66.41000 489.182
66.58000 347.505
66.75000 322.846
66.92000 351.958
67.09000 368.280
67.26000 391.784
67.43000 430.785
67.60000 473.925
67.77000 498.709
67.94000 523.874
68.11000 602.415
68.28000 686.239
68.45000 784.563
68.62000 1098.895
68.79000 2224.574
68.96000 15002.197
69.13000 73073.906
69.30000 43435.508
69.47000 10241.284
69.64000 1449.276
69.81000 923.011
69.98000 748.532
70.00000 742.678