File: XRD/XRD/30-09-2025 Dep 1/XY Data/BTO_Mapping_Theta2Theta_30-09-2025_001_22_-5-000_8-660.xy
20.00000 548.488
20.17000 575.391
20.34000 555.371
20.51000 565.705
20.68000 562.396
20.85000 545.977
21.02000 560.415
21.19000 555.994
21.36000 556.097
21.53000 543.387
21.70000 583.407
21.87000 607.523
22.04000 699.496
22.21000 646.977
22.38000 553.525
22.55000 541.844
22.72000 538.545
22.89000 498.779
23.06000 523.263
23.23000 504.445
23.40000 510.877
23.57000 506.087
23.74000 510.316
23.91000 514.843
24.08000 515.444
24.25000 525.012
24.42000 501.561
24.59000 484.055
24.76000 514.036
24.93000 482.459
25.10000 473.348
25.27000 481.662
25.44000 470.307
25.61000 453.756
25.78000 461.738
25.95000 452.114
26.12000 453.482
26.29000 471.498
26.46000 454.612
26.63000 438.587
26.80000 449.319
26.97000 444.348
27.14000 437.255
27.31000 442.947
27.48000 432.438
27.65000 438.059
27.82000 442.079
27.99000 433.864
28.16000 447.993
28.33000 425.140
28.50000 430.734
28.67000 429.206
28.84000 427.747
29.01000 427.115
29.18000 434.343
29.35000 415.414
29.52000 419.934
29.69000 414.013
29.86000 423.194
30.03000 449.964
30.20000 423.542
30.37000 424.916
30.54000 429.927
30.71000 438.717
30.88000 484.745
31.05000 592.071
31.22000 1675.328
31.39000 3400.686
31.56000 1738.465
31.73000 576.135
31.90000 450.454
32.07000 416.344
32.24000 389.963
32.41000 391.793
32.58000 374.811
32.75000 371.913
32.92000 378.369
33.09000 390.285
33.26000 350.173
33.43000 344.885
33.60000 333.522
33.77000 341.349
33.94000 338.686
34.11000 339.875
34.28000 346.678
34.45000 367.640
34.62000 355.207
34.79000 330.337
34.96000 329.054
35.13000 327.590
35.30000 318.960
35.47000 332.860
35.64000 310.531
35.81000 321.663
35.98000 319.041
36.15000 288.859
36.32000 304.087
36.49000 299.035
36.66000 310.012
36.83000 308.005
37.00000 307.626
37.17000 300.910
37.34000 296.121
37.51000 279.508
37.68000 288.920
37.85000 289.193
38.02000 300.271
38.19000 310.208
38.36000 327.226
38.53000 500.375
38.70000 933.328
38.87000 711.800
39.04000 370.602
39.21000 284.683
39.38000 271.130
39.55000 272.579
39.72000 262.054
39.89000 264.998
40.06000 266.207
40.23000 268.561
40.40000 245.991
40.57000 256.433
40.74000 245.442
40.91000 251.615
41.08000 241.388
41.25000 248.083
41.42000 243.317
41.59000 229.537
41.76000 246.609
41.93000 247.915
42.10000 250.147
42.27000 237.630
42.44000 244.381
42.61000 243.136
42.78000 240.801
42.95000 223.506
43.12000 230.125
43.29000 226.556
43.46000 232.449
43.63000 231.464
43.80000 219.420
43.97000 210.618
44.14000 209.409
44.31000 227.245
44.48000 224.619
44.65000 241.205
44.82000 258.698
44.99000 320.023
45.16000 359.039
45.33000 297.534
45.50000 242.726
45.67000 212.176
45.84000 213.313
46.01000 217.187
46.18000 193.652
46.35000 200.522
46.52000 214.868
46.69000 216.705
46.86000 209.209
47.03000 201.668
47.20000 202.657
47.37000 196.399
47.54000 185.278
47.71000 187.669
47.88000 198.759
48.05000 191.894
48.22000 172.932
48.39000 181.531
48.56000 188.226
48.73000 180.375
48.90000 184.417
49.07000 189.958
49.24000 176.285
49.41000 175.747
49.58000 170.368
49.75000 175.298
49.92000 174.517
50.09000 178.051
50.26000 179.382
50.43000 189.595
50.60000 246.082
50.77000 255.200
50.94000 209.907
51.11000 171.214
51.28000 172.868
51.45000 161.107
51.62000 166.827
51.79000 166.908
51.96000 169.101
52.13000 163.009
52.30000 158.752
52.47000 165.026
52.64000 162.128
52.81000 147.905
52.98000 167.534
53.15000 164.233
53.32000 155.420
53.49000 158.109
53.66000 164.559
53.83000 154.719
54.00000 157.396
54.17000 155.704
54.34000 150.096
54.51000 165.238
54.68000 155.595
54.85000 146.980
55.02000 156.918
55.19000 164.349
55.36000 164.288
55.53000 193.103
55.70000 316.299
55.87000 579.797
56.04000 607.386
56.21000 320.019
56.38000 205.952
56.55000 159.692
56.72000 161.124
56.89000 162.117
57.06000 159.918
57.23000 147.101
57.40000 149.211
57.57000 154.157
57.74000 138.997
57.91000 142.670
58.08000 137.630
58.25000 137.161
58.42000 125.928
58.59000 144.531
58.76000 144.260
58.93000 137.529
59.10000 134.918
59.27000 131.378
59.44000 129.266
59.61000 132.687
59.78000 132.040
59.95000 140.973
60.12000 137.344
60.29000 139.019
60.46000 128.427
60.63000 132.005
60.80000 131.913
60.97000 141.229
61.14000 133.529
61.31000 133.401
61.48000 140.927
61.65000 242.587
61.82000 197.513
61.99000 145.495
62.16000 139.923
62.33000 143.264
62.50000 134.272
62.67000 138.340
62.84000 143.667
63.01000 149.254
63.18000 145.507
63.35000 144.683
63.52000 151.942
63.69000 154.179
63.86000 150.690
64.03000 155.000
64.20000 150.975
64.37000 155.574
64.54000 155.053
64.71000 167.709
64.88000 170.548
65.05000 182.090
65.22000 235.331
65.39000 300.784
65.56000 404.035
65.73000 623.405
65.90000 949.901
66.07000 340.351
66.24000 284.300
66.41000 404.439
66.58000 316.971
66.75000 289.498
66.92000 310.801
67.09000 315.565
67.26000 346.999
67.43000 387.267
67.60000 405.773
67.77000 453.906
67.94000 471.779
68.11000 510.833
68.28000 574.851
68.45000 663.077
68.62000 894.150
68.79000 1656.853
68.96000 8825.418
69.13000 48593.828
69.30000 29640.238
69.47000 7583.578
69.64000 1127.814
69.81000 788.193
69.98000 644.333
70.00000 622.447