File: XRD/XRD/30-09-2025 Dep 1/XY Data/BTO_Mapping_Theta2Theta_30-09-2025_001_53_12-361_-38-042.xy
20.00000 598.029
20.17000 578.391
20.34000 574.212
20.51000 566.370
20.68000 555.677
20.85000 588.754
21.02000 552.913
21.19000 572.589
21.36000 549.719
21.53000 585.604
21.70000 727.750
21.87000 1053.747
22.04000 991.735
22.21000 676.517
22.38000 568.181
22.55000 564.014
22.72000 566.334
22.89000 536.309
23.06000 545.801
23.23000 525.566
23.40000 524.482
23.57000 516.402
23.74000 533.073
23.91000 535.350
24.08000 508.154
24.25000 518.987
24.42000 495.003
24.59000 514.384
24.76000 493.479
24.93000 495.070
25.10000 507.939
25.27000 491.069
25.44000 504.707
25.61000 483.879
25.78000 493.473
25.95000 485.382
26.12000 477.175
26.29000 493.805
26.46000 467.639
26.63000 472.134
26.80000 462.261
26.97000 472.539
27.14000 486.946
27.31000 475.285
27.48000 468.239
27.65000 482.564
27.82000 477.045
27.99000 465.556
28.16000 485.286
28.33000 473.480
28.50000 459.064
28.67000 439.736
28.84000 456.036
29.01000 455.673
29.18000 447.150
29.35000 447.280
29.52000 449.392
29.69000 466.699
29.86000 501.525
30.03000 483.672
30.20000 478.303
30.37000 473.733
30.54000 476.462
30.71000 525.938
30.88000 748.849
31.05000 2400.692
31.22000 4419.582
31.39000 2205.038
31.56000 738.313
31.73000 515.139
31.90000 456.966
32.07000 426.743
32.24000 417.048
32.41000 416.603
32.58000 403.945
32.75000 410.270
32.92000 485.261
33.09000 483.343
33.26000 381.855
33.43000 369.562
33.60000 363.352
33.77000 354.362
33.94000 330.235
34.11000 363.774
34.28000 349.392
34.45000 342.959
34.62000 337.258
34.79000 338.357
34.96000 319.761
35.13000 354.957
35.30000 332.052
35.47000 309.927
35.64000 315.677
35.81000 321.563
35.98000 331.494
36.15000 317.732
36.32000 316.411
36.49000 327.641
36.66000 317.129
36.83000 309.900
37.00000 321.052
37.17000 309.765
37.34000 305.952
37.51000 294.483
37.68000 316.478
37.85000 305.646
38.02000 309.489
38.19000 338.631
38.36000 400.579
38.53000 467.480
38.70000 405.776
38.87000 344.049
39.04000 313.127
39.21000 296.168
39.38000 288.575
39.55000 279.768
39.72000 279.221
39.89000 276.544
40.06000 264.549
40.23000 254.763
40.40000 276.672
40.57000 261.942
40.74000 248.251
40.91000 266.905
41.08000 262.894
41.25000 262.896
41.42000 260.422
41.59000 251.457
41.76000 264.509
41.93000 247.085
42.10000 253.661
42.27000 229.421
42.44000 236.722
42.61000 247.927
42.78000 247.744
42.95000 234.228
43.12000 242.768
43.29000 251.032
43.46000 243.750
43.63000 242.070
43.80000 235.265
43.97000 238.502
44.14000 239.506
44.31000 269.130
44.48000 353.938
44.65000 564.899
44.82000 738.332
44.99000 606.732
45.16000 431.419
45.33000 312.567
45.50000 253.595
45.67000 235.367
45.84000 232.561
46.01000 220.536
46.18000 216.563
46.35000 219.213
46.52000 212.007
46.69000 209.209
46.86000 208.093
47.03000 197.881
47.20000 204.268
47.37000 200.946
47.54000 201.555
47.71000 201.285
47.88000 198.632
48.05000 203.201
48.22000 188.356
48.39000 186.882
48.56000 204.863
48.73000 198.178
48.90000 188.096
49.07000 189.251
49.24000 191.394
49.41000 191.673
49.58000 185.204
49.75000 186.399
49.92000 184.207
50.09000 205.524
50.26000 240.639
50.43000 285.966
50.60000 268.930
50.77000 221.616
50.94000 183.502
51.11000 182.245
51.28000 182.184
51.45000 171.628
51.62000 159.163
51.79000 167.566
51.96000 159.361
52.13000 161.147
52.30000 171.014
52.47000 173.115
52.64000 168.248
52.81000 171.636
52.98000 171.375
53.15000 171.863
53.32000 163.758
53.49000 170.766
53.66000 173.713
53.83000 160.591
54.00000 166.108
54.17000 171.195
54.34000 169.991
54.51000 161.173
54.68000 181.471
54.85000 173.427
55.02000 173.972
55.19000 200.999
55.36000 286.635
55.53000 466.367
55.70000 532.752
55.87000 381.102
56.04000 253.443
56.21000 184.290
56.38000 174.907
56.55000 160.182
56.72000 151.280
56.89000 155.446
57.06000 153.054
57.23000 149.724
57.40000 151.189
57.57000 146.194
57.74000 153.155
57.91000 142.646
58.08000 134.774
58.25000 136.315
58.42000 150.777
58.59000 138.506
58.76000 144.535
58.93000 147.401
59.10000 146.065
59.27000 139.181
59.44000 144.387
59.61000 144.750
59.78000 135.326
59.95000 138.796
60.12000 139.384
60.29000 146.167
60.46000 135.594
60.63000 127.476
60.80000 141.293
60.97000 137.164
61.14000 138.142
61.31000 147.787
61.48000 163.421
61.65000 356.276
61.82000 237.199
61.99000 149.191
62.16000 138.498
62.33000 156.560
62.50000 147.081
62.67000 151.679
62.84000 158.009
63.01000 150.765
63.18000 155.116
63.35000 149.370
63.52000 153.945
63.69000 149.528
63.86000 170.545
64.03000 168.877
64.20000 169.836
64.37000 175.923
64.54000 183.309
64.71000 196.973
64.88000 242.854
65.05000 361.699
65.22000 432.300
65.39000 371.655
65.56000 337.041
65.73000 821.220
65.90000 1493.153
66.07000 444.461
66.24000 359.577
66.41000 537.401
66.58000 399.463
66.75000 353.221
66.92000 375.585
67.09000 417.654
67.26000 429.599
67.43000 476.689
67.60000 502.930
67.77000 557.215
67.94000 608.110
68.11000 657.857
68.28000 761.275
68.45000 903.475
68.62000 1304.780
68.79000 2679.865
68.96000 23237.852
69.13000 92913.602
69.30000 54929.684
69.47000 12591.784
69.64000 1673.155
69.81000 1045.824
69.98000 837.104
70.00000 800.620