File: XRD/XRD/30-09-2025 Dep 1/XY Data/BTO_Mapping_Theta2Theta_30-09-2025_001_14_3-090_9-511.xy
20.00000 568.523
20.17000 544.941
20.34000 572.126
20.51000 568.440
20.68000 557.789
20.85000 551.826
21.02000 547.337
21.19000 539.137
21.36000 558.046
21.53000 563.324
21.70000 561.454
21.87000 620.939
22.04000 697.167
22.21000 651.208
22.38000 556.997
22.55000 536.520
22.72000 525.700
22.89000 525.513
23.06000 501.498
23.23000 522.196
23.40000 506.573
23.57000 522.643
23.74000 508.376
23.91000 534.163
24.08000 530.146
24.25000 530.035
24.42000 505.260
24.59000 500.840
24.76000 504.903
24.93000 473.795
25.10000 485.510
25.27000 471.215
25.44000 476.849
25.61000 470.199
25.78000 467.737
25.95000 462.466
26.12000 477.920
26.29000 448.694
26.46000 461.768
26.63000 455.615
26.80000 456.449
26.97000 456.518
27.14000 449.377
27.31000 431.702
27.48000 451.739
27.65000 450.121
27.82000 448.446
27.99000 408.116
28.16000 428.232
28.33000 438.599
28.50000 409.758
28.67000 436.255
28.84000 421.089
29.01000 430.460
29.18000 406.908
29.35000 404.762
29.52000 418.930
29.69000 402.867
29.86000 431.207
30.03000 466.951
30.20000 447.334
30.37000 432.605
30.54000 432.171
30.71000 441.346
30.88000 461.883
31.05000 645.665
31.22000 1800.488
31.39000 3459.825
31.56000 1651.365
31.73000 579.437
31.90000 439.556
32.07000 410.311
32.24000 404.438
32.41000 396.498
32.58000 372.934
32.75000 374.004
32.92000 386.900
33.09000 392.044
33.26000 342.876
33.43000 341.582
33.60000 340.380
33.77000 340.903
33.94000 348.318
34.11000 329.175
34.28000 360.935
34.45000 354.718
34.62000 327.218
34.79000 330.865
34.96000 331.259
35.13000 324.118
35.30000 315.739
35.47000 315.498
35.64000 306.039
35.81000 315.160
35.98000 318.803
36.15000 299.103
36.32000 296.442
36.49000 309.483
36.66000 278.745
36.83000 305.631
37.00000 288.755
37.17000 288.162
37.34000 294.628
37.51000 306.896
37.68000 288.816
37.85000 290.405
38.02000 298.944
38.19000 303.225
38.36000 321.776
38.53000 539.007
38.70000 926.422
38.87000 690.266
39.04000 345.919
39.21000 288.180
39.38000 292.474
39.55000 276.935
39.72000 259.439
39.89000 272.273
40.06000 271.056
40.23000 250.514
40.40000 257.920
40.57000 255.472
40.74000 236.486
40.91000 244.636
41.08000 244.816
41.25000 251.671
41.42000 243.198
41.59000 233.388
41.76000 248.262
41.93000 235.378
42.10000 245.999
42.27000 250.502
42.44000 246.468
42.61000 234.552
42.78000 233.113
42.95000 238.066
43.12000 232.772
43.29000 218.134
43.46000 235.098
43.63000 230.015
43.80000 219.091
43.97000 227.318
44.14000 231.206
44.31000 229.316
44.48000 224.559
44.65000 233.208
44.82000 276.767
44.99000 337.037
45.16000 388.159
45.33000 287.914
45.50000 233.814
45.67000 220.527
45.84000 213.376
46.01000 207.603
46.18000 213.691
46.35000 204.435
46.52000 202.595
46.69000 199.349
46.86000 193.063
47.03000 212.736
47.20000 195.012
47.37000 188.687
47.54000 183.613
47.71000 192.222
47.88000 183.065
48.05000 195.844
48.22000 192.495
48.39000 187.402
48.56000 189.098
48.73000 184.378
48.90000 188.353
49.07000 195.737
49.24000 185.935
49.41000 177.600
49.58000 179.292
49.75000 171.843
49.92000 178.805
50.09000 176.418
50.26000 186.098
50.43000 204.821
50.60000 247.743
50.77000 253.599
50.94000 214.187
51.11000 190.798
51.28000 168.555
51.45000 165.098
51.62000 170.996
51.79000 156.564
51.96000 161.840
52.13000 162.443
52.30000 150.313
52.47000 154.684
52.64000 157.088
52.81000 153.880
52.98000 155.063
53.15000 162.440
53.32000 156.474
53.49000 158.160
53.66000 158.234
53.83000 162.069
54.00000 154.936
54.17000 161.710
54.34000 152.538
54.51000 151.041
54.68000 169.518
54.85000 159.302
55.02000 156.919
55.19000 163.624
55.36000 163.500
55.53000 196.504
55.70000 316.863
55.87000 581.024
56.04000 595.183
56.21000 327.469
56.38000 201.689
56.55000 172.281
56.72000 150.160
56.89000 143.214
57.06000 156.452
57.23000 142.302
57.40000 156.835
57.57000 148.667
57.74000 135.603
57.91000 148.162
58.08000 154.310
58.25000 138.498
58.42000 138.470
58.59000 141.039
58.76000 142.122
58.93000 127.722
59.10000 131.228
59.27000 142.328
59.44000 139.572
59.61000 140.711
59.78000 128.523
59.95000 134.855
60.12000 128.815
60.29000 138.195
60.46000 129.123
60.63000 124.951
60.80000 138.615
60.97000 136.533
61.14000 137.548
61.31000 129.360
61.48000 140.892
61.65000 256.118
61.82000 192.760
61.99000 146.163
62.16000 141.612
62.33000 138.695
62.50000 141.341
62.67000 135.607
62.84000 122.184
63.01000 141.404
63.18000 139.631
63.35000 145.411
63.52000 139.813
63.69000 151.702
63.86000 147.881
64.03000 161.874
64.20000 148.583
64.37000 176.588
64.54000 161.837
64.71000 169.308
64.88000 174.182
65.05000 188.085
65.22000 229.663
65.39000 306.551
65.56000 408.338
65.73000 650.703
65.90000 974.516
66.07000 343.087
66.24000 289.367
66.41000 407.122
66.58000 333.443
66.75000 294.768
66.92000 309.882
67.09000 363.147
67.26000 378.616
67.43000 383.086
67.60000 414.581
67.77000 466.196
67.94000 477.767
68.11000 529.088
68.28000 605.441
68.45000 687.420
68.62000 922.924
68.79000 1751.373
68.96000 10354.048
69.13000 53177.039
69.30000 31613.051
69.47000 7641.849
69.64000 1175.740
69.81000 822.160
69.98000 652.031
70.00000 661.697