File: XRD/XRD/30-09-2025 Dep 1/XY Data/BTO_Mapping_Theta2Theta_30-09-2025_001_51_6-180_-19-021.xy
20.00000 562.853
20.17000 569.939
20.34000 576.486
20.51000 576.668
20.68000 546.075
20.85000 566.896
21.02000 582.361
21.19000 553.619
21.36000 571.298
21.53000 529.592
21.70000 611.643
21.87000 810.369
22.04000 975.091
22.21000 686.123
22.38000 580.117
22.55000 538.679
22.72000 546.478
22.89000 542.846
23.06000 535.214
23.23000 518.652
23.40000 506.459
23.57000 502.050
23.74000 518.575
23.91000 514.774
24.08000 512.150
24.25000 502.655
24.42000 505.447
24.59000 508.234
24.76000 477.604
24.93000 491.154
25.10000 485.341
25.27000 465.839
25.44000 488.380
25.61000 484.009
25.78000 483.712
25.95000 476.971
26.12000 472.605
26.29000 444.509
26.46000 461.962
26.63000 456.944
26.80000 469.801
26.97000 461.656
27.14000 438.160
27.31000 451.648
27.48000 453.339
27.65000 446.403
27.82000 443.608
27.99000 439.205
28.16000 446.982
28.33000 457.739
28.50000 438.656
28.67000 416.737
28.84000 430.557
29.01000 425.992
29.18000 433.397
29.35000 444.836
29.52000 420.991
29.69000 420.712
29.86000 469.041
30.03000 450.625
30.20000 443.767
30.37000 441.450
30.54000 457.943
30.71000 473.723
30.88000 539.590
31.05000 983.419
31.22000 3191.177
31.39000 3687.695
31.56000 1189.662
31.73000 544.246
31.90000 461.724
32.07000 443.479
32.24000 418.406
32.41000 398.404
32.58000 396.108
32.75000 370.410
32.92000 444.802
33.09000 464.470
33.26000 376.067
33.43000 351.234
33.60000 343.603
33.77000 338.248
33.94000 345.553
34.11000 356.715
34.28000 343.602
34.45000 341.091
34.62000 333.748
34.79000 329.086
34.96000 343.314
35.13000 317.871
35.30000 329.585
35.47000 319.769
35.64000 312.581
35.81000 315.413
35.98000 290.843
36.15000 308.346
36.32000 321.532
36.49000 311.604
36.66000 300.006
36.83000 308.315
37.00000 303.630
37.17000 302.967
37.34000 298.335
37.51000 307.632
37.68000 296.673
37.85000 296.368
38.02000 282.331
38.19000 302.641
38.36000 361.452
38.53000 487.867
38.70000 580.058
38.87000 386.589
39.04000 311.448
39.21000 285.435
39.38000 266.670
39.55000 269.872
39.72000 263.548
39.89000 274.729
40.06000 251.246
40.23000 269.754
40.40000 270.241
40.57000 271.283
40.74000 260.227
40.91000 265.587
41.08000 254.273
41.25000 256.939
41.42000 250.651
41.59000 250.909
41.76000 254.284
41.93000 264.372
42.10000 228.011
42.27000 250.690
42.44000 227.901
42.61000 240.233
42.78000 238.422
42.95000 237.553
43.12000 244.364
43.29000 234.523
43.46000 230.447
43.63000 223.496
43.80000 223.332
43.97000 231.110
44.14000 238.487
44.31000 236.009
44.48000 248.684
44.65000 296.013
44.82000 478.435
44.99000 595.865
45.16000 437.865
45.33000 279.751
45.50000 250.209
45.67000 236.110
45.84000 219.585
46.01000 204.848
46.18000 215.674
46.35000 201.021
46.52000 203.646
46.69000 205.048
46.86000 218.098
47.03000 203.346
47.20000 186.320
47.37000 205.879
47.54000 202.354
47.71000 194.216
47.88000 186.345
48.05000 191.889
48.22000 179.597
48.39000 191.121
48.56000 199.631
48.73000 186.180
48.90000 185.665
49.07000 179.121
49.24000 186.440
49.41000 183.735
49.58000 188.745
49.75000 183.060
49.92000 169.357
50.09000 181.292
50.26000 190.597
50.43000 247.831
50.60000 306.558
50.77000 264.307
50.94000 211.331
51.11000 192.034
51.28000 181.992
51.45000 171.251
51.62000 175.538
51.79000 167.987
51.96000 168.772
52.13000 166.481
52.30000 162.917
52.47000 169.783
52.64000 158.200
52.81000 159.998
52.98000 166.524
53.15000 154.526
53.32000 168.338
53.49000 163.400
53.66000 161.306
53.83000 166.744
54.00000 161.185
54.17000 158.185
54.34000 167.131
54.51000 161.507
54.68000 150.377
54.85000 160.684
55.02000 173.287
55.19000 168.087
55.36000 190.820
55.53000 263.513
55.70000 489.025
55.87000 649.954
56.04000 433.831
56.21000 222.334
56.38000 173.007
56.55000 152.255
56.72000 156.325
56.89000 166.404
57.06000 148.671
57.23000 142.610
57.40000 148.860
57.57000 145.319
57.74000 161.390
57.91000 141.935
58.08000 139.718
58.25000 145.056
58.42000 147.107
58.59000 142.953
58.76000 136.547
58.93000 129.305
59.10000 139.965
59.27000 133.375
59.44000 137.160
59.61000 132.777
59.78000 145.472
59.95000 142.585
60.12000 134.215
60.29000 133.446
60.46000 151.133
60.63000 133.042
60.80000 135.235
60.97000 146.252
61.14000 134.010
61.31000 137.591
61.48000 157.326
61.65000 333.443
61.82000 230.052
61.99000 154.222
62.16000 153.105
62.33000 143.986
62.50000 141.647
62.67000 141.213
62.84000 147.550
63.01000 146.653
63.18000 136.184
63.35000 157.917
63.52000 147.468
63.69000 155.180
63.86000 152.321
64.03000 163.425
64.20000 156.746
64.37000 166.894
64.54000 163.990
64.71000 182.499
64.88000 201.546
65.05000 223.666
65.22000 314.905
65.39000 412.135
65.56000 464.927
65.73000 774.057
65.90000 1356.603
66.07000 410.786
66.24000 337.409
66.41000 512.080
66.58000 386.714
66.75000 338.326
66.92000 361.034
67.09000 382.624
67.26000 395.843
67.43000 443.741
67.60000 466.810
67.77000 522.268
67.94000 573.821
68.11000 619.390
68.28000 711.628
68.45000 827.764
68.62000 1193.102
68.79000 2385.784
68.96000 18855.475
69.13000 81405.836
69.30000 48271.328
69.47000 11054.899
69.64000 1497.275
69.81000 983.728
69.98000 792.355
70.00000 752.908