File: XRD/XRD/30-09-2025 Dep 1/XY Data/BTO_Mapping_Theta2Theta_30-09-2025_001_18_-1-045_9-945.xy
20.00000 562.578
20.17000 567.259
20.34000 552.222
20.51000 562.078
20.68000 569.757
20.85000 571.836
21.02000 546.543
21.19000 530.234
21.36000 544.855
21.53000 545.823
21.70000 555.549
21.87000 607.535
22.04000 713.755
22.21000 646.134
22.38000 545.733
22.55000 526.803
22.72000 512.333
22.89000 507.830
23.06000 519.414
23.23000 501.205
23.40000 517.005
23.57000 536.014
23.74000 510.939
23.91000 531.563
24.08000 533.368
24.25000 511.521
24.42000 499.737
24.59000 479.591
24.76000 491.802
24.93000 473.525
25.10000 469.737
25.27000 470.109
25.44000 485.201
25.61000 469.670
25.78000 459.666
25.95000 452.013
26.12000 474.410
26.29000 472.019
26.46000 452.028
26.63000 460.291
26.80000 445.303
26.97000 458.511
27.14000 454.728
27.31000 433.260
27.48000 441.153
27.65000 438.680
27.82000 445.914
27.99000 441.565
28.16000 422.904
28.33000 441.151
28.50000 423.755
28.67000 419.980
28.84000 429.082
29.01000 408.917
29.18000 422.270
29.35000 440.442
29.52000 403.652
29.69000 413.752
29.86000 424.995
30.03000 460.028
30.20000 453.004
30.37000 423.527
30.54000 426.336
30.71000 439.096
30.88000 492.578
31.05000 611.865
31.22000 1764.210
31.39000 3410.804
31.56000 1696.516
31.73000 578.682
31.90000 450.225
32.07000 417.598
32.24000 398.921
32.41000 387.624
32.58000 372.956
32.75000 380.147
32.92000 365.486
33.09000 382.193
33.26000 352.551
33.43000 358.228
33.60000 341.498
33.77000 344.126
33.94000 330.684
34.11000 332.801
34.28000 342.706
34.45000 349.048
34.62000 351.514
34.79000 326.096
34.96000 324.588
35.13000 323.539
35.30000 317.038
35.47000 293.169
35.64000 290.795
35.81000 322.454
35.98000 309.474
36.15000 309.099
36.32000 303.842
36.49000 309.030
36.66000 295.308
36.83000 298.054
37.00000 309.892
37.17000 299.241
37.34000 295.827
37.51000 306.690
37.68000 297.430
37.85000 290.571
38.02000 288.502
38.19000 318.510
38.36000 340.110
38.53000 486.036
38.70000 916.453
38.87000 701.031
39.04000 356.234
39.21000 296.379
39.38000 274.767
39.55000 281.191
39.72000 276.773
39.89000 261.391
40.06000 271.669
40.23000 258.438
40.40000 243.811
40.57000 250.555
40.74000 262.691
40.91000 247.280
41.08000 259.033
41.25000 244.667
41.42000 248.915
41.59000 245.379
41.76000 242.175
41.93000 262.266
42.10000 244.442
42.27000 248.204
42.44000 226.759
42.61000 240.144
42.78000 229.571
42.95000 238.806
43.12000 227.371
43.29000 234.016
43.46000 228.447
43.63000 221.738
43.80000 218.215
43.97000 221.083
44.14000 225.141
44.31000 224.400
44.48000 227.420
44.65000 243.424
44.82000 284.380
44.99000 324.935
45.16000 364.036
45.33000 277.694
45.50000 238.817
45.67000 206.991
45.84000 217.118
46.01000 204.843
46.18000 201.521
46.35000 214.616
46.52000 202.640
46.69000 196.365
46.86000 191.628
47.03000 191.922
47.20000 194.279
47.37000 192.434
47.54000 187.547
47.71000 182.015
47.88000 180.526
48.05000 174.825
48.22000 195.489
48.39000 190.242
48.56000 190.961
48.73000 182.737
48.90000 193.377
49.07000 180.789
49.24000 177.224
49.41000 169.258
49.58000 191.020
49.75000 173.802
49.92000 179.208
50.09000 168.783
50.26000 174.870
50.43000 197.227
50.60000 238.552
50.77000 264.731
50.94000 199.104
51.11000 187.928
51.28000 173.149
51.45000 171.151
51.62000 171.070
51.79000 174.503
51.96000 161.421
52.13000 159.791
52.30000 160.378
52.47000 157.385
52.64000 168.158
52.81000 162.643
52.98000 164.624
53.15000 156.645
53.32000 163.519
53.49000 161.745
53.66000 153.737
53.83000 160.794
54.00000 156.358
54.17000 152.302
54.34000 148.275
54.51000 141.946
54.68000 163.113
54.85000 162.129
55.02000 150.683
55.19000 165.782
55.36000 172.786
55.53000 187.493
55.70000 296.623
55.87000 591.357
56.04000 598.441
56.21000 346.082
56.38000 208.219
56.55000 161.843
56.72000 147.792
56.89000 156.334
57.06000 138.979
57.23000 137.861
57.40000 138.688
57.57000 149.413
57.74000 131.313
57.91000 132.729
58.08000 137.436
58.25000 141.462
58.42000 133.651
58.59000 141.695
58.76000 132.925
58.93000 145.981
59.10000 138.245
59.27000 136.464
59.44000 129.937
59.61000 128.251
59.78000 140.987
59.95000 134.132
60.12000 139.227
60.29000 133.524
60.46000 131.195
60.63000 127.572
60.80000 141.873
60.97000 136.921
61.14000 132.341
61.31000 129.560
61.48000 144.607
61.65000 246.063
61.82000 188.990
61.99000 144.252
62.16000 142.413
62.33000 133.118
62.50000 144.878
62.67000 150.953
62.84000 138.641
63.01000 137.404
63.18000 142.581
63.35000 153.250
63.52000 153.442
63.69000 146.308
63.86000 155.785
64.03000 162.292
64.20000 140.814
64.37000 151.811
64.54000 173.772
64.71000 171.463
64.88000 167.526
65.05000 196.963
65.22000 230.782
65.39000 314.449
65.56000 397.810
65.73000 592.587
65.90000 925.579
66.07000 331.476
66.24000 279.594
66.41000 394.690
66.58000 321.753
66.75000 277.354
66.92000 316.241
67.09000 335.116
67.26000 353.375
67.43000 389.434
67.60000 404.064
67.77000 456.193
67.94000 479.148
68.11000 524.966
68.28000 595.005
68.45000 670.793
68.62000 911.418
68.79000 1585.022
68.96000 9332.052
69.13000 48728.707
69.30000 29397.984
69.47000 7261.182
69.64000 1114.180
69.81000 774.766
69.98000 639.874
70.00000 618.906