File: XRD/XRD/30-09-2025 Dep 1/XY Data/BTO_Mapping_Theta2Theta_30-09-2025_001_56_20-074_-22-294.xy
20.00000 559.309
20.17000 567.659
20.34000 581.683
20.51000 558.776
20.68000 571.646
20.85000 569.687
21.02000 580.242
21.19000 553.376
21.36000 568.635
21.53000 563.797
21.70000 666.238
21.87000 946.732
22.04000 997.041
22.21000 662.974
22.38000 575.609
22.55000 551.614
22.72000 524.689
22.89000 539.596
23.06000 514.057
23.23000 517.369
23.40000 515.470
23.57000 523.230
23.74000 519.739
23.91000 510.496
24.08000 498.359
24.25000 519.382
24.42000 518.905
24.59000 498.401
24.76000 497.735
24.93000 496.406
25.10000 488.790
25.27000 493.341
25.44000 468.513
25.61000 468.146
25.78000 486.451
25.95000 464.369
26.12000 467.993
26.29000 488.226
26.46000 463.017
26.63000 471.757
26.80000 453.336
26.97000 476.433
27.14000 455.120
27.31000 458.897
27.48000 472.845
27.65000 460.167
27.82000 439.851
27.99000 447.988
28.16000 446.962
28.33000 444.732
28.50000 438.391
28.67000 445.122
28.84000 450.089
29.01000 443.678
29.18000 454.364
29.35000 421.072
29.52000 428.854
29.69000 437.938
29.86000 476.076
30.03000 472.964
30.20000 456.036
30.37000 461.783
30.54000 452.915
30.71000 478.528
30.88000 572.260
31.05000 1469.077
31.22000 4049.750
31.39000 3028.147
31.56000 861.406
31.73000 509.989
31.90000 446.840
32.07000 394.210
32.24000 410.927
32.41000 392.430
32.58000 389.286
32.75000 377.138
32.92000 465.686
33.09000 434.541
33.26000 376.078
33.43000 363.123
33.60000 347.525
33.77000 347.010
33.94000 346.662
34.11000 317.085
34.28000 350.003
34.45000 337.193
34.62000 321.161
34.79000 334.469
34.96000 325.858
35.13000 323.689
35.30000 320.512
35.47000 320.286
35.64000 313.690
35.81000 291.349
35.98000 325.900
36.15000 322.304
36.32000 304.778
36.49000 307.991
36.66000 295.697
36.83000 319.435
37.00000 298.309
37.17000 309.754
37.34000 289.669
37.51000 309.017
37.68000 319.859
37.85000 288.565
38.02000 305.665
38.19000 302.481
38.36000 363.266
38.53000 491.276
38.70000 476.133
38.87000 344.927
39.04000 290.507
39.21000 291.277
39.38000 286.812
39.55000 275.386
39.72000 266.066
39.89000 277.394
40.06000 288.083
40.23000 264.941
40.40000 255.868
40.57000 256.704
40.74000 264.829
40.91000 253.480
41.08000 237.831
41.25000 264.319
41.42000 249.355
41.59000 250.992
41.76000 259.051
41.93000 256.592
42.10000 258.061
42.27000 239.434
42.44000 231.818
42.61000 237.898
42.78000 252.926
42.95000 241.338
43.12000 229.257
43.29000 226.123
43.46000 236.547
43.63000 235.279
43.80000 221.098
43.97000 236.360
44.14000 225.363
44.31000 244.294
44.48000 268.405
44.65000 374.961
44.82000 583.265
44.99000 628.709
45.16000 407.336
45.33000 270.576
45.50000 256.543
45.67000 229.917
45.84000 217.987
46.01000 214.492
46.18000 219.178
46.35000 204.301
46.52000 207.661
46.69000 196.820
46.86000 215.407
47.03000 190.779
47.20000 203.157
47.37000 187.537
47.54000 197.546
47.71000 198.819
47.88000 205.964
48.05000 190.148
48.22000 196.611
48.39000 183.896
48.56000 196.895
48.73000 182.166
48.90000 191.213
49.07000 176.810
49.24000 178.805
49.41000 177.156
49.58000 176.545
49.75000 183.553
49.92000 187.405
50.09000 197.587
50.26000 195.893
50.43000 278.867
50.60000 295.540
50.77000 234.807
50.94000 195.144
51.11000 187.918
51.28000 171.361
51.45000 164.077
51.62000 177.976
51.79000 171.221
51.96000 185.158
52.13000 171.669
52.30000 161.840
52.47000 169.746
52.64000 171.856
52.81000 158.035
52.98000 156.191
53.15000 169.130
53.32000 164.831
53.49000 161.594
53.66000 162.933
53.83000 163.914
54.00000 154.921
54.17000 162.304
54.34000 156.522
54.51000 156.711
54.68000 152.041
54.85000 158.100
55.02000 171.219
55.19000 184.932
55.36000 223.965
55.53000 356.183
55.70000 580.495
55.87000 538.535
56.04000 335.329
56.21000 209.345
56.38000 185.210
56.55000 166.152
56.72000 167.502
56.89000 149.024
57.06000 147.401
57.23000 159.343
57.40000 150.013
57.57000 146.836
57.74000 147.664
57.91000 147.991
58.08000 152.742
58.25000 138.432
58.42000 144.284
58.59000 133.685
58.76000 131.185
58.93000 138.369
59.10000 130.717
59.27000 123.961
59.44000 147.294
59.61000 140.661
59.78000 134.941
59.95000 127.798
60.12000 132.658
60.29000 139.336
60.46000 137.162
60.63000 127.441
60.80000 134.951
60.97000 126.556
61.14000 145.163
61.31000 144.681
61.48000 166.450
61.65000 341.660
61.82000 217.349
61.99000 144.914
62.16000 147.018
62.33000 154.496
62.50000 146.415
62.67000 157.001
62.84000 159.155
63.01000 146.106
63.18000 155.891
63.35000 152.754
63.52000 148.507
63.69000 160.746
63.86000 160.458
64.03000 171.651
64.20000 163.416
64.37000 162.289
64.54000 177.482
64.71000 175.680
64.88000 203.246
65.05000 252.593
65.22000 400.226
65.39000 438.640
65.56000 387.171
65.73000 818.915
65.90000 1393.018
66.07000 415.667
66.24000 350.759
66.41000 518.753
66.58000 376.486
66.75000 340.292
66.92000 381.594
67.09000 395.445
67.26000 406.165
67.43000 456.525
67.60000 489.817
67.77000 501.437
67.94000 580.980
68.11000 626.822
68.28000 720.796
68.45000 863.957
68.62000 1260.631
68.79000 2467.386
68.96000 22871.801
69.13000 85274.141
69.30000 48930.781
69.47000 10340.935
69.64000 1547.174
69.81000 981.068
69.98000 782.159
70.00000 773.974