File: XRD/XRD/30-09-2025 Dep 1/XY Data/BTO_Mapping_Theta2Theta_30-09-2025_001_08_27-406_12-202.xy
20.00000 572.466
20.17000 558.733
20.34000 580.424
20.51000 552.339
20.68000 551.317
20.85000 550.260
21.02000 554.181
21.19000 555.658
21.36000 535.266
21.53000 556.653
21.70000 561.278
21.87000 626.401
22.04000 713.989
22.21000 641.510
22.38000 554.946
22.55000 546.291
22.72000 521.134
22.89000 515.219
23.06000 508.086
23.23000 514.854
23.40000 514.136
23.57000 504.935
23.74000 521.231
23.91000 521.132
24.08000 511.043
24.25000 508.648
24.42000 491.958
24.59000 481.162
24.76000 499.277
24.93000 476.156
25.10000 453.081
25.27000 479.299
25.44000 466.422
25.61000 463.640
25.78000 462.237
25.95000 446.914
26.12000 459.431
26.29000 473.710
26.46000 460.610
26.63000 464.116
26.80000 445.585
26.97000 444.178
27.14000 446.916
27.31000 448.332
27.48000 436.875
27.65000 453.882
27.82000 437.873
27.99000 433.781
28.16000 430.388
28.33000 411.549
28.50000 431.371
28.67000 422.860
28.84000 442.131
29.01000 399.676
29.18000 402.069
29.35000 430.369
29.52000 431.232
29.69000 429.176
29.86000 435.299
30.03000 438.232
30.20000 436.957
30.37000 421.754
30.54000 436.068
30.71000 439.895
30.88000 483.528
31.05000 689.269
31.22000 1926.999
31.39000 3604.065
31.56000 1660.616
31.73000 571.378
31.90000 439.347
32.07000 408.177
32.24000 400.906
32.41000 389.450
32.58000 373.519
32.75000 372.236
32.92000 402.402
33.09000 394.307
33.26000 352.565
33.43000 346.946
33.60000 336.021
33.77000 347.703
33.94000 347.369
34.11000 337.794
34.28000 345.558
34.45000 350.531
34.62000 342.736
34.79000 325.851
34.96000 331.175
35.13000 321.376
35.30000 298.384
35.47000 307.552
35.64000 294.281
35.81000 313.049
35.98000 295.004
36.15000 308.894
36.32000 306.698
36.49000 305.071
36.66000 301.868
36.83000 298.093
37.00000 289.687
37.17000 304.709
37.34000 305.978
37.51000 296.175
37.68000 295.061
37.85000 297.663
38.02000 298.184
38.19000 303.913
38.36000 341.096
38.53000 536.276
38.70000 922.379
38.87000 705.787
39.04000 325.898
39.21000 282.187
39.38000 280.358
39.55000 271.239
39.72000 275.102
39.89000 270.088
40.06000 262.651
40.23000 254.627
40.40000 262.355
40.57000 258.958
40.74000 255.323
40.91000 254.658
41.08000 254.196
41.25000 238.301
41.42000 245.828
41.59000 246.692
41.76000 256.304
41.93000 228.251
42.10000 246.913
42.27000 230.550
42.44000 228.131
42.61000 235.359
42.78000 234.340
42.95000 219.267
43.12000 226.177
43.29000 225.107
43.46000 217.539
43.63000 236.837
43.80000 219.704
43.97000 222.240
44.14000 222.135
44.31000 232.094
44.48000 232.124
44.65000 239.682
44.82000 265.150
44.99000 360.508
45.16000 373.832
45.33000 300.277
45.50000 253.115
45.67000 216.839
45.84000 208.740
46.01000 221.213
46.18000 202.168
46.35000 204.978
46.52000 204.785
46.69000 204.253
46.86000 191.182
47.03000 192.130
47.20000 187.452
47.37000 192.881
47.54000 191.519
47.71000 183.124
47.88000 188.699
48.05000 187.378
48.22000 182.466
48.39000 185.748
48.56000 177.436
48.73000 183.668
48.90000 175.391
49.07000 187.479
49.24000 174.589
49.41000 181.587
49.58000 181.228
49.75000 185.941
49.92000 182.103
50.09000 188.368
50.26000 184.110
50.43000 205.343
50.60000 259.495
50.77000 270.655
50.94000 216.832
51.11000 183.423
51.28000 172.835
51.45000 181.904
51.62000 176.827
51.79000 163.771
51.96000 170.544
52.13000 174.896
52.30000 163.983
52.47000 162.040
52.64000 160.585
52.81000 150.934
52.98000 165.252
53.15000 159.592
53.32000 164.866
53.49000 169.464
53.66000 162.046
53.83000 170.889
54.00000 164.110
54.17000 149.264
54.34000 162.656
54.51000 157.165
54.68000 166.058
54.85000 158.620
55.02000 150.250
55.19000 166.780
55.36000 165.316
55.53000 212.697
55.70000 303.285
55.87000 587.175
56.04000 606.679
56.21000 332.576
56.38000 185.445
56.55000 152.921
56.72000 152.564
56.89000 152.674
57.06000 142.362
57.23000 139.156
57.40000 150.331
57.57000 157.633
57.74000 144.942
57.91000 151.686
58.08000 147.506
58.25000 138.661
58.42000 132.351
58.59000 130.271
58.76000 134.549
58.93000 126.356
59.10000 129.837
59.27000 132.711
59.44000 126.785
59.61000 128.260
59.78000 130.288
59.95000 144.245
60.12000 135.221
60.29000 137.712
60.46000 134.586
60.63000 133.107
60.80000 123.949
60.97000 142.334
61.14000 144.182
61.31000 136.576
61.48000 153.525
61.65000 281.002
61.82000 188.588
61.99000 140.750
62.16000 142.857
62.33000 148.591
62.50000 149.626
62.67000 143.974
62.84000 137.740
63.01000 143.818
63.18000 145.495
63.35000 143.039
63.52000 159.137
63.69000 157.260
63.86000 153.929
64.03000 153.372
64.20000 171.829
64.37000 164.658
64.54000 177.755
64.71000 179.806
64.88000 184.634
65.05000 201.590
65.22000 246.235
65.39000 324.729
65.56000 420.179
65.73000 772.092
65.90000 1099.932
66.07000 361.059
66.24000 322.455
66.41000 445.484
66.58000 338.293
66.75000 333.023
66.92000 327.596
67.09000 360.401
67.26000 387.629
67.43000 408.871
67.60000 425.246
67.77000 479.618
67.94000 520.831
68.11000 585.218
68.28000 648.917
68.45000 756.391
68.62000 1110.148
68.79000 2044.906
68.96000 16408.342
69.13000 64359.621
69.30000 36326.422
69.47000 7298.973
69.64000 1262.510
69.81000 829.895
69.98000 711.164
70.00000 692.838