File: XRD/XRD/30-09-2025 Dep 1/XY Data/BTO_Mapping_Theta2Theta_30-09-2025_001_11_13-383_14-863.xy
20.00000 586.493
20.17000 551.544
20.34000 579.023
20.51000 549.831
20.68000 542.014
20.85000 551.803
21.02000 568.628
21.19000 562.357
21.36000 555.284
21.53000 533.477
21.70000 555.222
21.87000 596.334
22.04000 702.522
22.21000 636.401
22.38000 547.695
22.55000 527.212
22.72000 508.712
22.89000 507.638
23.06000 512.357
23.23000 502.266
23.40000 488.555
23.57000 507.737
23.74000 508.197
23.91000 503.023
24.08000 520.116
24.25000 517.810
24.42000 500.826
24.59000 490.329
24.76000 487.254
24.93000 483.689
25.10000 444.270
25.27000 473.473
25.44000 470.719
25.61000 490.731
25.78000 476.326
25.95000 479.986
26.12000 433.980
26.29000 467.820
26.46000 439.858
26.63000 449.197
26.80000 445.290
26.97000 445.069
27.14000 439.669
27.31000 446.089
27.48000 447.715
27.65000 420.500
27.82000 440.505
27.99000 419.509
28.16000 427.219
28.33000 428.534
28.50000 417.212
28.67000 421.599
28.84000 412.587
29.01000 414.534
29.18000 396.678
29.35000 398.139
29.52000 422.852
29.69000 427.939
29.86000 416.126
30.03000 448.113
30.20000 443.765
30.37000 430.052
30.54000 432.853
30.71000 428.601
30.88000 470.753
31.05000 624.138
31.22000 1757.168
31.39000 3379.042
31.56000 1685.636
31.73000 572.794
31.90000 424.391
32.07000 413.825
32.24000 404.107
32.41000 380.154
32.58000 390.590
32.75000 370.674
32.92000 377.128
33.09000 367.942
33.26000 355.791
33.43000 351.782
33.60000 335.324
33.77000 339.537
33.94000 347.085
34.11000 349.955
34.28000 321.282
34.45000 353.547
34.62000 347.021
34.79000 335.517
34.96000 325.070
35.13000 313.483
35.30000 322.349
35.47000 303.507
35.64000 306.880
35.81000 293.013
35.98000 307.276
36.15000 304.700
36.32000 310.546
36.49000 301.400
36.66000 290.125
36.83000 309.702
37.00000 303.218
37.17000 305.716
37.34000 288.382
37.51000 308.681
37.68000 281.039
37.85000 304.114
38.02000 293.841
38.19000 302.877
38.36000 344.566
38.53000 514.956
38.70000 957.092
38.87000 713.135
39.04000 345.871
39.21000 300.723
39.38000 277.725
39.55000 268.054
39.72000 256.770
39.89000 266.715
40.06000 265.725
40.23000 255.719
40.40000 265.087
40.57000 254.677
40.74000 259.458
40.91000 251.375
41.08000 250.422
41.25000 240.217
41.42000 246.394
41.59000 230.388
41.76000 234.663
41.93000 248.312
42.10000 235.258
42.27000 234.234
42.44000 231.966
42.61000 239.709
42.78000 232.658
42.95000 217.281
43.12000 233.270
43.29000 227.154
43.46000 235.591
43.63000 234.424
43.80000 227.444
43.97000 242.253
44.14000 232.858
44.31000 228.370
44.48000 225.533
44.65000 235.185
44.82000 260.199
44.99000 337.702
45.16000 360.028
45.33000 288.491
45.50000 249.284
45.67000 223.374
45.84000 200.143
46.01000 206.079
46.18000 204.833
46.35000 211.531
46.52000 211.546
46.69000 206.319
46.86000 207.965
47.03000 204.171
47.20000 196.386
47.37000 200.976
47.54000 189.258
47.71000 183.171
47.88000 183.663
48.05000 189.753
48.22000 185.805
48.39000 181.091
48.56000 184.199
48.73000 187.626
48.90000 181.608
49.07000 189.698
49.24000 181.289
49.41000 179.476
49.58000 179.686
49.75000 156.325
49.92000 167.133
50.09000 170.445
50.26000 172.301
50.43000 188.356
50.60000 252.992
50.77000 253.021
50.94000 208.893
51.11000 180.855
51.28000 168.647
51.45000 166.452
51.62000 163.177
51.79000 156.933
51.96000 166.574
52.13000 157.728
52.30000 170.492
52.47000 143.979
52.64000 164.502
52.81000 152.642
52.98000 162.654
53.15000 164.880
53.32000 155.415
53.49000 164.990
53.66000 160.683
53.83000 154.516
54.00000 156.988
54.17000 162.250
54.34000 152.867
54.51000 147.632
54.68000 159.038
54.85000 169.845
55.02000 151.288
55.19000 161.782
55.36000 176.626
55.53000 193.969
55.70000 306.271
55.87000 586.941
56.04000 607.339
56.21000 347.977
56.38000 198.058
56.55000 156.510
56.72000 153.592
56.89000 157.589
57.06000 143.491
57.23000 139.703
57.40000 141.789
57.57000 145.602
57.74000 152.518
57.91000 137.894
58.08000 136.722
58.25000 146.742
58.42000 134.402
58.59000 132.989
58.76000 143.075
58.93000 134.845
59.10000 150.309
59.27000 128.737
59.44000 138.301
59.61000 140.203
59.78000 135.594
59.95000 138.057
60.12000 133.971
60.29000 135.258
60.46000 128.949
60.63000 128.656
60.80000 149.142
60.97000 130.649
61.14000 127.512
61.31000 129.720
61.48000 153.814
61.65000 249.088
61.82000 191.027
61.99000 135.307
62.16000 135.574
62.33000 143.081
62.50000 137.918
62.67000 156.659
62.84000 141.333
63.01000 135.343
63.18000 146.683
63.35000 148.728
63.52000 154.054
63.69000 149.533
63.86000 141.073
64.03000 162.964
64.20000 147.914
64.37000 144.700
64.54000 172.601
64.71000 166.584
64.88000 178.695
65.05000 194.741
65.22000 225.973
65.39000 294.801
65.56000 403.456
65.73000 635.820
65.90000 956.985
66.07000 338.560
66.24000 282.356
66.41000 400.230
66.58000 313.808
66.75000 297.009
66.92000 324.211
67.09000 330.892
67.26000 353.250
67.43000 379.535
67.60000 411.647
67.77000 445.528
67.94000 483.559
68.11000 522.949
68.28000 572.730
68.45000 672.974
68.62000 917.186
68.79000 1727.675
68.96000 10764.636
69.13000 49009.000
69.30000 28686.967
69.47000 6461.238
69.64000 1087.526
69.81000 762.742
69.98000 647.217
70.00000 627.001