File: XRD/XRD/30-09-2025 Dep 1/XY Data/BTO_Mapping_Theta2Theta_30-09-2025_001_21_-4-181_39-781.xy
20.00000 578.865
20.17000 547.769
20.34000 578.101
20.51000 552.194
20.68000 574.380
20.85000 561.440
21.02000 542.194
21.19000 556.982
21.36000 559.067
21.53000 554.630
21.70000 559.113
21.87000 623.226
22.04000 649.905
22.21000 649.724
22.38000 551.515
22.55000 523.815
22.72000 531.292
22.89000 535.607
23.06000 508.257
23.23000 522.272
23.40000 516.102
23.57000 519.768
23.74000 520.199
23.91000 538.151
24.08000 552.601
24.25000 524.287
24.42000 503.822
24.59000 506.389
24.76000 483.852
24.93000 496.954
25.10000 482.851
25.27000 472.194
25.44000 464.888
25.61000 477.770
25.78000 471.560
25.95000 462.677
26.12000 487.405
26.29000 468.992
26.46000 434.805
26.63000 455.485
26.80000 449.048
26.97000 427.537
27.14000 448.294
27.31000 429.342
27.48000 450.223
27.65000 445.156
27.82000 453.328
27.99000 434.623
28.16000 429.611
28.33000 418.404
28.50000 428.537
28.67000 423.908
28.84000 408.019
29.01000 421.616
29.18000 426.444
29.35000 418.947
29.52000 403.957
29.69000 416.750
29.86000 409.771
30.03000 417.680
30.20000 412.881
30.37000 427.064
30.54000 401.446
30.71000 408.275
30.88000 447.664
31.05000 519.669
31.22000 946.000
31.39000 1574.229
31.56000 1027.643
31.73000 545.043
31.90000 445.078
32.07000 435.531
32.24000 412.858
32.41000 375.547
32.58000 362.559
32.75000 378.423
32.92000 369.816
33.09000 379.993
33.26000 360.354
33.43000 337.924
33.60000 334.731
33.77000 344.431
33.94000 341.056
34.11000 343.640
34.28000 369.125
34.45000 369.308
34.62000 348.947
34.79000 341.227
34.96000 341.544
35.13000 312.923
35.30000 312.393
35.47000 321.509
35.64000 288.498
35.81000 319.014
35.98000 303.349
36.15000 301.568
36.32000 304.373
36.49000 295.577
36.66000 297.413
36.83000 310.998
37.00000 285.917
37.17000 301.400
37.34000 302.833
37.51000 297.847
37.68000 302.797
37.85000 297.165
38.02000 288.280
38.19000 309.003
38.36000 318.077
38.53000 479.848
38.70000 895.765
38.87000 734.700
39.04000 373.650
39.21000 303.425
39.38000 268.610
39.55000 269.830
39.72000 275.442
39.89000 264.831
40.06000 273.794
40.23000 260.371
40.40000 263.026
40.57000 270.150
40.74000 240.875
40.91000 255.695
41.08000 240.773
41.25000 255.160
41.42000 245.253
41.59000 250.444
41.76000 246.674
41.93000 243.962
42.10000 248.193
42.27000 241.895
42.44000 231.453
42.61000 236.088
42.78000 232.880
42.95000 228.733
43.12000 231.780
43.29000 228.197
43.46000 228.471
43.63000 222.364
43.80000 239.399
43.97000 228.186
44.14000 226.327
44.31000 202.020
44.48000 227.739
44.65000 240.751
44.82000 277.026
44.99000 313.716
45.16000 326.581
45.33000 271.145
45.50000 243.234
45.67000 226.138
45.84000 221.901
46.01000 214.720
46.18000 215.052
46.35000 204.247
46.52000 199.033
46.69000 196.246
46.86000 201.640
47.03000 208.588
47.20000 195.105
47.37000 182.688
47.54000 185.795
47.71000 196.154
47.88000 195.766
48.05000 197.357
48.22000 188.169
48.39000 191.289
48.56000 193.725
48.73000 189.714
48.90000 187.856
49.07000 178.582
49.24000 175.546
49.41000 183.258
49.58000 162.275
49.75000 163.877
49.92000 167.815
50.09000 181.091
50.26000 175.131
50.43000 173.122
50.60000 204.217
50.77000 204.837
50.94000 192.639
51.11000 178.309
51.28000 167.001
51.45000 167.113
51.62000 169.506
51.79000 158.592
51.96000 167.329
52.13000 158.930
52.30000 159.172
52.47000 157.194
52.64000 152.568
52.81000 163.717
52.98000 168.732
53.15000 155.897
53.32000 164.796
53.49000 163.079
53.66000 165.928
53.83000 162.683
54.00000 146.018
54.17000 152.609
54.34000 157.081
54.51000 166.014
54.68000 137.836
54.85000 155.735
55.02000 167.251
55.19000 164.397
55.36000 177.803
55.53000 201.212
55.70000 293.274
55.87000 485.269
56.04000 510.722
56.21000 322.493
56.38000 202.531
56.55000 174.079
56.72000 162.638
56.89000 149.874
57.06000 152.711
57.23000 144.782
57.40000 154.487
57.57000 143.815
57.74000 151.644
57.91000 147.825
58.08000 155.434
58.25000 145.445
58.42000 135.533
58.59000 140.332
58.76000 140.819
58.93000 148.240
59.10000 128.620
59.27000 140.094
59.44000 137.525
59.61000 139.147
59.78000 130.192
59.95000 137.508
60.12000 123.877
60.29000 130.540
60.46000 134.966
60.63000 125.625
60.80000 132.246
60.97000 132.523
61.14000 147.157
61.31000 130.171
61.48000 142.274
61.65000 230.222
61.82000 195.477
61.99000 146.190
62.16000 145.665
62.33000 133.256
62.50000 147.398
62.67000 140.622
62.84000 148.114
63.01000 145.239
63.18000 144.733
63.35000 141.661
63.52000 150.853
63.69000 150.188
63.86000 136.950
64.03000 162.669
64.20000 158.125
64.37000 174.894
64.54000 173.960
64.71000 186.265
64.88000 176.348
65.05000 185.381
65.22000 198.633
65.39000 242.244
65.56000 281.841
65.73000 484.577
65.90000 896.355
66.07000 349.077
66.24000 286.631
66.41000 403.187
66.58000 328.820
66.75000 304.990
66.92000 316.247
67.09000 325.852
67.26000 354.990
67.43000 396.001
67.60000 400.205
67.77000 442.794
67.94000 477.814
68.11000 528.514
68.28000 615.686
68.45000 673.695
68.62000 925.596
68.79000 1646.241
68.96000 8272.864
69.13000 49040.672
69.30000 30456.170
69.47000 8169.363
69.64000 1173.697
69.81000 799.100
69.98000 653.597
70.00000 651.947