File: XRD/XRD/30-09-2025 Dep 1/XY Data/BTO_Mapping_Theta2Theta_30-09-2025_001_45_-20-000_-34-641.xy
20.00000 569.226
20.17000 571.319
20.34000 550.824
20.51000 554.014
20.68000 562.461
20.85000 555.235
21.02000 562.376
21.19000 547.800
21.36000 545.776
21.53000 565.920
21.70000 584.477
21.87000 755.324
22.04000 921.257
22.21000 698.688
22.38000 564.676
22.55000 536.555
22.72000 543.471
22.89000 537.468
23.06000 523.664
23.23000 532.719
23.40000 491.700
23.57000 518.758
23.74000 510.513
23.91000 517.065
24.08000 500.062
24.25000 492.793
24.42000 504.102
24.59000 488.613
24.76000 484.632
24.93000 471.637
25.10000 487.272
25.27000 472.285
25.44000 461.225
25.61000 471.082
25.78000 472.171
25.95000 478.511
26.12000 450.627
26.29000 472.007
26.46000 473.026
26.63000 456.770
26.80000 467.292
26.97000 439.523
27.14000 458.259
27.31000 452.532
27.48000 449.299
27.65000 439.608
27.82000 433.855
27.99000 441.339
28.16000 451.280
28.33000 465.177
28.50000 424.923
28.67000 424.854
28.84000 434.846
29.01000 428.758
29.18000 425.823
29.35000 407.859
29.52000 421.052
29.69000 419.470
29.86000 456.432
30.03000 482.534
30.20000 436.913
30.37000 447.005
30.54000 456.768
30.71000 464.999
30.88000 493.488
31.05000 814.933
31.22000 2788.733
31.39000 4110.908
31.56000 1449.508
31.73000 543.521
31.90000 435.609
32.07000 439.394
32.24000 410.806
32.41000 411.392
32.58000 403.317
32.75000 385.259
32.92000 448.531
33.09000 481.613
33.26000 358.539
33.43000 359.790
33.60000 346.045
33.77000 356.824
33.94000 368.046
34.11000 346.886
34.28000 346.107
34.45000 343.623
34.62000 337.033
34.79000 338.994
34.96000 328.129
35.13000 331.012
35.30000 323.617
35.47000 330.584
35.64000 330.799
35.81000 314.348
35.98000 304.120
36.15000 301.316
36.32000 303.468
36.49000 296.139
36.66000 299.683
36.83000 315.055
37.00000 307.304
37.17000 291.227
37.34000 317.676
37.51000 299.538
37.68000 289.981
37.85000 300.284
38.02000 306.056
38.19000 296.437
38.36000 350.827
38.53000 443.833
38.70000 555.362
38.87000 392.530
39.04000 317.420
39.21000 290.263
39.38000 268.415
39.55000 271.296
39.72000 269.110
39.89000 272.172
40.06000 262.261
40.23000 264.566
40.40000 271.715
40.57000 249.631
40.74000 257.835
40.91000 248.044
41.08000 246.819
41.25000 247.935
41.42000 249.330
41.59000 231.078
41.76000 248.010
41.93000 242.401
42.10000 238.729
42.27000 245.419
42.44000 241.906
42.61000 237.719
42.78000 241.456
42.95000 225.388
43.12000 238.818
43.29000 231.876
43.46000 230.886
43.63000 237.374
43.80000 231.669
43.97000 230.225
44.14000 224.475
44.31000 229.587
44.48000 239.572
44.65000 260.813
44.82000 401.298
44.99000 578.895
45.16000 443.340
45.33000 296.775
45.50000 233.321
45.67000 223.746
45.84000 225.824
46.01000 208.744
46.18000 215.552
46.35000 222.046
46.52000 212.881
46.69000 204.368
46.86000 192.185
47.03000 201.397
47.20000 197.128
47.37000 189.865
47.54000 192.612
47.71000 189.441
47.88000 193.126
48.05000 181.142
48.22000 182.360
48.39000 189.950
48.56000 188.965
48.73000 181.249
48.90000 181.807
49.07000 183.163
49.24000 182.555
49.41000 183.687
49.58000 172.794
49.75000 185.853
49.92000 182.389
50.09000 187.701
50.26000 181.149
50.43000 243.879
50.60000 304.448
50.77000 279.087
50.94000 208.853
51.11000 181.733
51.28000 180.296
51.45000 173.530
51.62000 171.822
51.79000 158.264
51.96000 167.208
52.13000 170.900
52.30000 165.272
52.47000 171.246
52.64000 166.363
52.81000 152.756
52.98000 165.848
53.15000 178.254
53.32000 151.483
53.49000 153.549
53.66000 153.329
53.83000 162.734
54.00000 161.839
54.17000 160.621
54.34000 156.555
54.51000 154.396
54.68000 167.461
54.85000 156.637
55.02000 160.832
55.19000 170.657
55.36000 180.471
55.53000 263.258
55.70000 465.833
55.87000 648.993
56.04000 485.896
56.21000 251.234
56.38000 176.915
56.55000 159.675
56.72000 163.799
56.89000 156.355
57.06000 155.064
57.23000 150.844
57.40000 152.969
57.57000 152.504
57.74000 142.498
57.91000 138.693
58.08000 140.603
58.25000 137.698
58.42000 138.203
58.59000 141.214
58.76000 140.643
58.93000 148.657
59.10000 136.404
59.27000 137.740
59.44000 147.289
59.61000 132.438
59.78000 138.925
59.95000 135.852
60.12000 137.625
60.29000 134.224
60.46000 131.697
60.63000 126.167
60.80000 143.224
60.97000 131.157
61.14000 146.760
61.31000 142.931
61.48000 143.310
61.65000 326.526
61.82000 253.108
61.99000 151.396
62.16000 150.965
62.33000 144.288
62.50000 148.808
62.67000 146.162
62.84000 144.418
63.01000 149.489
63.18000 141.250
63.35000 170.424
63.52000 158.497
63.69000 155.208
63.86000 152.986
64.03000 180.960
64.20000 157.213
64.37000 171.772
64.54000 170.922
64.71000 183.265
64.88000 194.047
65.05000 221.520
65.22000 283.300
65.39000 423.152
65.56000 465.670
65.73000 711.899
65.90000 1405.497
66.07000 475.712
66.24000 330.967
66.41000 521.962
66.58000 399.164
66.75000 327.320
66.92000 353.217
67.09000 388.505
67.26000 396.360
67.43000 467.770
67.60000 477.040
67.77000 540.413
67.94000 561.469
68.11000 636.199
68.28000 706.733
68.45000 804.474
68.62000 1160.602
68.79000 2392.710
68.96000 13827.107
69.13000 84102.047
69.30000 55438.168
69.47000 15979.481
69.64000 1706.121
69.81000 1064.783
69.98000 825.690
70.00000 821.075