File: XRD/XRD/30-09-2025 Dep 1/XY Data/BTO_Mapping_Theta2Theta_30-09-2025_001_03_20-000_0-000.xy
20.00000 574.858
20.17000 584.816
20.34000 565.909
20.51000 553.475
20.68000 550.869
20.85000 575.706
21.02000 543.500
21.19000 551.694
21.36000 552.248
21.53000 573.733
21.70000 569.963
21.87000 691.161
22.04000 827.371
22.21000 675.524
22.38000 586.744
22.55000 526.956
22.72000 535.198
22.89000 526.569
23.06000 533.221
23.23000 523.319
23.40000 522.928
23.57000 525.426
23.74000 481.392
23.91000 494.402
24.08000 514.504
24.25000 494.383
24.42000 487.879
24.59000 482.573
24.76000 499.430
24.93000 488.661
25.10000 470.820
25.27000 469.961
25.44000 464.565
25.61000 480.282
25.78000 466.484
25.95000 478.942
26.12000 458.128
26.29000 450.597
26.46000 457.594
26.63000 466.300
26.80000 459.563
26.97000 451.001
27.14000 451.167
27.31000 450.213
27.48000 454.095
27.65000 436.212
27.82000 419.870
27.99000 448.111
28.16000 450.776
28.33000 453.176
28.50000 436.330
28.67000 435.504
28.84000 425.588
29.01000 408.430
29.18000 434.975
29.35000 432.933
29.52000 407.146
29.69000 420.632
29.86000 447.200
30.03000 444.516
30.20000 440.297
30.37000 435.170
30.54000 449.370
30.71000 463.948
30.88000 510.517
31.05000 731.781
31.22000 2365.198
31.39000 3996.654
31.56000 1616.590
31.73000 558.838
31.90000 441.716
32.07000 423.540
32.24000 407.277
32.41000 403.196
32.58000 385.733
32.75000 374.968
32.92000 461.619
33.09000 440.432
33.26000 353.166
33.43000 356.692
33.60000 352.062
33.77000 343.844
33.94000 331.630
34.11000 336.440
34.28000 331.899
34.45000 318.951
34.62000 329.535
34.79000 314.464
34.96000 336.548
35.13000 318.348
35.30000 307.743
35.47000 307.171
35.64000 331.170
35.81000 314.729
35.98000 308.736
36.15000 307.653
36.32000 305.779
36.49000 295.241
36.66000 312.652
36.83000 300.122
37.00000 305.381
37.17000 296.060
37.34000 300.794
37.51000 301.408
37.68000 286.590
37.85000 308.301
38.02000 299.032
38.19000 307.359
38.36000 333.935
38.53000 523.607
38.70000 800.996
38.87000 568.063
39.04000 322.143
39.21000 299.469
39.38000 277.151
39.55000 285.919
39.72000 282.575
39.89000 256.804
40.06000 267.035
40.23000 254.988
40.40000 250.957
40.57000 258.234
40.74000 260.032
40.91000 259.508
41.08000 244.587
41.25000 248.727
41.42000 262.660
41.59000 252.365
41.76000 237.848
41.93000 250.853
42.10000 225.158
42.27000 241.095
42.44000 234.717
42.61000 238.840
42.78000 226.870
42.95000 246.107
43.12000 229.163
43.29000 235.006
43.46000 224.950
43.63000 212.817
43.80000 229.792
43.97000 225.145
44.14000 211.432
44.31000 231.223
44.48000 231.112
44.65000 239.014
44.82000 309.852
44.99000 468.984
45.16000 434.897
45.33000 293.384
45.50000 246.668
45.67000 211.954
45.84000 209.917
46.01000 206.883
46.18000 206.747
46.35000 204.463
46.52000 202.115
46.69000 195.778
46.86000 208.309
47.03000 207.197
47.20000 192.617
47.37000 195.999
47.54000 192.299
47.71000 186.033
47.88000 191.313
48.05000 192.922
48.22000 176.702
48.39000 188.752
48.56000 188.704
48.73000 201.270
48.90000 162.458
49.07000 177.807
49.24000 181.399
49.41000 176.817
49.58000 178.007
49.75000 182.231
49.92000 184.656
50.09000 175.820
50.26000 189.297
50.43000 205.505
50.60000 274.481
50.77000 273.818
50.94000 211.991
51.11000 172.291
51.28000 179.989
51.45000 173.530
51.62000 166.883
51.79000 166.066
51.96000 154.551
52.13000 170.888
52.30000 161.413
52.47000 158.552
52.64000 159.219
52.81000 145.054
52.98000 175.773
53.15000 159.136
53.32000 161.213
53.49000 159.183
53.66000 166.229
53.83000 156.166
54.00000 164.436
54.17000 150.047
54.34000 155.543
54.51000 169.192
54.68000 155.004
54.85000 147.161
55.02000 148.041
55.19000 175.485
55.36000 174.464
55.53000 214.411
55.70000 364.076
55.87000 659.106
56.04000 585.171
56.21000 307.949
56.38000 195.537
56.55000 168.347
56.72000 155.581
56.89000 157.683
57.06000 142.096
57.23000 149.835
57.40000 147.269
57.57000 143.440
57.74000 142.912
57.91000 133.158
58.08000 130.161
58.25000 144.773
58.42000 134.111
58.59000 144.700
58.76000 138.309
58.93000 148.295
59.10000 128.290
59.27000 122.125
59.44000 133.031
59.61000 145.740
59.78000 131.908
59.95000 137.178
60.12000 134.377
60.29000 142.322
60.46000 141.552
60.63000 129.155
60.80000 134.826
60.97000 129.501
61.14000 137.996
61.31000 139.359
61.48000 149.939
61.65000 305.111
61.82000 213.220
61.99000 145.867
62.16000 148.642
62.33000 148.855
62.50000 150.882
62.67000 148.109
62.84000 141.674
63.01000 156.631
63.18000 146.133
63.35000 147.321
63.52000 150.422
63.69000 147.466
63.86000 159.573
64.03000 167.803
64.20000 166.509
64.37000 160.365
64.54000 167.682
64.71000 187.293
64.88000 192.530
65.05000 214.742
65.22000 246.507
65.39000 357.192
65.56000 477.603
65.73000 850.952
65.90000 1331.816
66.07000 391.560
66.24000 337.941
66.41000 503.508
66.58000 364.242
66.75000 342.335
66.92000 355.247
67.09000 380.512
67.26000 414.473
67.43000 461.670
67.60000 476.668
67.77000 517.185
67.94000 572.418
68.11000 622.554
68.28000 697.186
68.45000 829.721
68.62000 1193.805
68.79000 2316.530
68.96000 19899.006
69.13000 77055.039
69.30000 43995.230
69.47000 9062.738
69.64000 1414.274
69.81000 945.359
69.98000 750.164
70.00000 722.532