File: XRD/XRD/30-09-2025 Dep 1/XY Data/BTO_Mapping_Theta2Theta_30-09-2025_001_34_-9-781_-2-079.xy
20.00000 572.017
20.17000 573.777
20.34000 580.684
20.51000 563.457
20.68000 557.042
20.85000 543.834
21.02000 546.741
21.19000 574.146
21.36000 544.602
21.53000 552.688
21.70000 571.299
21.87000 646.444
22.04000 789.975
22.21000 691.160
22.38000 556.868
22.55000 537.241
22.72000 538.776
22.89000 502.819
23.06000 525.741
23.23000 508.107
23.40000 518.955
23.57000 497.227
23.74000 508.916
23.91000 520.055
24.08000 531.141
24.25000 536.761
24.42000 494.364
24.59000 489.509
24.76000 492.134
24.93000 493.315
25.10000 494.164
25.27000 483.127
25.44000 484.226
25.61000 481.684
25.78000 457.037
25.95000 469.547
26.12000 454.052
26.29000 465.501
26.46000 472.304
26.63000 474.932
26.80000 446.275
26.97000 445.419
27.14000 443.554
27.31000 459.376
27.48000 430.396
27.65000 444.734
27.82000 446.313
27.99000 437.829
28.16000 431.698
28.33000 417.053
28.50000 421.671
28.67000 426.396
28.84000 416.685
29.01000 416.146
29.18000 419.032
29.35000 419.084
29.52000 420.947
29.69000 417.477
29.86000 433.327
30.03000 451.805
30.20000 436.918
30.37000 416.302
30.54000 446.579
30.71000 437.610
30.88000 492.267
31.05000 721.772
31.22000 1930.171
31.39000 3647.614
31.56000 1708.618
31.73000 572.201
31.90000 459.412
32.07000 418.899
32.24000 400.080
32.41000 397.661
32.58000 382.121
32.75000 361.987
32.92000 412.270
33.09000 424.674
33.26000 364.328
33.43000 346.000
33.60000 356.039
33.77000 375.866
33.94000 343.188
34.11000 330.912
34.28000 336.850
34.45000 321.811
34.62000 335.502
34.79000 327.964
34.96000 320.177
35.13000 322.894
35.30000 321.800
35.47000 318.117
35.64000 314.348
35.81000 308.421
35.98000 300.973
36.15000 300.010
36.32000 296.811
36.49000 295.756
36.66000 308.233
36.83000 293.916
37.00000 301.965
37.17000 313.056
37.34000 315.141
37.51000 299.829
37.68000 297.635
37.85000 292.467
38.02000 287.135
38.19000 307.767
38.36000 334.601
38.53000 507.595
38.70000 842.003
38.87000 618.675
39.04000 337.645
39.21000 284.813
39.38000 270.836
39.55000 273.740
39.72000 270.010
39.89000 274.583
40.06000 258.593
40.23000 251.043
40.40000 241.030
40.57000 251.452
40.74000 264.195
40.91000 248.696
41.08000 244.567
41.25000 244.092
41.42000 240.536
41.59000 248.069
41.76000 233.909
41.93000 239.293
42.10000 251.868
42.27000 233.088
42.44000 225.937
42.61000 235.063
42.78000 233.874
42.95000 230.731
43.12000 235.721
43.29000 229.624
43.46000 227.031
43.63000 224.705
43.80000 231.721
43.97000 226.274
44.14000 223.687
44.31000 231.244
44.48000 241.912
44.65000 243.111
44.82000 287.649
44.99000 417.470
45.16000 433.382
45.33000 285.603
45.50000 236.611
45.67000 228.712
45.84000 216.843
46.01000 210.615
46.18000 201.370
46.35000 201.939
46.52000 196.030
46.69000 199.687
46.86000 207.346
47.03000 201.136
47.20000 188.704
47.37000 197.144
47.54000 192.718
47.71000 192.767
47.88000 196.478
48.05000 183.046
48.22000 184.936
48.39000 175.540
48.56000 180.163
48.73000 187.667
48.90000 181.147
49.07000 179.899
49.24000 183.706
49.41000 171.000
49.58000 168.418
49.75000 185.195
49.92000 161.010
50.09000 176.726
50.26000 179.801
50.43000 202.996
50.60000 257.537
50.77000 267.884
50.94000 209.624
51.11000 180.829
51.28000 165.793
51.45000 167.551
51.62000 165.748
51.79000 166.502
51.96000 165.816
52.13000 166.777
52.30000 159.393
52.47000 168.731
52.64000 162.510
52.81000 164.519
52.98000 161.943
53.15000 159.299
53.32000 171.353
53.49000 156.840
53.66000 149.776
53.83000 157.107
54.00000 154.543
54.17000 152.245
54.34000 146.199
54.51000 157.302
54.68000 154.147
54.85000 159.080
55.02000 166.673
55.19000 155.870
55.36000 174.926
55.53000 204.309
55.70000 321.317
55.87000 613.246
56.04000 561.235
56.21000 317.771
56.38000 186.810
56.55000 167.283
56.72000 157.778
56.89000 152.990
57.06000 143.776
57.23000 139.722
57.40000 140.868
57.57000 152.097
57.74000 141.513
57.91000 141.251
58.08000 133.545
58.25000 137.348
58.42000 137.843
58.59000 139.532
58.76000 140.389
58.93000 132.217
59.10000 132.050
59.27000 141.589
59.44000 130.487
59.61000 141.720
59.78000 140.190
59.95000 133.998
60.12000 139.228
60.29000 135.838
60.46000 140.198
60.63000 135.228
60.80000 130.080
60.97000 137.991
61.14000 122.619
61.31000 137.593
61.48000 139.788
61.65000 278.396
61.82000 218.208
61.99000 144.644
62.16000 140.139
62.33000 141.942
62.50000 132.782
62.67000 156.987
62.84000 137.472
63.01000 159.595
63.18000 148.733
63.35000 148.806
63.52000 152.006
63.69000 165.723
63.86000 154.770
64.03000 167.264
64.20000 164.926
64.37000 168.260
64.54000 182.572
64.71000 166.523
64.88000 192.246
65.05000 209.251
65.22000 250.828
65.39000 342.291
65.56000 450.583
65.73000 714.311
65.90000 1259.275
66.07000 395.087
66.24000 325.573
66.41000 475.313
66.58000 364.426
66.75000 322.493
66.92000 339.850
67.09000 377.855
67.26000 422.626
67.43000 437.558
67.60000 470.126
67.77000 494.507
67.94000 528.422
68.11000 581.195
68.28000 661.798
68.45000 757.170
68.62000 1097.075
68.79000 2071.363
68.96000 12028.105
69.13000 70143.141
69.30000 43417.234
69.47000 11221.548
69.64000 1433.608
69.81000 946.600
69.98000 747.873
70.00000 753.028