File: XRD/XRD/30-09-2025 Dep 1/XY Data/BTO_Mapping_Theta2Theta_30-09-2025_001_37_-39-126_-8-316.xy
20.00000 560.056
20.17000 561.853
20.34000 560.283
20.51000 558.111
20.68000 563.242
20.85000 552.771
21.02000 550.971
21.19000 561.667
21.36000 578.086
21.53000 553.537
21.70000 534.031
21.87000 566.309
22.04000 647.160
22.21000 661.483
22.38000 560.964
22.55000 539.966
22.72000 544.051
22.89000 522.340
23.06000 528.216
23.23000 514.235
23.40000 504.722
23.57000 503.019
23.74000 521.405
23.91000 515.128
24.08000 499.517
24.25000 508.096
24.42000 485.297
24.59000 494.072
24.76000 492.283
24.93000 485.378
25.10000 475.130
25.27000 476.110
25.44000 474.216
25.61000 452.977
25.78000 480.228
25.95000 447.103
26.12000 467.716
26.29000 450.581
26.46000 441.259
26.63000 470.611
26.80000 457.798
26.97000 454.266
27.14000 451.661
27.31000 457.512
27.48000 429.903
27.65000 437.452
27.82000 445.415
27.99000 429.477
28.16000 399.987
28.33000 431.389
28.50000 419.740
28.67000 413.937
28.84000 428.812
29.01000 415.764
29.18000 430.126
29.35000 401.907
29.52000 403.923
29.69000 410.643
29.86000 427.993
30.03000 460.699
30.20000 429.761
30.37000 435.445
30.54000 433.497
30.71000 429.974
30.88000 451.829
31.05000 566.202
31.22000 1373.087
31.39000 3484.494
31.56000 2402.388
31.73000 689.941
31.90000 484.142
32.07000 421.349
32.24000 427.658
32.41000 395.267
32.58000 368.008
32.75000 353.315
32.92000 389.032
33.09000 389.316
33.26000 358.928
33.43000 361.730
33.60000 344.420
33.77000 345.262
33.94000 345.909
34.11000 347.691
34.28000 338.304
34.45000 356.569
34.62000 339.929
34.79000 335.431
34.96000 324.137
35.13000 310.437
35.30000 322.719
35.47000 324.215
35.64000 315.908
35.81000 313.711
35.98000 301.923
36.15000 298.999
36.32000 310.831
36.49000 298.545
36.66000 284.196
36.83000 305.399
37.00000 307.359
37.17000 307.743
37.34000 287.024
37.51000 301.906
37.68000 294.128
37.85000 296.248
38.02000 287.517
38.19000 305.386
38.36000 311.889
38.53000 428.329
38.70000 787.388
38.87000 810.790
39.04000 379.399
39.21000 290.473
39.38000 270.581
39.55000 277.180
39.72000 263.897
39.89000 266.666
40.06000 257.402
40.23000 261.111
40.40000 245.010
40.57000 258.008
40.74000 247.331
40.91000 243.624
41.08000 246.654
41.25000 249.053
41.42000 242.948
41.59000 245.413
41.76000 231.202
41.93000 245.212
42.10000 232.373
42.27000 230.623
42.44000 237.983
42.61000 229.786
42.78000 228.642
42.95000 232.147
43.12000 229.954
43.29000 231.288
43.46000 225.757
43.63000 229.848
43.80000 223.880
43.97000 232.643
44.14000 218.558
44.31000 217.094
44.48000 224.504
44.65000 227.217
44.82000 247.750
44.99000 302.667
45.16000 331.181
45.33000 297.195
45.50000 247.979
45.67000 228.263
45.84000 211.778
46.01000 212.506
46.18000 212.025
46.35000 199.564
46.52000 205.288
46.69000 199.600
46.86000 188.470
47.03000 202.307
47.20000 199.973
47.37000 194.385
47.54000 197.732
47.71000 178.176
47.88000 183.241
48.05000 183.070
48.22000 201.722
48.39000 177.953
48.56000 170.070
48.73000 175.554
48.90000 173.074
49.07000 177.072
49.24000 179.095
49.41000 183.018
49.58000 173.302
49.75000 191.991
49.92000 184.101
50.09000 186.781
50.26000 182.243
50.43000 186.464
50.60000 229.038
50.77000 260.210
50.94000 220.607
51.11000 184.282
51.28000 169.411
51.45000 162.803
51.62000 161.752
51.79000 171.776
51.96000 162.638
52.13000 162.275
52.30000 173.270
52.47000 159.554
52.64000 152.751
52.81000 146.155
52.98000 162.567
53.15000 174.368
53.32000 158.968
53.49000 176.402
53.66000 155.888
53.83000 150.949
54.00000 155.798
54.17000 156.987
54.34000 148.512
54.51000 147.252
54.68000 156.325
54.85000 153.142
55.02000 160.561
55.19000 164.765
55.36000 166.341
55.53000 187.451
55.70000 264.671
55.87000 519.140
56.04000 613.642
56.21000 401.209
56.38000 210.863
56.55000 177.417
56.72000 154.380
56.89000 151.449
57.06000 140.235
57.23000 142.168
57.40000 144.955
57.57000 145.977
57.74000 139.157
57.91000 149.659
58.08000 142.205
58.25000 145.374
58.42000 136.128
58.59000 136.961
58.76000 145.750
58.93000 131.855
59.10000 136.964
59.27000 130.519
59.44000 127.288
59.61000 124.366
59.78000 132.338
59.95000 130.733
60.12000 133.112
60.29000 126.576
60.46000 136.567
60.63000 139.583
60.80000 131.940
60.97000 128.556
61.14000 134.818
61.31000 136.759
61.48000 147.671
61.65000 225.417
61.82000 216.787
61.99000 135.449
62.16000 144.306
62.33000 144.566
62.50000 136.879
62.67000 137.348
62.84000 138.651
63.01000 146.641
63.18000 153.899
63.35000 142.868
63.52000 140.349
63.69000 156.776
63.86000 153.310
64.03000 157.786
64.20000 155.988
64.37000 166.443
64.54000 151.787
64.71000 166.306
64.88000 189.176
65.05000 188.269
65.22000 216.679
65.39000 277.729
65.56000 402.651
65.73000 559.667
65.90000 973.004
66.07000 409.464
66.24000 290.364
66.41000 386.255
66.58000 346.633
66.75000 285.364
66.92000 302.761
67.09000 317.602
67.26000 355.927
67.43000 390.296
67.60000 414.240
67.77000 428.333
67.94000 487.099
68.11000 523.211
68.28000 578.420
68.45000 651.357
68.62000 847.236
68.79000 1579.953
68.96000 5129.626
69.13000 49278.719
69.30000 35365.164
69.47000 11867.387
69.64000 1247.374
69.81000 802.697
69.98000 655.977
70.00000 644.145