File: XRD/XRD/30-09-2025 Dep 1/XY Data/BTO_Mapping_Theta2Theta_30-09-2025_001_49_-4-181_-39-781.xy
20.00000 563.057
20.17000 575.205
20.34000 593.432
20.51000 592.405
20.68000 574.038
20.85000 563.604
21.02000 566.637
21.19000 544.850
21.36000 553.147
21.53000 613.368
21.70000 702.163
21.87000 1026.511
22.04000 1028.654
22.21000 681.869
22.38000 581.010
22.55000 560.961
22.72000 529.735
22.89000 535.327
23.06000 539.774
23.23000 540.115
23.40000 523.523
23.57000 531.224
23.74000 511.814
23.91000 509.242
24.08000 526.953
24.25000 510.049
24.42000 498.842
24.59000 492.839
24.76000 495.003
24.93000 500.121
25.10000 505.021
25.27000 505.901
25.44000 479.198
25.61000 496.182
25.78000 483.741
25.95000 498.325
26.12000 483.980
26.29000 457.105
26.46000 479.910
26.63000 467.423
26.80000 471.085
26.97000 468.064
27.14000 453.072
27.31000 465.184
27.48000 476.408
27.65000 463.963
27.82000 459.821
27.99000 472.357
28.16000 468.061
28.33000 459.756
28.50000 446.424
28.67000 449.913
28.84000 456.814
29.01000 439.484
29.18000 443.909
29.35000 443.215
29.52000 440.101
29.69000 448.428
29.86000 475.003
30.03000 469.803
30.20000 457.377
30.37000 455.265
30.54000 480.946
30.71000 504.342
30.88000 641.966
31.05000 1750.535
31.22000 4006.574
31.39000 2582.785
31.56000 807.299
31.73000 524.160
31.90000 461.560
32.07000 434.918
32.24000 436.095
32.41000 423.007
32.58000 390.899
32.75000 392.942
32.92000 464.793
33.09000 491.999
33.26000 383.002
33.43000 366.274
33.60000 351.600
33.77000 346.129
33.94000 348.186
34.11000 360.282
34.28000 352.119
34.45000 357.572
34.62000 331.306
34.79000 329.112
34.96000 326.204
35.13000 310.968
35.30000 320.571
35.47000 314.315
35.64000 337.107
35.81000 322.044
35.98000 314.011
36.15000 316.261
36.32000 316.359
36.49000 301.960
36.66000 310.274
36.83000 317.038
37.00000 325.471
37.17000 300.056
37.34000 319.042
37.51000 314.620
37.68000 298.401
37.85000 304.035
38.02000 292.040
38.19000 327.617
38.36000 398.326
38.53000 477.801
38.70000 430.522
38.87000 335.306
39.04000 296.686
39.21000 283.567
39.38000 279.918
39.55000 265.910
39.72000 271.314
39.89000 273.229
40.06000 273.127
40.23000 263.508
40.40000 250.107
40.57000 237.583
40.74000 249.962
40.91000 262.992
41.08000 265.562
41.25000 255.385
41.42000 242.958
41.59000 253.364
41.76000 267.311
41.93000 254.403
42.10000 249.112
42.27000 240.963
42.44000 240.215
42.61000 239.607
42.78000 252.574
42.95000 252.391
43.12000 249.183
43.29000 245.166
43.46000 241.268
43.63000 235.373
43.80000 239.291
43.97000 236.313
44.14000 245.529
44.31000 255.733
44.48000 307.294
44.65000 505.514
44.82000 724.670
44.99000 623.751
45.16000 432.145
45.33000 319.985
45.50000 243.377
45.67000 238.214
45.84000 224.775
46.01000 219.243
46.18000 212.860
46.35000 217.862
46.52000 209.704
46.69000 203.710
46.86000 209.711
47.03000 216.605
47.20000 203.336
47.37000 199.470
47.54000 197.143
47.71000 209.034
47.88000 189.306
48.05000 187.320
48.22000 212.470
48.39000 199.455
48.56000 190.163
48.73000 202.294
48.90000 188.031
49.07000 189.866
49.24000 177.626
49.41000 190.206
49.58000 191.008
49.75000 191.303
49.92000 194.753
50.09000 191.089
50.26000 240.204
50.43000 269.411
50.60000 276.412
50.77000 238.700
50.94000 207.642
51.11000 186.952
51.28000 180.434
51.45000 177.008
51.62000 173.009
51.79000 179.492
51.96000 171.845
52.13000 163.646
52.30000 176.620
52.47000 171.994
52.64000 159.227
52.81000 167.988
52.98000 168.701
53.15000 167.240
53.32000 163.137
53.49000 163.033
53.66000 158.864
53.83000 163.617
54.00000 160.995
54.17000 163.304
54.34000 166.765
54.51000 156.981
54.68000 158.906
54.85000 174.344
55.02000 170.243
55.19000 184.842
55.36000 245.516
55.53000 404.202
55.70000 553.865
55.87000 421.837
56.04000 279.898
56.21000 188.886
56.38000 182.237
56.55000 159.075
56.72000 162.793
56.89000 162.430
57.06000 151.494
57.23000 154.643
57.40000 152.809
57.57000 144.664
57.74000 140.814
57.91000 140.282
58.08000 144.970
58.25000 137.807
58.42000 137.547
58.59000 146.613
58.76000 140.848
58.93000 138.375
59.10000 138.510
59.27000 128.111
59.44000 138.596
59.61000 140.936
59.78000 140.985
59.95000 142.693
60.12000 137.875
60.29000 139.094
60.46000 141.937
60.63000 139.193
60.80000 143.739
60.97000 136.325
61.14000 135.645
61.31000 151.272
61.48000 152.290
61.65000 346.258
61.82000 251.281
61.99000 159.701
62.16000 138.768
62.33000 143.373
62.50000 141.287
62.67000 143.330
62.84000 132.858
63.01000 153.971
63.18000 155.124
63.35000 154.880
63.52000 152.754
63.69000 152.063
63.86000 151.705
64.03000 154.290
64.20000 172.851
64.37000 175.987
64.54000 174.912
64.71000 195.974
64.88000 217.103
65.05000 303.519
65.22000 417.293
65.39000 393.908
65.56000 356.743
65.73000 745.150
65.90000 1437.690
66.07000 477.797
66.24000 349.829
66.41000 537.977
66.58000 416.615
66.75000 354.879
66.92000 365.953
67.09000 394.969
67.26000 421.485
67.43000 443.692
67.60000 487.772
67.77000 553.252
67.94000 589.143
68.11000 628.382
68.28000 713.637
68.45000 863.732
68.62000 1275.319
68.79000 2527.691
68.96000 17973.016
69.13000 88672.938
69.30000 55332.516
69.47000 14364.105
69.64000 1693.176
69.81000 1087.745
69.98000 812.097
70.00000 795.301