File: XRD/XRD/30-09-2025 Dep 1/XY Data/BTO_Mapping_Theta2Theta_30-09-2025_001_27_-16-180_11-756.xy
20.00000 567.209
20.17000 557.000
20.34000 554.592
20.51000 546.333
20.68000 551.657
20.85000 556.876
21.02000 568.131
21.19000 550.037
21.36000 556.317
21.53000 535.400
21.70000 541.717
21.87000 558.147
22.04000 660.792
22.21000 625.328
22.38000 550.150
22.55000 549.984
22.72000 524.358
22.89000 507.255
23.06000 513.015
23.23000 527.836
23.40000 510.747
23.57000 502.190
23.74000 521.843
23.91000 538.565
24.08000 530.618
24.25000 519.330
24.42000 484.722
24.59000 482.351
24.76000 466.185
24.93000 479.859
25.10000 490.037
25.27000 479.848
25.44000 485.319
25.61000 456.653
25.78000 457.006
25.95000 483.173
26.12000 440.422
26.29000 454.922
26.46000 452.808
26.63000 466.347
26.80000 463.672
26.97000 454.265
27.14000 437.985
27.31000 442.733
27.48000 439.015
27.65000 442.726
27.82000 438.901
27.99000 456.241
28.16000 439.944
28.33000 422.039
28.50000 422.611
28.67000 410.314
28.84000 414.894
29.01000 409.787
29.18000 412.564
29.35000 414.166
29.52000 419.083
29.69000 416.288
29.86000 410.794
30.03000 431.854
30.20000 419.448
30.37000 432.638
30.54000 413.505
30.71000 423.319
30.88000 465.835
31.05000 569.470
31.22000 1479.202
31.39000 3059.785
31.56000 1737.348
31.73000 590.949
31.90000 415.587
32.07000 406.575
32.24000 403.645
32.41000 387.572
32.58000 387.280
32.75000 388.973
32.92000 357.835
33.09000 373.256
33.26000 359.055
33.43000 344.498
33.60000 349.796
33.77000 342.039
33.94000 355.392
34.11000 342.142
34.28000 347.050
34.45000 352.789
34.62000 340.154
34.79000 343.833
34.96000 334.366
35.13000 323.421
35.30000 323.790
35.47000 321.431
35.64000 315.358
35.81000 310.278
35.98000 307.579
36.15000 308.383
36.32000 304.512
36.49000 304.795
36.66000 302.407
36.83000 298.773
37.00000 297.680
37.17000 304.593
37.34000 298.305
37.51000 289.108
37.68000 309.295
37.85000 283.030
38.02000 297.547
38.19000 301.734
38.36000 321.336
38.53000 493.513
38.70000 990.700
38.87000 835.020
39.04000 380.598
39.21000 288.712
39.38000 265.894
39.55000 263.201
39.72000 271.133
39.89000 275.465
40.06000 267.842
40.23000 264.042
40.40000 251.829
40.57000 242.309
40.74000 248.691
40.91000 258.080
41.08000 259.027
41.25000 248.152
41.42000 246.706
41.59000 235.058
41.76000 235.513
41.93000 254.363
42.10000 241.869
42.27000 241.632
42.44000 239.375
42.61000 233.467
42.78000 240.200
42.95000 233.232
43.12000 219.813
43.29000 228.540
43.46000 220.294
43.63000 213.465
43.80000 220.752
43.97000 228.892
44.14000 218.880
44.31000 230.154
44.48000 227.519
44.65000 244.487
44.82000 257.720
44.99000 301.817
45.16000 330.067
45.33000 272.411
45.50000 235.457
45.67000 221.066
45.84000 204.788
46.01000 211.824
46.18000 212.315
46.35000 199.860
46.52000 202.618
46.69000 194.930
46.86000 205.228
47.03000 200.196
47.20000 191.140
47.37000 198.551
47.54000 187.137
47.71000 193.700
47.88000 182.374
48.05000 188.457
48.22000 178.968
48.39000 182.400
48.56000 182.924
48.73000 178.538
48.90000 184.335
49.07000 179.200
49.24000 176.315
49.41000 185.835
49.58000 181.240
49.75000 190.964
49.92000 188.106
50.09000 177.895
50.26000 186.211
50.43000 185.210
50.60000 243.353
50.77000 243.352
50.94000 218.739
51.11000 176.921
51.28000 151.919
51.45000 178.720
51.62000 160.538
51.79000 166.753
51.96000 163.596
52.13000 161.267
52.30000 159.350
52.47000 166.414
52.64000 164.570
52.81000 154.498
52.98000 150.634
53.15000 162.533
53.32000 159.661
53.49000 165.908
53.66000 158.754
53.83000 158.437
54.00000 160.941
54.17000 153.172
54.34000 152.058
54.51000 157.148
54.68000 162.009
54.85000 157.788
55.02000 155.948
55.19000 156.951
55.36000 174.417
55.53000 194.951
55.70000 290.286
55.87000 549.105
56.04000 610.816
56.21000 367.481
56.38000 212.295
56.55000 163.642
56.72000 153.341
56.89000 145.264
57.06000 152.263
57.23000 145.318
57.40000 139.500
57.57000 145.803
57.74000 141.324
57.91000 146.775
58.08000 145.728
58.25000 136.998
58.42000 139.394
58.59000 142.745
58.76000 142.399
58.93000 138.544
59.10000 142.298
59.27000 125.418
59.44000 133.070
59.61000 141.577
59.78000 138.787
59.95000 133.442
60.12000 135.827
60.29000 135.199
60.46000 137.342
60.63000 137.817
60.80000 138.456
60.97000 126.587
61.14000 133.928
61.31000 143.113
61.48000 140.789
61.65000 232.912
61.82000 188.860
61.99000 147.392
62.16000 150.651
62.33000 140.348
62.50000 150.357
62.67000 133.014
62.84000 140.234
63.01000 150.222
63.18000 154.492
63.35000 141.977
63.52000 149.150
63.69000 151.201
63.86000 155.254
64.03000 138.507
64.20000 164.478
64.37000 162.331
64.54000 167.826
64.71000 166.965
64.88000 183.925
65.05000 187.246
65.22000 212.342
65.39000 300.154
65.56000 359.858
65.73000 544.828
65.90000 924.153
66.07000 358.646
66.24000 279.947
66.41000 403.971
66.58000 318.814
66.75000 296.818
66.92000 315.106
67.09000 339.580
67.26000 358.937
67.43000 368.314
67.60000 402.646
67.77000 440.248
67.94000 482.353
68.11000 513.292
68.28000 573.760
68.45000 655.126
68.62000 886.673
68.79000 1593.841
68.96000 7327.294
69.13000 46552.211
69.30000 29460.338
69.47000 8288.889
69.64000 1134.588
69.81000 776.900
69.98000 635.081
70.00000 627.532