File: XRD/XRD/30-09-2025 Dep 1/XY Data/BTO_Mapping_Theta2Theta_30-09-2025_001_38_-8-090_-5-878.xy
20.00000 551.210
20.17000 585.164
20.34000 567.433
20.51000 582.048
20.68000 572.425
20.85000 563.605
21.02000 558.695
21.19000 565.543
21.36000 524.011
21.53000 572.569
21.70000 559.674
21.87000 670.270
22.04000 837.455
22.21000 680.133
22.38000 549.239
22.55000 533.614
22.72000 531.736
22.89000 498.904
23.06000 509.595
23.23000 506.919
23.40000 511.370
23.57000 498.077
23.74000 514.849
23.91000 528.556
24.08000 528.728
24.25000 499.599
24.42000 500.462
24.59000 493.565
24.76000 483.969
24.93000 492.700
25.10000 495.411
25.27000 484.632
25.44000 464.247
25.61000 472.772
25.78000 478.490
25.95000 453.884
26.12000 459.807
26.29000 456.089
26.46000 469.875
26.63000 454.121
26.80000 454.458
26.97000 447.825
27.14000 462.877
27.31000 447.536
27.48000 458.938
27.65000 451.992
27.82000 415.059
27.99000 439.989
28.16000 451.907
28.33000 439.035
28.50000 425.719
28.67000 422.129
28.84000 426.183
29.01000 439.086
29.18000 406.171
29.35000 439.968
29.52000 427.554
29.69000 426.603
29.86000 427.434
30.03000 456.339
30.20000 426.591
30.37000 435.662
30.54000 426.363
30.71000 444.156
30.88000 472.373
31.05000 702.438
31.22000 2054.955
31.39000 3773.000
31.56000 1672.938
31.73000 574.104
31.90000 452.182
32.07000 438.800
32.24000 420.930
32.41000 417.102
32.58000 396.392
32.75000 393.897
32.92000 437.307
33.09000 453.566
33.26000 359.902
33.43000 345.594
33.60000 349.925
33.77000 328.099
33.94000 341.691
34.11000 349.098
34.28000 335.611
34.45000 327.589
34.62000 329.559
34.79000 320.210
34.96000 327.746
35.13000 315.781
35.30000 323.650
35.47000 305.193
35.64000 342.363
35.81000 315.438
35.98000 309.288
36.15000 317.410
36.32000 301.994
36.49000 308.840
36.66000 297.622
36.83000 290.833
37.00000 310.848
37.17000 320.724
37.34000 287.128
37.51000 300.874
37.68000 296.265
37.85000 285.057
38.02000 289.847
38.19000 311.185
38.36000 345.524
38.53000 492.616
38.70000 805.295
38.87000 564.912
39.04000 334.248
39.21000 295.633
39.38000 273.041
39.55000 285.015
39.72000 276.926
39.89000 266.346
40.06000 273.237
40.23000 271.888
40.40000 255.556
40.57000 251.483
40.74000 251.411
40.91000 267.187
41.08000 252.806
41.25000 251.466
41.42000 249.615
41.59000 257.973
41.76000 242.964
41.93000 247.961
42.10000 237.520
42.27000 251.152
42.44000 230.261
42.61000 250.015
42.78000 229.464
42.95000 228.677
43.12000 223.903
43.29000 225.033
43.46000 240.776
43.63000 225.184
43.80000 218.325
43.97000 220.632
44.14000 209.601
44.31000 224.278
44.48000 235.462
44.65000 236.561
44.82000 310.603
44.99000 459.544
45.16000 440.237
45.33000 308.180
45.50000 249.759
45.67000 222.648
45.84000 210.999
46.01000 203.228
46.18000 218.437
46.35000 222.142
46.52000 204.198
46.69000 200.382
46.86000 202.821
47.03000 200.052
47.20000 196.343
47.37000 192.102
47.54000 196.819
47.71000 187.378
47.88000 192.030
48.05000 186.679
48.22000 212.002
48.39000 194.846
48.56000 182.649
48.73000 174.100
48.90000 196.362
49.07000 179.719
49.24000 181.368
49.41000 176.574
49.58000 182.089
49.75000 179.361
49.92000 190.807
50.09000 171.169
50.26000 188.482
50.43000 211.142
50.60000 266.793
50.77000 263.589
50.94000 221.325
51.11000 174.163
51.28000 175.626
51.45000 168.024
51.62000 164.300
51.79000 172.350
51.96000 157.772
52.13000 161.636
52.30000 159.440
52.47000 172.040
52.64000 154.497
52.81000 149.917
52.98000 161.609
53.15000 168.543
53.32000 158.799
53.49000 155.775
53.66000 163.592
53.83000 155.368
54.00000 165.566
54.17000 156.191
54.34000 164.120
54.51000 153.050
54.68000 161.217
54.85000 156.003
55.02000 164.848
55.19000 160.748
55.36000 185.138
55.53000 206.825
55.70000 335.709
55.87000 641.596
56.04000 551.263
56.21000 304.724
56.38000 201.001
56.55000 161.636
56.72000 160.640
56.89000 152.705
57.06000 157.195
57.23000 145.315
57.40000 146.916
57.57000 139.076
57.74000 146.614
57.91000 136.197
58.08000 142.266
58.25000 144.594
58.42000 139.534
58.59000 126.491
58.76000 134.175
58.93000 134.994
59.10000 141.351
59.27000 142.589
59.44000 123.233
59.61000 135.305
59.78000 136.905
59.95000 141.845
60.12000 122.914
60.29000 144.835
60.46000 128.598
60.63000 138.033
60.80000 136.207
60.97000 138.711
61.14000 130.094
61.31000 135.633
61.48000 153.848
61.65000 299.316
61.82000 224.832
61.99000 147.606
62.16000 146.764
62.33000 142.656
62.50000 141.743
62.67000 143.111
62.84000 146.893
63.01000 146.326
63.18000 147.453
63.35000 160.196
63.52000 148.672
63.69000 141.075
63.86000 171.264
64.03000 165.857
64.20000 146.592
64.37000 172.918
64.54000 174.968
64.71000 174.179
64.88000 186.590
65.05000 205.533
65.22000 234.418
65.39000 345.833
65.56000 452.783
65.73000 733.152
65.90000 1282.806
66.07000 428.445
66.24000 332.712
66.41000 505.484
66.58000 365.093
66.75000 319.064
66.92000 362.614
67.09000 380.387
67.26000 404.676
67.43000 433.470
67.60000 467.247
67.77000 513.608
67.94000 564.518
68.11000 621.249
68.28000 655.102
68.45000 773.610
68.62000 1142.256
68.79000 2175.262
68.96000 13677.553
69.13000 75223.164
69.30000 46324.645
69.47000 11812.280
69.64000 1491.026
69.81000 966.010
69.98000 767.138
70.00000 758.532