File: XRD/XRD/30-09-2025 Dep 1/XY Data/BTO_Mapping_Theta2Theta_30-09-2025_001_54_6-691_-7-431.xy
20.00000 591.459
20.17000 579.298
20.34000 545.388
20.51000 565.177
20.68000 565.644
20.85000 549.755
21.02000 559.859
21.19000 549.088
21.36000 571.076
21.53000 538.125
21.70000 601.182
21.87000 722.305
22.04000 897.045
22.21000 686.639
22.38000 566.409
22.55000 533.783
22.72000 530.859
22.89000 522.988
23.06000 516.844
23.23000 520.107
23.40000 502.499
23.57000 524.850
23.74000 508.819
23.91000 503.185
24.08000 486.090
24.25000 490.156
24.42000 509.735
24.59000 481.885
24.76000 498.010
24.93000 474.580
25.10000 489.418
25.27000 477.646
25.44000 483.151
25.61000 471.812
25.78000 489.454
25.95000 477.928
26.12000 484.947
26.29000 451.256
26.46000 457.627
26.63000 478.451
26.80000 461.056
26.97000 456.499
27.14000 450.526
27.31000 452.686
27.48000 459.410
27.65000 446.754
27.82000 433.493
27.99000 435.759
28.16000 450.800
28.33000 447.192
28.50000 425.256
28.67000 426.042
28.84000 429.013
29.01000 423.410
29.18000 424.117
29.35000 437.396
29.52000 437.336
29.69000 408.152
29.86000 451.767
30.03000 460.339
30.20000 448.434
30.37000 446.130
30.54000 437.191
30.71000 475.952
30.88000 513.669
31.05000 762.664
31.22000 2417.895
31.39000 3871.154
31.56000 1528.672
31.73000 560.007
31.90000 454.886
32.07000 440.315
32.24000 412.708
32.41000 399.413
32.58000 401.243
32.75000 376.889
32.92000 459.482
33.09000 464.516
33.26000 359.433
33.43000 354.309
33.60000 347.915
33.77000 352.423
33.94000 360.910
34.11000 329.635
34.28000 346.331
34.45000 336.594
34.62000 344.605
34.79000 336.761
34.96000 328.470
35.13000 323.434
35.30000 315.265
35.47000 302.603
35.64000 297.899
35.81000 314.910
35.98000 300.517
36.15000 313.307
36.32000 309.459
36.49000 305.027
36.66000 315.486
36.83000 306.815
37.00000 307.947
37.17000 304.731
37.34000 299.590
37.51000 280.154
37.68000 289.069
37.85000 309.569
38.02000 283.746
38.19000 307.443
38.36000 349.626
38.53000 493.901
38.70000 733.876
38.87000 484.822
39.04000 317.401
39.21000 285.614
39.38000 291.344
39.55000 284.064
39.72000 268.808
39.89000 263.373
40.06000 267.092
40.23000 253.298
40.40000 258.960
40.57000 259.780
40.74000 261.614
40.91000 257.904
41.08000 243.200
41.25000 251.832
41.42000 248.583
41.59000 240.766
41.76000 256.269
41.93000 239.441
42.10000 247.726
42.27000 224.936
42.44000 225.347
42.61000 231.030
42.78000 226.578
42.95000 234.264
43.12000 228.065
43.29000 224.852
43.46000 240.227
43.63000 216.234
43.80000 213.217
43.97000 206.073
44.14000 231.828
44.31000 236.607
44.48000 232.792
44.65000 256.873
44.82000 328.488
44.99000 525.595
45.16000 433.708
45.33000 284.693
45.50000 240.849
45.67000 221.189
45.84000 211.700
46.01000 200.159
46.18000 203.847
46.35000 200.739
46.52000 201.619
46.69000 207.699
46.86000 201.395
47.03000 201.274
47.20000 195.443
47.37000 201.195
47.54000 197.405
47.71000 200.728
47.88000 191.680
48.05000 192.050
48.22000 187.208
48.39000 200.815
48.56000 184.367
48.73000 200.109
48.90000 187.706
49.07000 185.097
49.24000 179.431
49.41000 174.068
49.58000 177.788
49.75000 186.866
49.92000 186.235
50.09000 187.308
50.26000 197.931
50.43000 216.019
50.60000 290.357
50.77000 270.515
50.94000 205.970
51.11000 179.558
51.28000 184.274
51.45000 161.107
51.62000 179.187
51.79000 156.699
51.96000 157.675
52.13000 177.331
52.30000 161.530
52.47000 163.343
52.64000 156.695
52.81000 170.621
52.98000 171.992
53.15000 155.861
53.32000 171.545
53.49000 166.376
53.66000 164.229
53.83000 159.206
54.00000 156.435
54.17000 159.486
54.34000 162.517
54.51000 151.968
54.68000 156.193
54.85000 165.465
55.02000 153.307
55.19000 166.302
55.36000 178.362
55.53000 224.848
55.70000 409.721
55.87000 654.082
56.04000 528.222
56.21000 284.660
56.38000 188.269
56.55000 159.091
56.72000 162.799
56.89000 141.688
57.06000 148.653
57.23000 149.047
57.40000 144.910
57.57000 142.163
57.74000 148.391
57.91000 151.649
58.08000 132.781
58.25000 147.797
58.42000 144.639
58.59000 144.423
58.76000 148.023
58.93000 134.534
59.10000 139.702
59.27000 133.958
59.44000 134.449
59.61000 146.864
59.78000 131.959
59.95000 141.044
60.12000 135.615
60.29000 129.051
60.46000 136.801
60.63000 135.704
60.80000 134.870
60.97000 141.325
61.14000 144.323
61.31000 131.969
61.48000 149.589
61.65000 314.126
61.82000 223.297
61.99000 140.426
62.16000 139.068
62.33000 154.385
62.50000 138.645
62.67000 135.333
62.84000 142.977
63.01000 155.812
63.18000 144.736
63.35000 158.349
63.52000 148.089
63.69000 151.027
63.86000 146.673
64.03000 165.056
64.20000 159.780
64.37000 165.686
64.54000 176.136
64.71000 171.072
64.88000 192.021
65.05000 206.011
65.22000 253.795
65.39000 380.563
65.56000 472.694
65.73000 784.710
65.90000 1314.589
66.07000 406.023
66.24000 344.030
66.41000 493.575
66.58000 374.388
66.75000 343.713
66.92000 369.069
67.09000 386.820
67.26000 398.285
67.43000 440.385
67.60000 468.849
67.77000 514.920
67.94000 566.924
68.11000 610.852
68.28000 686.751
68.45000 824.549
68.62000 1151.569
68.79000 2319.897
68.96000 17336.818
69.13000 78287.531
69.30000 46221.047
69.47000 10705.335
69.64000 1459.243
69.81000 958.388
69.98000 810.377
70.00000 805.439