File: XRD/XRD/30-09-2025 Dep 1/XY Data/BTO_Mapping_Theta2Theta_30-09-2025_001_52_9-271_-28-532.xy
20.00000 570.329
20.17000 580.151
20.34000 597.450
20.51000 545.522
20.68000 578.848
20.85000 566.724
21.02000 579.959
21.19000 589.112
21.36000 579.313
21.53000 591.482
21.70000 708.198
21.87000 1030.123
22.04000 1016.852
22.21000 674.666
22.38000 572.664
22.55000 571.615
22.72000 523.369
22.89000 524.554
23.06000 522.281
23.23000 532.439
23.40000 534.979
23.57000 517.485
23.74000 531.868
23.91000 504.922
24.08000 508.688
24.25000 489.568
24.42000 519.457
24.59000 505.202
24.76000 519.141
24.93000 519.810
25.10000 508.683
25.27000 495.387
25.44000 474.680
25.61000 491.367
25.78000 474.850
25.95000 484.651
26.12000 509.341
26.29000 490.900
26.46000 486.725
26.63000 458.363
26.80000 472.194
26.97000 478.129
27.14000 475.887
27.31000 453.601
27.48000 465.949
27.65000 481.370
27.82000 451.587
27.99000 466.244
28.16000 473.097
28.33000 451.046
28.50000 451.196
28.67000 444.074
28.84000 445.988
29.01000 448.863
29.18000 427.712
29.35000 443.349
29.52000 444.835
29.69000 446.096
29.86000 458.177
30.03000 468.417
30.20000 452.028
30.37000 473.082
30.54000 480.335
30.71000 501.820
30.88000 599.414
31.05000 1628.249
31.22000 4015.660
31.39000 2673.365
31.56000 863.255
31.73000 535.589
31.90000 444.287
32.07000 420.781
32.24000 429.538
32.41000 420.580
32.58000 404.069
32.75000 381.934
32.92000 467.882
33.09000 473.833
33.26000 370.004
33.43000 366.478
33.60000 346.994
33.77000 338.896
33.94000 337.641
34.11000 334.560
34.28000 328.641
34.45000 341.193
34.62000 320.763
34.79000 334.927
34.96000 328.734
35.13000 325.560
35.30000 318.922
35.47000 313.913
35.64000 332.031
35.81000 330.190
35.98000 316.213
36.15000 312.773
36.32000 303.345
36.49000 311.525
36.66000 299.901
36.83000 302.499
37.00000 316.599
37.17000 299.856
37.34000 314.677
37.51000 297.805
37.68000 304.876
37.85000 320.730
38.02000 301.397
38.19000 319.774
38.36000 390.407
38.53000 488.722
38.70000 423.283
38.87000 338.544
39.04000 308.305
39.21000 287.585
39.38000 282.619
39.55000 279.946
39.72000 279.269
39.89000 266.726
40.06000 273.145
40.23000 268.532
40.40000 270.733
40.57000 254.515
40.74000 252.514
40.91000 253.285
41.08000 241.449
41.25000 257.620
41.42000 260.211
41.59000 256.907
41.76000 235.019
41.93000 250.936
42.10000 231.938
42.27000 244.109
42.44000 241.419
42.61000 255.664
42.78000 260.369
42.95000 246.696
43.12000 236.079
43.29000 235.944
43.46000 239.892
43.63000 239.713
43.80000 232.134
43.97000 247.551
44.14000 262.225
44.31000 246.332
44.48000 311.813
44.65000 483.808
44.82000 693.272
44.99000 643.737
45.16000 428.292
45.33000 294.635
45.50000 247.117
45.67000 224.634
45.84000 224.948
46.01000 218.148
46.18000 222.240
46.35000 213.330
46.52000 208.860
46.69000 209.950
46.86000 216.621
47.03000 205.588
47.20000 206.802
47.37000 206.174
47.54000 207.252
47.71000 185.394
47.88000 197.210
48.05000 190.597
48.22000 193.364
48.39000 191.250
48.56000 192.993
48.73000 193.892
48.90000 208.482
49.07000 183.073
49.24000 195.013
49.41000 175.310
49.58000 177.084
49.75000 201.497
49.92000 172.226
50.09000 194.126
50.26000 233.054
50.43000 264.238
50.60000 292.707
50.77000 231.493
50.94000 194.752
51.11000 176.990
51.28000 168.917
51.45000 177.177
51.62000 174.812
51.79000 174.215
51.96000 168.717
52.13000 165.783
52.30000 170.032
52.47000 167.804
52.64000 167.112
52.81000 158.924
52.98000 160.553
53.15000 156.068
53.32000 171.114
53.49000 160.386
53.66000 157.539
53.83000 156.344
54.00000 160.848
54.17000 161.615
54.34000 155.141
54.51000 164.546
54.68000 150.775
54.85000 173.186
55.02000 174.182
55.19000 178.869
55.36000 229.605
55.53000 394.380
55.70000 550.457
55.87000 453.524
56.04000 283.352
56.21000 204.860
56.38000 189.216
56.55000 170.421
56.72000 147.899
56.89000 162.895
57.06000 140.023
57.23000 145.452
57.40000 149.024
57.57000 146.795
57.74000 139.794
57.91000 147.976
58.08000 140.928
58.25000 144.752
58.42000 136.771
58.59000 148.158
58.76000 138.997
58.93000 140.195
59.10000 127.644
59.27000 134.478
59.44000 138.157
59.61000 146.655
59.78000 136.326
59.95000 132.119
60.12000 134.633
60.29000 142.720
60.46000 134.603
60.63000 143.776
60.80000 130.653
60.97000 140.115
61.14000 126.696
61.31000 139.762
61.48000 151.765
61.65000 330.342
61.82000 225.842
61.99000 138.475
62.16000 161.055
62.33000 141.823
62.50000 143.061
62.67000 142.588
62.84000 146.197
63.01000 145.336
63.18000 151.773
63.35000 160.266
63.52000 157.509
63.69000 153.957
63.86000 156.659
64.03000 156.359
64.20000 151.619
64.37000 171.385
64.54000 173.338
64.71000 190.348
64.88000 207.509
65.05000 284.098
65.22000 405.740
65.39000 418.602
65.56000 352.529
65.73000 763.332
65.90000 1386.021
66.07000 421.329
66.24000 354.596
66.41000 545.321
66.58000 374.359
66.75000 352.616
66.92000 355.923
67.09000 387.945
67.26000 425.072
67.43000 464.799
67.60000 494.630
67.77000 534.536
67.94000 556.268
68.11000 620.403
68.28000 728.395
68.45000 841.445
68.62000 1246.379
68.79000 2456.666
68.96000 20400.961
69.13000 83552.109
69.30000 49540.020
69.47000 11483.870
69.64000 1519.114
69.81000 1022.962
69.98000 793.734
70.00000 770.179