File: XRD/XRD/30-09-2025 Dep 1/XY Data/BTO_Mapping_Theta2Theta_30-09-2025_001_02_10-000_0-000.xy
20.00000 564.737
20.17000 572.953
20.34000 552.663
20.51000 547.415
20.68000 555.398
20.85000 561.345
21.02000 539.994
21.19000 555.045
21.36000 561.109
21.53000 551.949
21.70000 574.924
21.87000 684.951
22.04000 867.005
22.21000 677.573
22.38000 572.890
22.55000 542.143
22.72000 523.253
22.89000 517.944
23.06000 516.469
23.23000 518.381
23.40000 492.399
23.57000 505.302
23.74000 494.615
23.91000 511.878
24.08000 490.425
24.25000 496.951
24.42000 493.202
24.59000 507.833
24.76000 501.771
24.93000 485.858
25.10000 478.859
25.27000 490.901
25.44000 459.250
25.61000 480.521
25.78000 472.759
25.95000 470.380
26.12000 488.046
26.29000 446.720
26.46000 454.888
26.63000 440.802
26.80000 462.457
26.97000 445.445
27.14000 435.427
27.31000 464.273
27.48000 448.732
27.65000 450.699
27.82000 451.524
27.99000 459.149
28.16000 444.794
28.33000 455.549
28.50000 428.947
28.67000 433.802
28.84000 421.496
29.01000 411.721
29.18000 421.295
29.35000 408.594
29.52000 409.646
29.69000 389.630
29.86000 432.288
30.03000 468.404
30.20000 452.862
30.37000 435.879
30.54000 438.839
30.71000 444.371
30.88000 497.657
31.05000 723.812
31.22000 2257.322
31.39000 3753.632
31.56000 1606.300
31.73000 553.919
31.90000 455.391
32.07000 421.550
32.24000 404.122
32.41000 410.948
32.58000 377.330
32.75000 387.584
32.92000 434.010
33.09000 437.490
33.26000 355.970
33.43000 356.848
33.60000 350.687
33.77000 335.952
33.94000 355.796
34.11000 346.019
34.28000 321.866
34.45000 346.865
34.62000 332.818
34.79000 331.390
34.96000 325.734
35.13000 327.020
35.30000 313.519
35.47000 322.086
35.64000 312.767
35.81000 310.652
35.98000 317.382
36.15000 303.856
36.32000 303.191
36.49000 307.588
36.66000 290.325
36.83000 305.609
37.00000 299.603
37.17000 301.584
37.34000 313.526
37.51000 289.695
37.68000 294.430
37.85000 287.831
38.02000 295.407
38.19000 317.354
38.36000 341.823
38.53000 521.104
38.70000 807.681
38.87000 545.673
39.04000 292.768
39.21000 284.149
39.38000 282.429
39.55000 268.750
39.72000 275.946
39.89000 264.752
40.06000 266.347
40.23000 248.017
40.40000 268.257
40.57000 247.598
40.74000 268.792
40.91000 249.861
41.08000 243.031
41.25000 251.899
41.42000 244.479
41.59000 241.424
41.76000 244.366
41.93000 241.296
42.10000 237.947
42.27000 245.403
42.44000 222.899
42.61000 232.276
42.78000 240.288
42.95000 233.094
43.12000 233.885
43.29000 223.357
43.46000 227.254
43.63000 219.469
43.80000 216.006
43.97000 222.837
44.14000 224.050
44.31000 228.088
44.48000 226.130
44.65000 246.655
44.82000 310.911
44.99000 466.508
45.16000 447.556
45.33000 319.061
45.50000 238.120
45.67000 226.638
45.84000 219.784
46.01000 214.057
46.18000 206.330
46.35000 210.338
46.52000 206.282
46.69000 193.047
46.86000 199.863
47.03000 194.397
47.20000 206.452
47.37000 215.771
47.54000 187.597
47.71000 200.930
47.88000 188.641
48.05000 178.619
48.22000 186.592
48.39000 193.089
48.56000 192.726
48.73000 180.136
48.90000 174.631
49.07000 185.347
49.24000 172.739
49.41000 182.314
49.58000 193.031
49.75000 180.319
49.92000 174.517
50.09000 183.139
50.26000 195.156
50.43000 198.004
50.60000 280.478
50.77000 279.501
50.94000 208.742
51.11000 178.660
51.28000 170.520
51.45000 168.772
51.62000 159.361
51.79000 164.680
51.96000 161.256
52.13000 169.767
52.30000 151.701
52.47000 158.610
52.64000 170.712
52.81000 170.621
52.98000 163.357
53.15000 160.951
53.32000 162.990
53.49000 172.685
53.66000 160.782
53.83000 158.397
54.00000 155.821
54.17000 152.923
54.34000 159.189
54.51000 150.340
54.68000 156.371
54.85000 151.891
55.02000 170.342
55.19000 160.208
55.36000 172.567
55.53000 216.988
55.70000 351.253
55.87000 628.145
56.04000 575.100
56.21000 303.152
56.38000 195.540
56.55000 162.877
56.72000 160.943
56.89000 151.000
57.06000 142.288
57.23000 140.368
57.40000 143.814
57.57000 149.457
57.74000 141.905
57.91000 141.969
58.08000 136.916
58.25000 138.998
58.42000 143.494
58.59000 140.121
58.76000 129.979
58.93000 137.445
59.10000 133.564
59.27000 136.641
59.44000 130.037
59.61000 135.625
59.78000 125.602
59.95000 134.960
60.12000 132.764
60.29000 132.082
60.46000 131.612
60.63000 140.711
60.80000 139.243
60.97000 125.499
61.14000 139.491
61.31000 144.471
61.48000 150.885
61.65000 304.536
61.82000 215.123
61.99000 149.091
62.16000 146.567
62.33000 150.886
62.50000 155.058
62.67000 149.276
62.84000 145.032
63.01000 157.327
63.18000 146.107
63.35000 152.105
63.52000 149.228
63.69000 151.928
63.86000 161.084
64.03000 165.593
64.20000 165.112
64.37000 164.754
64.54000 177.710
64.71000 180.147
64.88000 179.892
65.05000 215.535
65.22000 274.193
65.39000 365.704
65.56000 456.269
65.73000 794.309
65.90000 1270.023
66.07000 390.644
66.24000 338.983
66.41000 501.388
66.58000 353.952
66.75000 335.101
66.92000 361.565
67.09000 365.582
67.26000 399.358
67.43000 433.482
67.60000 486.932
67.77000 525.228
67.94000 560.704
68.11000 605.240
68.28000 681.188
68.45000 819.047
68.62000 1166.251
68.79000 2273.590
68.96000 17564.549
69.13000 76067.859
69.30000 44228.922
69.47000 9743.422
69.64000 1467.739
69.81000 939.438
69.98000 774.878
70.00000 801.790