File: XRD/XRD/30-09-2025 Dep 1/XY Data/BTO_Mapping_Theta2Theta_30-09-2025_001_12_20-074_22-294.xy
20.00000 556.393
20.17000 566.548
20.34000 544.336
20.51000 589.912
20.68000 571.068
20.85000 576.645
21.02000 549.119
21.19000 555.803
21.36000 540.516
21.53000 543.276
21.70000 533.603
21.87000 595.125
22.04000 667.416
22.21000 595.709
22.38000 550.536
22.55000 540.643
22.72000 524.165
22.89000 538.834
23.06000 534.483
23.23000 532.783
23.40000 516.150
23.57000 511.426
23.74000 501.267
23.91000 523.895
24.08000 513.880
24.25000 495.689
24.42000 511.950
24.59000 512.622
24.76000 475.396
24.93000 475.982
25.10000 471.732
25.27000 479.997
25.44000 477.942
25.61000 473.097
25.78000 457.688
25.95000 444.224
26.12000 463.206
26.29000 449.382
26.46000 456.475
26.63000 454.164
26.80000 457.730
26.97000 443.586
27.14000 422.387
27.31000 441.045
27.48000 436.544
27.65000 444.827
27.82000 434.462
27.99000 422.496
28.16000 428.673
28.33000 452.700
28.50000 425.841
28.67000 430.393
28.84000 417.946
29.01000 412.033
29.18000 421.087
29.35000 409.179
29.52000 408.316
29.69000 431.396
29.86000 428.757
30.03000 438.066
30.20000 439.684
30.37000 404.390
30.54000 418.662
30.71000 428.819
30.88000 456.370
31.05000 586.985
31.22000 1607.767
31.39000 3061.882
31.56000 1615.334
31.73000 584.732
31.90000 433.925
32.07000 417.428
32.24000 414.637
32.41000 389.460
32.58000 368.727
32.75000 364.120
32.92000 378.975
33.09000 361.813
33.26000 362.905
33.43000 334.307
33.60000 328.058
33.77000 343.485
33.94000 329.997
34.11000 329.987
34.28000 353.082
34.45000 344.478
34.62000 358.451
34.79000 338.251
34.96000 330.050
35.13000 326.644
35.30000 306.491
35.47000 311.504
35.64000 300.226
35.81000 311.522
35.98000 303.823
36.15000 302.352
36.32000 294.379
36.49000 302.316
36.66000 297.737
36.83000 302.040
37.00000 314.292
37.17000 304.941
37.34000 288.594
37.51000 283.019
37.68000 288.497
37.85000 295.017
38.02000 291.304
38.19000 304.375
38.36000 330.693
38.53000 525.565
38.70000 1016.288
38.87000 799.994
39.04000 357.053
39.21000 280.731
39.38000 280.034
39.55000 287.851
39.72000 269.674
39.89000 260.252
40.06000 256.551
40.23000 255.874
40.40000 257.227
40.57000 247.278
40.74000 239.931
40.91000 245.686
41.08000 240.227
41.25000 250.605
41.42000 238.806
41.59000 242.703
41.76000 224.742
41.93000 238.661
42.10000 247.006
42.27000 232.684
42.44000 234.837
42.61000 225.339
42.78000 235.130
42.95000 233.945
43.12000 221.238
43.29000 230.312
43.46000 215.780
43.63000 223.794
43.80000 212.183
43.97000 227.102
44.14000 225.249
44.31000 225.597
44.48000 218.988
44.65000 234.764
44.82000 254.673
44.99000 278.146
45.16000 292.864
45.33000 265.590
45.50000 236.085
45.67000 222.274
45.84000 203.190
46.01000 207.393
46.18000 211.983
46.35000 201.060
46.52000 206.163
46.69000 204.356
46.86000 213.132
47.03000 196.094
47.20000 199.695
47.37000 200.171
47.54000 185.754
47.71000 188.887
47.88000 185.452
48.05000 184.934
48.22000 195.511
48.39000 190.032
48.56000 184.683
48.73000 177.376
48.90000 188.404
49.07000 190.748
49.24000 178.507
49.41000 180.719
49.58000 176.698
49.75000 175.186
49.92000 186.312
50.09000 173.617
50.26000 184.223
50.43000 190.483
50.60000 220.281
50.77000 255.789
50.94000 208.322
51.11000 182.636
51.28000 160.895
51.45000 168.063
51.62000 162.899
51.79000 161.110
51.96000 168.941
52.13000 155.357
52.30000 160.428
52.47000 153.972
52.64000 166.833
52.81000 152.738
52.98000 154.930
53.15000 165.625
53.32000 157.195
53.49000 160.905
53.66000 153.513
53.83000 167.945
54.00000 159.936
54.17000 160.349
54.34000 162.085
54.51000 164.661
54.68000 162.413
54.85000 156.635
55.02000 159.053
55.19000 160.535
55.36000 169.663
55.53000 201.769
55.70000 297.466
55.87000 566.013
56.04000 600.171
56.21000 331.702
56.38000 189.417
56.55000 158.895
56.72000 154.942
56.89000 156.645
57.06000 137.635
57.23000 149.787
57.40000 145.754
57.57000 137.370
57.74000 134.459
57.91000 153.332
58.08000 141.705
58.25000 134.510
58.42000 144.460
58.59000 140.676
58.76000 142.432
58.93000 135.824
59.10000 130.487
59.27000 135.150
59.44000 128.660
59.61000 129.823
59.78000 125.682
59.95000 135.690
60.12000 138.878
60.29000 129.655
60.46000 138.854
60.63000 137.800
60.80000 138.122
60.97000 131.483
61.14000 137.219
61.31000 135.643
61.48000 141.620
61.65000 242.093
61.82000 193.247
61.99000 145.395
62.16000 136.964
62.33000 149.109
62.50000 144.334
62.67000 142.403
62.84000 147.817
63.01000 141.449
63.18000 147.492
63.35000 157.273
63.52000 137.661
63.69000 152.707
63.86000 154.069
64.03000 158.504
64.20000 163.683
64.37000 162.090
64.54000 165.038
64.71000 170.689
64.88000 182.848
65.05000 178.644
65.22000 228.506
65.39000 282.413
65.56000 367.455
65.73000 601.425
65.90000 888.857
66.07000 329.420
66.24000 290.488
66.41000 397.186
66.58000 312.073
66.75000 295.088
66.92000 318.363
67.09000 329.381
67.26000 331.228
67.43000 389.852
67.60000 404.477
67.77000 442.457
67.94000 465.629
68.11000 526.796
68.28000 569.480
68.45000 670.120
68.62000 948.102
68.79000 1607.754
68.96000 11080.354
69.13000 47594.844
69.30000 27358.801
69.47000 5954.277
69.64000 1079.809
69.81000 778.257
69.98000 663.081
70.00000 628.583