File: XRD/XRD/30-09-2025 Dep 1/XY Data/BTO_Mapping_Theta2Theta_30-09-2025_001_42_-5-000_-8-660.xy
20.00000 569.223
20.17000 582.326
20.34000 553.439
20.51000 573.008
20.68000 570.351
20.85000 570.379
21.02000 552.216
21.19000 552.579
21.36000 540.758
21.53000 551.111
21.70000 540.361
21.87000 704.480
22.04000 876.846
22.21000 709.164
22.38000 565.932
22.55000 558.584
22.72000 539.080
22.89000 543.111
23.06000 539.229
23.23000 501.236
23.40000 513.851
23.57000 526.032
23.74000 500.274
23.91000 515.207
24.08000 492.765
24.25000 492.766
24.42000 514.957
24.59000 494.626
24.76000 495.586
24.93000 494.645
25.10000 494.805
25.27000 473.417
25.44000 478.646
25.61000 498.386
25.78000 482.134
25.95000 472.981
26.12000 483.503
26.29000 470.689
26.46000 448.161
26.63000 460.098
26.80000 451.408
26.97000 460.462
27.14000 461.139
27.31000 440.656
27.48000 431.996
27.65000 450.299
27.82000 432.063
27.99000 446.140
28.16000 427.664
28.33000 424.652
28.50000 428.527
28.67000 426.740
28.84000 420.012
29.01000 425.453
29.18000 422.636
29.35000 420.209
29.52000 433.532
29.69000 423.002
29.86000 436.353
30.03000 462.905
30.20000 456.728
30.37000 454.725
30.54000 441.135
30.71000 476.970
30.88000 475.266
31.05000 709.564
31.22000 2171.334
31.39000 3803.015
31.56000 1618.695
31.73000 565.622
31.90000 461.592
32.07000 430.164
32.24000 422.485
32.41000 395.090
32.58000 378.320
32.75000 388.719
32.92000 431.651
33.09000 463.815
33.26000 364.814
33.43000 343.392
33.60000 348.926
33.77000 337.381
33.94000 353.817
34.11000 343.275
34.28000 324.703
34.45000 344.783
34.62000 326.996
34.79000 331.238
34.96000 313.862
35.13000 314.514
35.30000 308.801
35.47000 316.328
35.64000 311.062
35.81000 323.420
35.98000 324.858
36.15000 320.822
36.32000 306.008
36.49000 300.968
36.66000 304.822
36.83000 315.263
37.00000 324.548
37.17000 310.084
37.34000 297.583
37.51000 310.444
37.68000 306.234
37.85000 295.382
38.02000 297.511
38.19000 325.863
38.36000 332.279
38.53000 485.626
38.70000 734.266
38.87000 538.305
39.04000 318.659
39.21000 291.829
39.38000 278.900
39.55000 269.368
39.72000 281.285
39.89000 269.491
40.06000 262.658
40.23000 264.937
40.40000 254.038
40.57000 261.140
40.74000 250.910
40.91000 248.014
41.08000 245.361
41.25000 249.083
41.42000 241.097
41.59000 254.235
41.76000 264.847
41.93000 244.422
42.10000 234.339
42.27000 233.195
42.44000 237.971
42.61000 230.968
42.78000 236.340
42.95000 231.297
43.12000 237.159
43.29000 222.756
43.46000 221.765
43.63000 224.552
43.80000 234.939
43.97000 229.315
44.14000 226.268
44.31000 229.556
44.48000 241.097
44.65000 261.195
44.82000 326.655
44.99000 504.898
45.16000 473.603
45.33000 312.464
45.50000 239.401
45.67000 221.469
45.84000 207.520
46.01000 214.764
46.18000 213.865
46.35000 210.170
46.52000 213.652
46.69000 219.430
46.86000 199.614
47.03000 193.844
47.20000 192.578
47.37000 188.233
47.54000 191.992
47.71000 181.699
47.88000 189.561
48.05000 194.293
48.22000 190.998
48.39000 194.524
48.56000 175.989
48.73000 185.403
48.90000 184.367
49.07000 181.069
49.24000 186.850
49.41000 180.137
49.58000 175.582
49.75000 173.023
49.92000 166.143
50.09000 184.412
50.26000 198.845
50.43000 211.048
50.60000 274.585
50.77000 282.661
50.94000 209.630
51.11000 176.557
51.28000 165.479
51.45000 173.961
51.62000 166.462
51.79000 170.251
51.96000 177.764
52.13000 157.975
52.30000 158.317
52.47000 163.566
52.64000 159.167
52.81000 164.180
52.98000 151.940
53.15000 160.597
53.32000 155.001
53.49000 157.127
53.66000 154.447
53.83000 158.833
54.00000 156.564
54.17000 146.816
54.34000 154.671
54.51000 155.080
54.68000 170.012
54.85000 177.348
55.02000 162.914
55.19000 170.566
55.36000 179.960
55.53000 216.703
55.70000 352.462
55.87000 619.002
56.04000 544.585
56.21000 298.969
56.38000 184.498
56.55000 165.074
56.72000 160.315
56.89000 146.409
57.06000 144.009
57.23000 146.028
57.40000 149.127
57.57000 147.663
57.74000 148.214
57.91000 140.141
58.08000 140.861
58.25000 139.781
58.42000 142.910
58.59000 143.110
58.76000 134.535
58.93000 136.880
59.10000 137.186
59.27000 133.647
59.44000 138.492
59.61000 138.101
59.78000 134.640
59.95000 140.910
60.12000 124.715
60.29000 132.812
60.46000 130.252
60.63000 144.855
60.80000 138.693
60.97000 147.468
61.14000 146.731
61.31000 140.791
61.48000 155.420
61.65000 322.696
61.82000 229.105
61.99000 141.878
62.16000 145.301
62.33000 147.385
62.50000 156.088
62.67000 149.328
62.84000 140.482
63.01000 153.660
63.18000 145.207
63.35000 153.127
63.52000 149.019
63.69000 151.926
63.86000 153.045
64.03000 160.519
64.20000 158.294
64.37000 174.929
64.54000 151.556
64.71000 178.990
64.88000 196.923
65.05000 198.369
65.22000 257.031
65.39000 370.578
65.56000 461.764
65.73000 786.639
65.90000 1293.612
66.07000 412.016
66.24000 331.365
66.41000 502.480
66.58000 375.583
66.75000 334.210
66.92000 352.391
67.09000 395.558
67.26000 373.724
67.43000 429.859
67.60000 469.134
67.77000 496.514
67.94000 574.071
68.11000 604.268
68.28000 681.755
68.45000 805.026
68.62000 1177.279
68.79000 2287.249
68.96000 14754.014
69.13000 76657.734
69.30000 46880.117
69.47000 11706.647
69.64000 1490.298
69.81000 973.554
69.98000 790.493
70.00000 759.072