File: XRD/25-09-2025/XY Data/BTO_Mapping_Theta2Theta_25-09-2025_001_08_27-406_12-202.xy
20.00000 559.193
20.17000 546.560
20.34000 569.078
20.51000 558.842
20.68000 542.940
20.85000 567.406
21.02000 536.018
21.19000 544.614
21.36000 540.882
21.53000 520.636
21.70000 562.787
21.87000 577.782
22.04000 591.752
22.21000 613.145
22.38000 567.680
22.55000 538.315
22.72000 502.736
22.89000 494.630
23.06000 506.598
23.23000 515.578
23.40000 510.951
23.57000 492.587
23.74000 497.050
23.91000 508.423
24.08000 499.749
24.25000 482.719
24.42000 491.381
24.59000 495.391
24.76000 471.111
24.93000 488.659
25.10000 464.676
25.27000 469.572
25.44000 476.058
25.61000 463.616
25.78000 456.107
25.95000 428.907
26.12000 431.471
26.29000 461.094
26.46000 453.523
26.63000 437.166
26.80000 458.982
26.97000 435.369
27.14000 416.771
27.31000 418.306
27.48000 451.199
27.65000 423.429
27.82000 426.764
27.99000 418.468
28.16000 427.171
28.33000 411.625
28.50000 419.066
28.67000 418.855
28.84000 400.971
29.01000 404.677
29.18000 411.871
29.35000 420.808
29.52000 399.363
29.69000 393.053
29.86000 424.369
30.03000 416.661
30.20000 421.227
30.37000 392.412
30.54000 418.604
30.71000 411.587
30.88000 447.464
31.05000 527.537
31.22000 862.796
31.39000 1303.305
31.56000 1023.061
31.73000 618.810
31.90000 457.335
32.07000 422.821
32.24000 387.064
32.41000 380.349
32.58000 400.383
32.75000 349.444
32.92000 386.850
33.09000 342.666
33.26000 336.432
33.43000 343.014
33.60000 348.328
33.77000 341.999
33.94000 312.865
34.11000 328.294
34.28000 319.837
34.45000 317.649
34.62000 302.141
34.79000 322.025
34.96000 314.325
35.13000 314.386
35.30000 310.738
35.47000 295.734
35.64000 304.595
35.81000 296.519
35.98000 298.948
36.15000 303.674
36.32000 302.558
36.49000 295.282
36.66000 307.735
36.83000 279.526
37.00000 293.641
37.17000 309.341
37.34000 299.718
37.51000 290.875
37.68000 289.071
37.85000 274.460
38.02000 286.319
38.19000 285.499
38.36000 324.556
38.53000 439.938
38.70000 659.500
38.87000 497.798
39.04000 314.580
39.21000 284.423
39.38000 278.387
39.55000 262.735
39.72000 263.135
39.89000 252.618
40.06000 247.637
40.23000 258.694
40.40000 253.893
40.57000 254.273
40.74000 248.464
40.91000 241.720
41.08000 241.326
41.25000 242.595
41.42000 235.765
41.59000 235.205
41.76000 243.982
41.93000 228.147
42.10000 225.146
42.27000 239.833
42.44000 235.701
42.61000 234.958
42.78000 220.943
42.95000 228.436
43.12000 229.540
43.29000 217.890
43.46000 225.723
43.63000 225.693
43.80000 215.360
43.97000 220.732
44.14000 219.993
44.31000 214.312
44.48000 223.379
44.65000 215.391
44.82000 242.454
44.99000 232.181
45.16000 247.203
45.33000 250.592
45.50000 260.333
45.67000 236.260
45.84000 212.830
46.01000 224.804
46.18000 197.681
46.35000 197.165
46.52000 198.953
46.69000 204.239
46.86000 196.215
47.03000 195.138
47.20000 188.153
47.37000 188.374
47.54000 186.445
47.71000 183.498
47.88000 185.651
48.05000 188.259
48.22000 190.957
48.39000 177.699
48.56000 182.520
48.73000 178.379
48.90000 168.762
49.07000 178.044
49.24000 177.901
49.41000 170.195
49.58000 180.165
49.75000 169.930
49.92000 179.192
50.09000 174.688
50.26000 167.243
50.43000 176.322
50.60000 187.064
50.77000 185.044
50.94000 160.339
51.11000 176.363
51.28000 167.869
51.45000 157.062
51.62000 162.570
51.79000 176.337
51.96000 172.084
52.13000 168.388
52.30000 159.766
52.47000 165.338
52.64000 155.365
52.81000 157.389
52.98000 155.305
53.15000 160.265
53.32000 158.057
53.49000 153.569
53.66000 157.055
53.83000 148.660
54.00000 153.057
54.17000 151.687
54.34000 156.252
54.51000 153.481
54.68000 153.268
54.85000 152.059
55.02000 144.556
55.19000 166.289
55.36000 168.929
55.53000 192.720
55.70000 232.797
55.87000 301.553
56.04000 304.637
56.21000 225.698
56.38000 195.644
56.55000 162.451
56.72000 150.461
56.89000 148.357
57.06000 145.267
57.23000 146.351
57.40000 135.342
57.57000 143.742
57.74000 142.090
57.91000 138.662
58.08000 137.191
58.25000 136.517
58.42000 144.229
58.59000 136.187
58.76000 137.313
58.93000 136.654
59.10000 135.176
59.27000 131.949
59.44000 132.411
59.61000 134.125
59.78000 129.851
59.95000 139.788
60.12000 134.256
60.29000 130.687
60.46000 126.106
60.63000 134.953
60.80000 132.718
60.97000 133.689
61.14000 145.441
61.31000 136.533
61.48000 150.091
61.65000 264.734
61.82000 195.777
61.99000 138.071
62.16000 137.938
62.33000 141.076
62.50000 132.947
62.67000 136.539
62.84000 145.152
63.01000 149.236
63.18000 148.468
63.35000 143.590
63.52000 151.972
63.69000 149.697
63.86000 156.076
64.03000 157.976
64.20000 160.837
64.37000 164.492
64.54000 172.184
64.71000 170.774
64.88000 182.546
65.05000 209.061
65.22000 212.490
65.39000 250.281
65.56000 277.151
65.73000 540.091
65.90000 1024.181
66.07000 386.723
66.24000 323.771
66.41000 453.569
66.58000 342.624
66.75000 321.794
66.92000 319.227
67.09000 357.210
67.26000 382.296
67.43000 421.143
67.60000 448.362
67.77000 466.606
67.94000 512.162
68.11000 575.380
68.28000 623.319
68.45000 722.909
68.62000 980.013
68.79000 1793.932
68.96000 9577.350
69.13000 53490.473
69.30000 32719.359
69.47000 8644.699
69.64000 1251.830
69.81000 830.746
69.98000 683.772
70.00000 671.855