File: XRD/25-09-2025/XY Data/BTO_Mapping_Theta2Theta_25-09-2025_001_19_-2-091_19-890.xy
20.00000 549.181
20.17000 572.323
20.34000 560.267
20.51000 547.544
20.68000 560.965
20.85000 535.787
21.02000 545.249
21.19000 530.284
21.36000 522.000
21.53000 551.712
21.70000 540.666
21.87000 580.460
22.04000 612.021
22.21000 615.022
22.38000 584.021
22.55000 552.170
22.72000 509.402
22.89000 517.238
23.06000 527.499
23.23000 483.772
23.40000 501.933
23.57000 495.374
23.74000 497.992
23.91000 480.214
24.08000 488.660
24.25000 486.385
24.42000 473.076
24.59000 481.086
24.76000 494.598
24.93000 451.413
25.10000 467.299
25.27000 461.769
25.44000 453.535
25.61000 442.268
25.78000 448.868
25.95000 448.669
26.12000 447.889
26.29000 451.106
26.46000 445.675
26.63000 438.358
26.80000 442.191
26.97000 428.517
27.14000 436.680
27.31000 437.831
27.48000 416.533
27.65000 443.447
27.82000 440.725
27.99000 456.518
28.16000 432.145
28.33000 410.336
28.50000 417.413
28.67000 414.916
28.84000 411.983
29.01000 390.233
29.18000 403.088
29.35000 403.007
29.52000 401.674
29.69000 394.564
29.86000 400.311
30.03000 413.892
30.20000 414.016
30.37000 412.791
30.54000 401.066
30.71000 397.216
30.88000 425.471
31.05000 505.819
31.22000 899.667
31.39000 1341.514
31.56000 967.536
31.73000 566.435
31.90000 447.428
32.07000 421.564
32.24000 399.521
32.41000 365.606
32.58000 381.492
32.75000 353.241
32.92000 364.557
33.09000 361.244
33.26000 336.623
33.43000 338.219
33.60000 327.440
33.77000 317.073
33.94000 335.444
34.11000 308.860
34.28000 322.245
34.45000 312.470
34.62000 314.596
34.79000 327.542
34.96000 319.081
35.13000 300.246
35.30000 312.293
35.47000 308.628
35.64000 305.813
35.81000 306.293
35.98000 304.887
36.15000 289.439
36.32000 299.471
36.49000 288.715
36.66000 290.842
36.83000 301.812
37.00000 303.644
37.17000 289.157
37.34000 282.545
37.51000 287.224
37.68000 281.751
37.85000 284.760
38.02000 283.420
38.19000 293.105
38.36000 312.308
38.53000 482.086
38.70000 775.768
38.87000 626.581
39.04000 347.892
39.21000 285.894
39.38000 288.892
39.55000 271.646
39.72000 255.125
39.89000 251.287
40.06000 258.279
40.23000 249.128
40.40000 253.280
40.57000 243.371
40.74000 244.480
40.91000 238.665
41.08000 246.373
41.25000 248.113
41.42000 246.721
41.59000 233.553
41.76000 230.221
41.93000 242.157
42.10000 225.899
42.27000 239.347
42.44000 225.502
42.61000 234.552
42.78000 220.886
42.95000 220.194
43.12000 224.034
43.29000 241.174
43.46000 214.107
43.63000 225.570
43.80000 228.628
43.97000 218.202
44.14000 219.521
44.31000 215.786
44.48000 218.193
44.65000 226.689
44.82000 229.907
44.99000 244.379
45.16000 261.354
45.33000 262.043
45.50000 265.509
45.67000 244.582
45.84000 221.170
46.01000 231.508
46.18000 209.923
46.35000 190.865
46.52000 196.672
46.69000 195.424
46.86000 193.779
47.03000 186.163
47.20000 191.980
47.37000 190.264
47.54000 198.645
47.71000 193.167
47.88000 180.095
48.05000 184.862
48.22000 189.909
48.39000 180.258
48.56000 182.275
48.73000 183.276
48.90000 178.509
49.07000 177.542
49.24000 176.104
49.41000 184.875
49.58000 178.151
49.75000 162.274
49.92000 166.394
50.09000 165.265
50.26000 176.254
50.43000 186.721
50.60000 191.923
50.77000 201.458
50.94000 175.548
51.11000 173.570
51.28000 174.833
51.45000 154.904
51.62000 160.130
51.79000 161.368
51.96000 149.708
52.13000 168.476
52.30000 156.397
52.47000 163.414
52.64000 162.095
52.81000 160.684
52.98000 146.367
53.15000 147.308
53.32000 157.573
53.49000 155.864
53.66000 145.486
53.83000 158.060
54.00000 158.594
54.17000 156.380
54.34000 156.793
54.51000 148.363
54.68000 150.859
54.85000 144.804
55.02000 155.029
55.19000 145.716
55.36000 161.111
55.53000 196.226
55.70000 276.249
55.87000 419.363
56.04000 453.609
56.21000 328.272
56.38000 218.615
56.55000 168.012
56.72000 150.436
56.89000 145.863
57.06000 144.537
57.23000 135.227
57.40000 130.653
57.57000 143.153
57.74000 146.707
57.91000 136.496
58.08000 139.518
58.25000 140.733
58.42000 138.514
58.59000 123.283
58.76000 129.902
58.93000 140.124
59.10000 127.303
59.27000 136.905
59.44000 123.057
59.61000 129.235
59.78000 130.214
59.95000 131.350
60.12000 134.126
60.29000 136.220
60.46000 133.816
60.63000 129.557
60.80000 134.900
60.97000 129.559
61.14000 133.814
61.31000 131.070
61.48000 142.167
61.65000 264.589
61.82000 199.985
61.99000 144.120
62.16000 142.896
62.33000 134.745
62.50000 144.746
62.67000 141.617
62.84000 138.760
63.01000 147.548
63.18000 141.891
63.35000 153.020
63.52000 152.913
63.69000 159.705
63.86000 160.625
64.03000 158.916
64.20000 160.636
64.37000 167.778
64.54000 171.730
64.71000 173.911
64.88000 183.187
65.05000 181.881
65.22000 201.493
65.39000 242.291
65.56000 277.796
65.73000 596.215
65.90000 1054.537
66.07000 369.915
66.24000 320.037
66.41000 429.515
66.58000 356.455
66.75000 319.020
66.92000 313.188
67.09000 354.970
67.26000 385.085
67.43000 410.095
67.60000 441.027
67.77000 491.722
67.94000 517.626
68.11000 557.296
68.28000 621.483
68.45000 745.884
68.62000 1016.784
68.79000 1964.272
68.96000 11861.562
69.13000 54426.672
69.30000 31903.834
69.47000 7706.101
69.64000 1218.505
69.81000 812.158
69.98000 690.351
70.00000 684.245