File: XRD/25-09-2025/XY Data/BTO_Mapping_Theta2Theta_25-09-2025_001_29_-32-361_23-511.xy
20.00000 550.790
20.17000 545.637
20.34000 556.412
20.51000 535.448
20.68000 553.809
20.85000 564.269
21.02000 539.927
21.19000 565.705
21.36000 543.419
21.53000 546.520
21.70000 593.594
21.87000 712.083
22.04000 811.442
22.21000 716.335
22.38000 628.236
22.55000 542.575
22.72000 519.801
22.89000 524.833
23.06000 516.565
23.23000 482.204
23.40000 508.596
23.57000 500.522
23.74000 494.030
23.91000 506.271
24.08000 491.515
24.25000 488.346
24.42000 476.041
24.59000 455.105
24.76000 477.618
24.93000 474.700
25.10000 468.257
25.27000 461.675
25.44000 478.666
25.61000 457.608
25.78000 459.276
25.95000 465.836
26.12000 458.568
26.29000 445.571
26.46000 458.582
26.63000 438.136
26.80000 445.761
26.97000 423.005
27.14000 427.684
27.31000 423.921
27.48000 425.150
27.65000 436.515
27.82000 427.223
27.99000 409.865
28.16000 418.487
28.33000 414.083
28.50000 421.249
28.67000 419.484
28.84000 413.109
29.01000 415.157
29.18000 395.884
29.35000 413.307
29.52000 403.180
29.69000 405.136
29.86000 406.397
30.03000 429.958
30.20000 425.734
30.37000 408.121
30.54000 411.210
30.71000 419.267
30.88000 468.711
31.05000 676.821
31.22000 1513.211
31.39000 2312.344
31.56000 1510.294
31.73000 742.350
31.90000 482.947
32.07000 417.495
32.24000 395.998
32.41000 390.891
32.58000 356.395
32.75000 374.096
32.92000 392.129
33.09000 354.051
33.26000 340.679
33.43000 334.766
33.60000 331.473
33.77000 322.669
33.94000 336.481
34.11000 326.544
34.28000 319.410
34.45000 328.884
34.62000 317.801
34.79000 311.501
34.96000 317.968
35.13000 314.731
35.30000 310.151
35.47000 321.912
35.64000 299.848
35.81000 298.473
35.98000 295.261
36.15000 306.617
36.32000 292.900
36.49000 299.896
36.66000 290.518
36.83000 295.305
37.00000 288.438
37.17000 300.377
37.34000 293.918
37.51000 282.882
37.68000 276.520
37.85000 288.187
38.02000 281.078
38.19000 303.464
38.36000 318.938
38.53000 422.852
38.70000 548.245
38.87000 457.114
39.04000 314.888
39.21000 281.268
39.38000 276.157
39.55000 270.173
39.72000 248.835
39.89000 259.605
40.06000 248.071
40.23000 254.194
40.40000 243.577
40.57000 257.202
40.74000 254.094
40.91000 233.256
41.08000 232.816
41.25000 242.218
41.42000 246.239
41.59000 241.947
41.76000 248.509
41.93000 247.064
42.10000 237.723
42.27000 224.247
42.44000 234.090
42.61000 230.436
42.78000 228.662
42.95000 235.744
43.12000 223.459
43.29000 218.121
43.46000 244.277
43.63000 230.156
43.80000 213.660
43.97000 216.268
44.14000 221.777
44.31000 232.255
44.48000 249.268
44.65000 259.916
44.82000 314.417
44.99000 404.152
45.16000 378.264
45.33000 330.948
45.50000 297.308
45.67000 274.261
45.84000 240.229
46.01000 215.276
46.18000 211.955
46.35000 213.806
46.52000 197.669
46.69000 212.548
46.86000 188.475
47.03000 195.340
47.20000 196.212
47.37000 192.932
47.54000 182.590
47.71000 185.420
47.88000 195.641
48.05000 168.445
48.22000 179.201
48.39000 180.576
48.56000 185.776
48.73000 178.789
48.90000 173.877
49.07000 177.505
49.24000 169.012
49.41000 173.408
49.58000 174.958
49.75000 169.620
49.92000 170.143
50.09000 178.783
50.26000 186.053
50.43000 207.556
50.60000 222.586
50.77000 211.046
50.94000 198.206
51.11000 195.988
51.28000 170.999
51.45000 171.007
51.62000 154.675
51.79000 165.093
51.96000 159.307
52.13000 162.053
52.30000 161.361
52.47000 154.415
52.64000 150.871
52.81000 163.945
52.98000 156.339
53.15000 154.087
53.32000 152.148
53.49000 165.332
53.66000 160.817
53.83000 156.731
54.00000 142.395
54.17000 138.315
54.34000 159.243
54.51000 147.146
54.68000 138.943
54.85000 143.671
55.02000 156.847
55.19000 160.441
55.36000 167.093
55.53000 208.614
55.70000 283.356
55.87000 378.039
56.04000 372.145
56.21000 251.172
56.38000 206.965
56.55000 180.439
56.72000 149.678
56.89000 155.612
57.06000 140.120
57.23000 139.944
57.40000 135.625
57.57000 128.959
57.74000 131.335
57.91000 142.094
58.08000 135.959
58.25000 134.757
58.42000 141.817
58.59000 130.369
58.76000 145.087
58.93000 134.214
59.10000 134.720
59.27000 135.998
59.44000 136.416
59.61000 140.069
59.78000 138.125
59.95000 130.844
60.12000 130.852
60.29000 130.263
60.46000 135.340
60.63000 131.103
60.80000 133.155
60.97000 137.887
61.14000 131.375
61.31000 134.004
61.48000 148.092
61.65000 310.689
61.82000 199.617
61.99000 156.036
62.16000 147.195
62.33000 144.727
62.50000 158.032
62.67000 142.313
62.84000 145.360
63.01000 140.002
63.18000 148.469
63.35000 136.215
63.52000 148.359
63.69000 145.911
63.86000 143.220
64.03000 164.505
64.20000 163.370
64.37000 169.361
64.54000 169.932
64.71000 179.610
64.88000 184.750
65.05000 207.217
65.22000 254.706
65.39000 287.253
65.56000 341.656
65.73000 775.891
65.90000 1342.676
66.07000 432.464
66.24000 355.064
66.41000 523.725
66.58000 378.040
66.75000 357.645
66.92000 348.939
67.09000 383.778
67.26000 411.939
67.43000 442.038
67.60000 481.686
67.77000 526.640
67.94000 560.503
68.11000 612.915
68.28000 680.813
68.45000 809.641
68.62000 1248.358
68.79000 2377.194
68.96000 17751.033
69.13000 69774.172
69.30000 40008.168
69.47000 9153.984
69.64000 1433.733
69.81000 921.326
69.98000 737.032
70.00000 703.726