File: XRD/25-09-2025/XY Data/BTO_Mapping_Theta2Theta_25-09-2025_001_26_-8-090_5-878.xy
20.00000 554.673
20.17000 536.113
20.34000 542.780
20.51000 548.811
20.68000 547.711
20.85000 543.408
21.02000 546.926
21.19000 532.505
21.36000 533.832
21.53000 526.601
21.70000 546.147
21.87000 573.729
22.04000 648.880
22.21000 648.680
22.38000 609.079
22.55000 539.537
22.72000 524.313
22.89000 495.218
23.06000 511.914
23.23000 486.199
23.40000 490.224
23.57000 506.725
23.74000 486.342
23.91000 497.569
24.08000 480.730
24.25000 490.034
24.42000 485.966
24.59000 467.449
24.76000 477.559
24.93000 478.332
25.10000 465.204
25.27000 469.814
25.44000 450.919
25.61000 456.455
25.78000 450.964
25.95000 453.514
26.12000 441.043
26.29000 453.815
26.46000 448.244
26.63000 423.801
26.80000 426.871
26.97000 458.989
27.14000 416.887
27.31000 440.391
27.48000 433.228
27.65000 420.261
27.82000 433.783
27.99000 428.125
28.16000 430.123
28.33000 419.236
28.50000 415.216
28.67000 417.641
28.84000 417.013
29.01000 396.126
29.18000 409.994
29.35000 399.693
29.52000 403.674
29.69000 408.103
29.86000 403.409
30.03000 405.849
30.20000 409.951
30.37000 395.121
30.54000 395.467
30.71000 412.249
30.88000 456.208
31.05000 571.240
31.22000 1197.191
31.39000 1820.017
31.56000 1256.330
31.73000 630.665
31.90000 451.344
32.07000 402.713
32.24000 382.693
32.41000 374.202
32.58000 362.747
32.75000 353.535
32.92000 369.488
33.09000 348.969
33.26000 338.145
33.43000 344.831
33.60000 331.741
33.77000 336.946
33.94000 314.373
34.11000 326.050
34.28000 304.347
34.45000 318.047
34.62000 331.886
34.79000 318.838
34.96000 299.667
35.13000 319.045
35.30000 314.236
35.47000 305.202
35.64000 304.469
35.81000 305.743
35.98000 286.817
36.15000 305.533
36.32000 294.725
36.49000 280.840
36.66000 304.580
36.83000 303.271
37.00000 304.621
37.17000 284.840
37.34000 287.712
37.51000 280.686
37.68000 282.990
37.85000 292.284
38.02000 290.500
38.19000 305.329
38.36000 325.875
38.53000 499.416
38.70000 758.825
38.87000 591.896
39.04000 341.821
39.21000 267.879
39.38000 248.512
39.55000 263.213
39.72000 256.027
39.89000 256.996
40.06000 261.440
40.23000 262.293
40.40000 249.159
40.57000 255.160
40.74000 239.877
40.91000 239.383
41.08000 240.249
41.25000 232.030
41.42000 241.873
41.59000 238.382
41.76000 242.149
41.93000 230.627
42.10000 219.542
42.27000 222.294
42.44000 240.501
42.61000 228.984
42.78000 229.006
42.95000 230.942
43.12000 220.000
43.29000 220.395
43.46000 223.278
43.63000 225.453
43.80000 228.475
43.97000 216.453
44.14000 213.381
44.31000 229.390
44.48000 217.298
44.65000 235.693
44.82000 255.934
44.99000 293.505
45.16000 282.122
45.33000 279.132
45.50000 275.227
45.67000 252.616
45.84000 230.561
46.01000 227.256
46.18000 207.940
46.35000 212.806
46.52000 201.885
46.69000 202.409
46.86000 191.357
47.03000 184.694
47.20000 184.318
47.37000 187.782
47.54000 178.246
47.71000 180.903
47.88000 189.919
48.05000 179.597
48.22000 184.717
48.39000 177.863
48.56000 188.612
48.73000 175.827
48.90000 180.912
49.07000 170.617
49.24000 175.910
49.41000 165.971
49.58000 168.466
49.75000 166.030
49.92000 176.469
50.09000 187.092
50.26000 173.046
50.43000 201.861
50.60000 214.176
50.77000 197.142
50.94000 176.457
51.11000 194.704
51.28000 169.111
51.45000 171.854
51.62000 150.310
51.79000 158.044
51.96000 166.051
52.13000 157.236
52.30000 160.090
52.47000 163.112
52.64000 141.242
52.81000 158.308
52.98000 142.490
53.15000 163.185
53.32000 154.521
53.49000 156.555
53.66000 156.543
53.83000 152.105
54.00000 144.666
54.17000 157.455
54.34000 160.109
54.51000 152.234
54.68000 150.456
54.85000 146.376
55.02000 154.986
55.19000 151.793
55.36000 169.218
55.53000 202.669
55.70000 305.401
55.87000 444.951
56.04000 431.618
56.21000 287.964
56.38000 209.185
56.55000 172.778
56.72000 152.160
56.89000 148.064
57.06000 138.544
57.23000 144.210
57.40000 136.777
57.57000 134.455
57.74000 134.653
57.91000 133.342
58.08000 147.995
58.25000 129.672
58.42000 139.694
58.59000 134.144
58.76000 139.031
58.93000 129.397
59.10000 125.953
59.27000 125.185
59.44000 138.136
59.61000 132.961
59.78000 129.685
59.95000 138.902
60.12000 128.111
60.29000 143.386
60.46000 138.543
60.63000 125.952
60.80000 133.664
60.97000 132.258
61.14000 141.189
61.31000 137.450
61.48000 147.585
61.65000 265.940
61.82000 186.662
61.99000 146.412
62.16000 136.565
62.33000 143.318
62.50000 138.781
62.67000 146.160
62.84000 137.206
63.01000 144.484
63.18000 148.979
63.35000 152.137
63.52000 149.703
63.69000 148.735
63.86000 157.253
64.03000 163.963
64.20000 152.794
64.37000 161.065
64.54000 169.741
64.71000 170.569
64.88000 178.189
65.05000 203.172
65.22000 213.546
65.39000 264.089
65.56000 314.685
65.73000 661.107
65.90000 1141.627
66.07000 389.330
66.24000 324.200
66.41000 460.198
66.58000 351.990
66.75000 328.415
66.92000 336.004
67.09000 364.724
67.26000 401.314
67.43000 419.915
67.60000 445.581
67.77000 493.073
67.94000 529.092
68.11000 557.064
68.28000 645.382
68.45000 749.540
68.62000 1064.336
68.79000 2004.422
68.96000 13359.900
69.13000 57335.063
69.30000 33247.430
69.47000 7814.210
69.64000 1291.917
69.81000 835.445
69.98000 667.993
70.00000 659.082