File: XRD/25-09-2025/XY Data/BTO_Mapping_Theta2Theta_25-09-2025_001_39_-16-180_-11-756.xy
20.00000 546.323
20.17000 538.707
20.34000 558.472
20.51000 559.027
20.68000 546.529
20.85000 530.783
21.02000 528.309
21.19000 553.914
21.36000 541.768
21.53000 562.885
21.70000 588.491
21.87000 700.012
22.04000 791.602
22.21000 698.401
22.38000 612.413
22.55000 547.997
22.72000 527.564
22.89000 544.521
23.06000 500.690
23.23000 505.721
23.40000 504.243
23.57000 509.428
23.74000 486.449
23.91000 479.627
24.08000 478.840
24.25000 486.256
24.42000 500.419
24.59000 451.112
24.76000 472.094
24.93000 480.773
25.10000 485.827
25.27000 450.389
25.44000 460.333
25.61000 467.623
25.78000 474.926
25.95000 466.427
26.12000 448.542
26.29000 434.783
26.46000 441.083
26.63000 461.058
26.80000 440.388
26.97000 433.781
27.14000 431.409
27.31000 432.670
27.48000 435.578
27.65000 422.703
27.82000 433.836
27.99000 417.032
28.16000 419.607
28.33000 421.600
28.50000 408.822
28.67000 415.616
28.84000 400.223
29.01000 405.797
29.18000 392.273
29.35000 408.671
29.52000 387.472
29.69000 405.905
29.86000 422.407
30.03000 431.684
30.20000 415.646
30.37000 400.656
30.54000 433.025
30.71000 446.475
30.88000 474.685
31.05000 706.580
31.22000 1638.511
31.39000 2305.844
31.56000 1389.529
31.73000 715.119
31.90000 463.409
32.07000 403.810
32.24000 387.577
32.41000 382.977
32.58000 359.924
32.75000 379.530
32.92000 374.279
33.09000 362.529
33.26000 340.979
33.43000 341.474
33.60000 345.095
33.77000 331.000
33.94000 326.083
34.11000 320.778
34.28000 330.248
34.45000 328.123
34.62000 314.591
34.79000 330.311
34.96000 313.224
35.13000 317.903
35.30000 296.766
35.47000 307.815
35.64000 295.364
35.81000 313.868
35.98000 302.692
36.15000 307.502
36.32000 291.766
36.49000 297.988
36.66000 279.029
36.83000 295.167
37.00000 278.252
37.17000 282.018
37.34000 290.222
37.51000 265.403
37.68000 283.211
37.85000 294.997
38.02000 285.560
38.19000 286.674
38.36000 339.319
38.53000 461.278
38.70000 555.111
38.87000 437.607
39.04000 304.403
39.21000 270.409
39.38000 269.159
39.55000 263.034
39.72000 263.827
39.89000 251.502
40.06000 247.821
40.23000 245.073
40.40000 249.367
40.57000 262.464
40.74000 250.874
40.91000 250.002
41.08000 233.495
41.25000 251.093
41.42000 242.741
41.59000 244.119
41.76000 218.913
41.93000 232.981
42.10000 233.183
42.27000 226.471
42.44000 230.953
42.61000 235.125
42.78000 221.308
42.95000 214.144
43.12000 219.122
43.29000 225.216
43.46000 211.270
43.63000 218.235
43.80000 225.835
43.97000 240.116
44.14000 219.407
44.31000 228.706
44.48000 241.056
44.65000 266.546
44.82000 356.313
44.99000 391.185
45.16000 357.387
45.33000 319.270
45.50000 290.527
45.67000 226.922
45.84000 235.066
46.01000 215.048
46.18000 213.891
46.35000 204.042
46.52000 205.721
46.69000 197.348
46.86000 202.517
47.03000 202.026
47.20000 188.731
47.37000 190.926
47.54000 184.323
47.71000 180.439
47.88000 178.808
48.05000 162.137
48.22000 175.356
48.39000 182.198
48.56000 174.581
48.73000 183.518
48.90000 186.471
49.07000 175.649
49.24000 185.540
49.41000 163.227
49.58000 188.932
49.75000 177.391
49.92000 174.431
50.09000 177.633
50.26000 192.155
50.43000 197.144
50.60000 225.980
50.77000 223.446
50.94000 199.754
51.11000 167.724
51.28000 177.516
51.45000 163.487
51.62000 165.901
51.79000 158.837
51.96000 156.121
52.13000 166.204
52.30000 156.032
52.47000 152.818
52.64000 148.501
52.81000 152.387
52.98000 163.359
53.15000 163.115
53.32000 158.261
53.49000 162.349
53.66000 152.256
53.83000 158.452
54.00000 165.057
54.17000 152.816
54.34000 153.797
54.51000 158.286
54.68000 150.699
54.85000 156.625
55.02000 168.252
55.19000 167.259
55.36000 170.318
55.53000 225.844
55.70000 331.238
55.87000 385.914
56.04000 354.672
56.21000 261.835
56.38000 202.088
56.55000 166.216
56.72000 156.903
56.89000 147.417
57.06000 147.131
57.23000 141.889
57.40000 139.932
57.57000 137.870
57.74000 132.699
57.91000 133.678
58.08000 142.164
58.25000 135.709
58.42000 137.741
58.59000 143.422
58.76000 127.182
58.93000 139.306
59.10000 142.010
59.27000 133.942
59.44000 130.502
59.61000 133.439
59.78000 129.040
59.95000 131.081
60.12000 130.137
60.29000 141.844
60.46000 125.585
60.63000 134.611
60.80000 135.006
60.97000 143.406
61.14000 136.834
61.31000 131.602
61.48000 145.895
61.65000 304.327
61.82000 208.591
61.99000 140.919
62.16000 140.963
62.33000 144.013
62.50000 147.813
62.67000 148.922
62.84000 143.810
63.01000 145.165
63.18000 141.176
63.35000 147.102
63.52000 146.953
63.69000 147.761
63.86000 160.193
64.03000 160.180
64.20000 169.097
64.37000 165.044
64.54000 177.013
64.71000 175.183
64.88000 182.374
65.05000 200.048
65.22000 255.630
65.39000 297.435
65.56000 341.711
65.73000 751.367
65.90000 1328.028
66.07000 429.867
66.24000 375.302
66.41000 515.712
66.58000 385.160
66.75000 349.229
66.92000 354.043
67.09000 389.154
67.26000 429.855
67.43000 438.727
67.60000 489.844
67.77000 525.142
67.94000 556.649
68.11000 642.867
68.28000 701.983
68.45000 831.606
68.62000 1222.252
68.79000 2341.299
68.96000 17173.156
69.13000 70758.133
69.30000 40864.211
69.47000 9493.806
69.64000 1397.483
69.81000 912.821
69.98000 714.432
70.00000 708.925