File: XRD/25-09-2025/XY Data/BTO_Mapping_Theta2Theta_25-09-2025_001_06_9-135_4-067.xy
20.00000 543.721
20.17000 546.015
20.34000 560.405
20.51000 542.896
20.68000 547.701
20.85000 540.860
21.02000 533.626
21.19000 543.117
21.36000 568.821
21.53000 537.962
21.70000 563.092
21.87000 565.252
22.04000 610.068
22.21000 628.461
22.38000 591.557
22.55000 536.973
22.72000 528.700
22.89000 469.842
23.06000 495.118
23.23000 498.250
23.40000 519.907
23.57000 492.288
23.74000 478.595
23.91000 477.947
24.08000 500.318
24.25000 487.016
24.42000 465.049
24.59000 476.091
24.76000 467.626
24.93000 451.104
25.10000 467.774
25.27000 469.356
25.44000 458.650
25.61000 461.410
25.78000 456.420
25.95000 428.464
26.12000 456.303
26.29000 430.306
26.46000 483.254
26.63000 424.593
26.80000 442.933
26.97000 436.798
27.14000 441.514
27.31000 432.922
27.48000 428.339
27.65000 435.503
27.82000 412.804
27.99000 408.060
28.16000 409.915
28.33000 409.631
28.50000 416.666
28.67000 416.968
28.84000 422.456
29.01000 417.494
29.18000 385.538
29.35000 392.629
29.52000 401.155
29.69000 412.690
29.86000 398.226
30.03000 408.155
30.20000 395.711
30.37000 387.444
30.54000 393.458
30.71000 429.862
30.88000 415.754
31.05000 496.805
31.22000 861.924
31.39000 1283.390
31.56000 969.438
31.73000 549.114
31.90000 454.699
32.07000 418.790
32.24000 378.714
32.41000 359.213
32.58000 358.920
32.75000 355.289
32.92000 360.495
33.09000 347.056
33.26000 345.307
33.43000 346.356
33.60000 332.247
33.77000 344.203
33.94000 340.236
34.11000 327.293
34.28000 323.175
34.45000 316.534
34.62000 317.376
34.79000 314.314
34.96000 312.638
35.13000 312.685
35.30000 303.685
35.47000 309.857
35.64000 293.603
35.81000 312.125
35.98000 296.330
36.15000 286.223
36.32000 299.222
36.49000 282.771
36.66000 278.717
36.83000 285.834
37.00000 298.517
37.17000 283.305
37.34000 292.202
37.51000 297.103
37.68000 281.192
37.85000 270.002
38.02000 275.824
38.19000 304.814
38.36000 309.443
38.53000 457.223
38.70000 797.114
38.87000 671.334
39.04000 354.553
39.21000 276.385
39.38000 264.247
39.55000 266.145
39.72000 258.953
39.89000 262.322
40.06000 260.143
40.23000 242.524
40.40000 258.263
40.57000 254.454
40.74000 241.018
40.91000 250.712
41.08000 243.921
41.25000 235.594
41.42000 234.682
41.59000 221.803
41.76000 236.769
41.93000 247.247
42.10000 236.299
42.27000 233.233
42.44000 223.881
42.61000 229.707
42.78000 226.693
42.95000 221.700
43.12000 224.821
43.29000 225.713
43.46000 225.683
43.63000 224.434
43.80000 215.554
43.97000 217.963
44.14000 204.971
44.31000 215.972
44.48000 203.976
44.65000 222.447
44.82000 214.206
44.99000 250.621
45.16000 256.033
45.33000 253.205
45.50000 255.249
45.67000 244.556
45.84000 231.607
46.01000 233.530
46.18000 206.234
46.35000 199.866
46.52000 198.695
46.69000 201.170
46.86000 203.441
47.03000 193.194
47.20000 185.293
47.37000 180.828
47.54000 193.562
47.71000 176.344
47.88000 192.013
48.05000 195.549
48.22000 171.121
48.39000 175.291
48.56000 186.641
48.73000 185.108
48.90000 179.646
49.07000 166.442
49.24000 179.872
49.41000 175.370
49.58000 177.790
49.75000 164.842
49.92000 168.654
50.09000 171.589
50.26000 177.444
50.43000 179.083
50.60000 186.372
50.77000 188.752
50.94000 181.717
51.11000 172.155
51.28000 173.096
51.45000 162.648
51.62000 157.329
51.79000 163.706
51.96000 168.866
52.13000 161.632
52.30000 155.256
52.47000 152.976
52.64000 162.286
52.81000 149.727
52.98000 159.103
53.15000 149.318
53.32000 158.859
53.49000 150.839
53.66000 151.245
53.83000 149.912
54.00000 145.136
54.17000 142.229
54.34000 157.391
54.51000 149.246
54.68000 147.627
54.85000 141.708
55.02000 151.936
55.19000 148.862
55.36000 162.844
55.53000 171.466
55.70000 247.892
55.87000 382.485
56.04000 445.688
56.21000 326.889
56.38000 218.667
56.55000 162.141
56.72000 157.297
56.89000 150.811
57.06000 144.395
57.23000 140.806
57.40000 135.728
57.57000 146.969
57.74000 145.061
57.91000 140.003
58.08000 138.866
58.25000 134.722
58.42000 145.181
58.59000 134.068
58.76000 139.279
58.93000 141.586
59.10000 136.641
59.27000 135.669
59.44000 129.952
59.61000 134.869
59.78000 131.780
59.95000 123.347
60.12000 128.701
60.29000 123.616
60.46000 121.397
60.63000 143.284
60.80000 132.444
60.97000 140.122
61.14000 131.677
61.31000 142.630
61.48000 140.565
61.65000 242.050
61.82000 193.379
61.99000 137.646
62.16000 141.466
62.33000 138.985
62.50000 147.092
62.67000 135.789
62.84000 144.168
63.01000 135.730
63.18000 140.668
63.35000 146.714
63.52000 148.332
63.69000 159.079
63.86000 157.258
64.03000 168.252
64.20000 164.936
64.37000 161.663
64.54000 176.350
64.71000 176.503
64.88000 170.508
65.05000 187.108
65.22000 203.168
65.39000 231.189
65.56000 272.319
65.73000 555.785
65.90000 1051.549
66.07000 385.610
66.24000 318.636
66.41000 429.184
66.58000 340.849
66.75000 311.740
66.92000 339.363
67.09000 364.905
67.26000 371.931
67.43000 420.722
67.60000 434.739
67.77000 477.404
67.94000 502.677
68.11000 571.699
68.28000 591.339
68.45000 727.336
68.62000 1012.904
68.79000 1851.587
68.96000 10769.791
69.13000 53661.363
69.30000 32044.881
69.47000 7999.253
69.64000 1277.559
69.81000 831.043
69.98000 681.998
70.00000 651.280