File: XRD/25-09-2025/XY Data/BTO_Mapping_Theta2Theta_25-09-2025_001_28_-24-271_17-634.xy
20.00000 562.714
20.17000 557.181
20.34000 554.720
20.51000 547.501
20.68000 545.089
20.85000 550.075
21.02000 535.700
21.19000 560.693
21.36000 557.648
21.53000 536.509
21.70000 559.787
21.87000 655.890
22.04000 758.590
22.21000 687.710
22.38000 615.656
22.55000 552.189
22.72000 530.445
22.89000 509.364
23.06000 500.712
23.23000 519.499
23.40000 501.104
23.57000 506.715
23.74000 475.143
23.91000 486.992
24.08000 490.597
24.25000 471.738
24.42000 481.728
24.59000 488.223
24.76000 460.891
24.93000 481.320
25.10000 481.764
25.27000 481.440
25.44000 454.505
25.61000 470.334
25.78000 440.757
25.95000 458.160
26.12000 462.705
26.29000 455.278
26.46000 444.440
26.63000 447.565
26.80000 440.533
26.97000 430.133
27.14000 443.247
27.31000 428.346
27.48000 434.607
27.65000 401.795
27.82000 444.637
27.99000 421.085
28.16000 424.688
28.33000 426.014
28.50000 399.695
28.67000 411.939
28.84000 422.416
29.01000 411.755
29.18000 438.395
29.35000 394.513
29.52000 405.929
29.69000 409.056
29.86000 431.779
30.03000 422.642
30.20000 408.643
30.37000 405.411
30.54000 418.712
30.71000 429.263
30.88000 446.502
31.05000 625.916
31.22000 1426.377
31.39000 2166.540
31.56000 1411.091
31.73000 699.863
31.90000 482.955
32.07000 442.488
32.24000 402.974
32.41000 388.123
32.58000 359.960
32.75000 369.688
32.92000 404.464
33.09000 353.881
33.26000 345.617
33.43000 352.416
33.60000 335.140
33.77000 330.509
33.94000 312.627
34.11000 320.085
34.28000 326.074
34.45000 316.260
34.62000 315.217
34.79000 317.011
34.96000 307.641
35.13000 319.645
35.30000 294.603
35.47000 290.767
35.64000 293.653
35.81000 296.040
35.98000 302.427
36.15000 302.144
36.32000 292.276
36.49000 296.035
36.66000 288.072
36.83000 284.753
37.00000 286.961
37.17000 306.666
37.34000 296.402
37.51000 265.394
37.68000 286.563
37.85000 281.435
38.02000 281.072
38.19000 292.476
38.36000 324.108
38.53000 450.261
38.70000 601.499
38.87000 477.855
39.04000 323.599
39.21000 271.390
39.38000 274.736
39.55000 259.735
39.72000 259.952
39.89000 259.627
40.06000 263.710
40.23000 242.175
40.40000 245.012
40.57000 242.356
40.74000 243.508
40.91000 255.379
41.08000 243.563
41.25000 224.024
41.42000 234.877
41.59000 234.841
41.76000 228.133
41.93000 239.004
42.10000 230.010
42.27000 223.690
42.44000 224.487
42.61000 225.453
42.78000 213.479
42.95000 228.460
43.12000 206.737
43.29000 234.274
43.46000 231.419
43.63000 209.815
43.80000 218.239
43.97000 222.689
44.14000 217.809
44.31000 222.325
44.48000 232.073
44.65000 253.047
44.82000 293.275
44.99000 366.908
45.16000 351.663
45.33000 316.996
45.50000 273.142
45.67000 246.420
45.84000 236.950
46.01000 225.801
46.18000 216.536
46.35000 191.808
46.52000 190.290
46.69000 192.425
46.86000 191.275
47.03000 199.398
47.20000 188.649
47.37000 185.507
47.54000 192.655
47.71000 181.498
47.88000 178.875
48.05000 175.858
48.22000 186.341
48.39000 185.736
48.56000 178.025
48.73000 169.510
48.90000 175.141
49.07000 169.780
49.24000 171.222
49.41000 184.914
49.58000 171.617
49.75000 175.005
49.92000 173.268
50.09000 180.168
50.26000 180.887
50.43000 197.741
50.60000 217.558
50.77000 218.982
50.94000 194.947
51.11000 180.103
51.28000 168.623
51.45000 162.166
51.62000 166.787
51.79000 167.624
51.96000 151.822
52.13000 163.698
52.30000 164.500
52.47000 153.186
52.64000 166.094
52.81000 159.486
52.98000 151.307
53.15000 152.709
53.32000 152.190
53.49000 159.042
53.66000 152.999
53.83000 149.656
54.00000 155.032
54.17000 147.447
54.34000 160.589
54.51000 155.081
54.68000 165.240
54.85000 157.194
55.02000 155.551
55.19000 159.169
55.36000 170.488
55.53000 213.293
55.70000 289.511
55.87000 405.439
56.04000 367.388
56.21000 263.718
56.38000 212.339
56.55000 177.001
56.72000 167.714
56.89000 149.560
57.06000 145.215
57.23000 155.225
57.40000 135.349
57.57000 140.307
57.74000 146.119
57.91000 136.544
58.08000 133.167
58.25000 145.949
58.42000 130.461
58.59000 131.592
58.76000 148.857
58.93000 131.946
59.10000 138.855
59.27000 132.367
59.44000 139.295
59.61000 135.389
59.78000 131.155
59.95000 128.991
60.12000 143.288
60.29000 139.304
60.46000 121.840
60.63000 132.075
60.80000 131.686
60.97000 140.898
61.14000 131.779
61.31000 138.144
61.48000 150.278
61.65000 281.554
61.82000 205.513
61.99000 148.466
62.16000 139.040
62.33000 140.189
62.50000 141.879
62.67000 145.411
62.84000 138.209
63.01000 146.288
63.18000 145.773
63.35000 148.349
63.52000 155.856
63.69000 146.929
63.86000 149.218
64.03000 168.040
64.20000 160.581
64.37000 163.201
64.54000 162.883
64.71000 185.077
64.88000 189.559
65.05000 208.080
65.22000 245.098
65.39000 290.345
65.56000 351.931
65.73000 731.705
65.90000 1266.713
66.07000 419.215
66.24000 334.876
66.41000 496.735
66.58000 365.273
66.75000 333.838
66.92000 357.140
67.09000 372.903
67.26000 413.114
67.43000 433.501
67.60000 465.085
67.77000 494.881
67.94000 553.222
68.11000 592.071
68.28000 670.315
68.45000 764.360
68.62000 1162.450
68.79000 2232.547
68.96000 15736.537
69.13000 65164.496
69.30000 37640.340
69.47000 8791.320
69.64000 1334.749
69.81000 916.340
69.98000 714.513
70.00000 693.564