File: XRD/25-09-2025/XY Data/BTO_Mapping_Theta2Theta_25-09-2025_001_37_-39-126_-8-316.xy
20.00000 544.999
20.17000 557.824
20.34000 553.630
20.51000 541.992
20.68000 544.903
20.85000 550.552
21.02000 566.208
21.19000 542.977
21.36000 537.483
21.53000 552.593
21.70000 624.637
21.87000 863.545
22.04000 984.572
22.21000 733.787
22.38000 598.218
22.55000 529.444
22.72000 520.019
22.89000 512.352
23.06000 519.740
23.23000 497.103
23.40000 501.782
23.57000 506.110
23.74000 477.646
23.91000 494.902
24.08000 481.068
24.25000 496.401
24.42000 488.896
24.59000 489.157
24.76000 478.851
24.93000 466.927
25.10000 457.062
25.27000 467.630
25.44000 465.172
25.61000 460.987
25.78000 466.361
25.95000 469.134
26.12000 448.021
26.29000 462.376
26.46000 459.111
26.63000 440.690
26.80000 458.789
26.97000 447.607
27.14000 453.877
27.31000 426.975
27.48000 420.764
27.65000 440.811
27.82000 414.999
27.99000 415.082
28.16000 433.971
28.33000 438.520
28.50000 440.060
28.67000 407.823
28.84000 411.963
29.01000 429.763
29.18000 398.143
29.35000 409.241
29.52000 407.713
29.69000 408.086
29.86000 431.657
30.03000 441.297
30.20000 439.118
30.37000 427.744
30.54000 434.100
30.71000 445.489
30.88000 511.441
31.05000 948.252
31.22000 2698.957
31.39000 2834.816
31.56000 1246.533
31.73000 646.009
31.90000 456.777
32.07000 416.888
32.24000 391.114
32.41000 400.546
32.58000 394.730
32.75000 389.690
32.92000 395.896
33.09000 360.374
33.26000 352.209
33.43000 342.831
33.60000 341.334
33.77000 335.942
33.94000 321.231
34.11000 326.965
34.28000 325.719
34.45000 323.426
34.62000 324.412
34.79000 334.074
34.96000 322.523
35.13000 320.853
35.30000 299.471
35.47000 321.822
35.64000 306.595
35.81000 306.870
35.98000 301.413
36.15000 281.336
36.32000 294.035
36.49000 297.458
36.66000 313.215
36.83000 300.809
37.00000 294.895
37.17000 297.318
37.34000 293.848
37.51000 293.824
37.68000 290.768
37.85000 293.156
38.02000 298.590
38.19000 304.138
38.36000 347.903
38.53000 456.830
38.70000 478.045
38.87000 346.096
39.04000 282.717
39.21000 275.829
39.38000 266.503
39.55000 260.109
39.72000 264.310
39.89000 264.240
40.06000 254.762
40.23000 255.978
40.40000 256.568
40.57000 262.283
40.74000 247.573
40.91000 247.083
41.08000 241.308
41.25000 239.512
41.42000 244.366
41.59000 239.800
41.76000 238.238
41.93000 238.527
42.10000 254.306
42.27000 229.710
42.44000 228.394
42.61000 230.641
42.78000 244.888
42.95000 237.007
43.12000 221.874
43.29000 229.500
43.46000 232.812
43.63000 237.299
43.80000 230.518
43.97000 222.075
44.14000 240.472
44.31000 237.854
44.48000 257.764
44.65000 376.847
44.82000 525.665
44.99000 544.513
45.16000 462.293
45.33000 324.013
45.50000 284.440
45.67000 254.269
45.84000 234.916
46.01000 213.354
46.18000 219.466
46.35000 231.197
46.52000 201.930
46.69000 192.107
46.86000 194.278
47.03000 195.634
47.20000 187.248
47.37000 180.917
47.54000 183.413
47.71000 190.519
47.88000 198.845
48.05000 181.405
48.22000 190.202
48.39000 199.190
48.56000 186.749
48.73000 186.955
48.90000 174.377
49.07000 180.050
49.24000 183.635
49.41000 172.296
49.58000 175.248
49.75000 173.830
49.92000 178.245
50.09000 181.814
50.26000 194.233
50.43000 227.981
50.60000 247.898
50.77000 226.282
50.94000 206.627
51.11000 194.600
51.28000 166.248
51.45000 178.862
51.62000 157.804
51.79000 157.075
51.96000 169.997
52.13000 156.662
52.30000 166.642
52.47000 155.261
52.64000 142.831
52.81000 150.227
52.98000 158.711
53.15000 165.765
53.32000 160.913
53.49000 158.974
53.66000 159.638
53.83000 155.197
54.00000 156.811
54.17000 148.629
54.34000 142.726
54.51000 152.361
54.68000 145.215
54.85000 155.237
55.02000 159.109
55.19000 167.157
55.36000 189.596
55.53000 240.484
55.70000 356.497
55.87000 400.515
56.04000 320.394
56.21000 246.403
56.38000 188.431
56.55000 170.227
56.72000 151.230
56.89000 150.619
57.06000 140.120
57.23000 144.714
57.40000 150.164
57.57000 145.734
57.74000 150.601
57.91000 140.241
58.08000 147.563
58.25000 136.448
58.42000 149.794
58.59000 136.006
58.76000 140.774
58.93000 155.206
59.10000 137.568
59.27000 134.705
59.44000 131.448
59.61000 129.398
59.78000 139.120
59.95000 124.750
60.12000 122.538
60.29000 129.160
60.46000 113.971
60.63000 130.350
60.80000 138.459
60.97000 133.863
61.14000 142.123
61.31000 143.397
61.48000 151.344
61.65000 331.747
61.82000 220.044
61.99000 148.671
62.16000 153.494
62.33000 139.088
62.50000 151.224
62.67000 149.255
62.84000 150.503
63.01000 147.316
63.18000 150.470
63.35000 157.053
63.52000 147.560
63.69000 149.642
63.86000 149.957
64.03000 154.704
64.20000 165.440
64.37000 179.094
64.54000 172.167
64.71000 183.458
64.88000 204.232
65.05000 255.452
65.22000 313.778
65.39000 385.753
65.56000 384.479
65.73000 858.477
65.90000 1494.658
66.07000 456.740
66.24000 378.278
66.41000 551.010
66.58000 420.550
66.75000 370.024
66.92000 381.439
67.09000 418.750
67.26000 448.804
67.43000 467.783
67.60000 502.349
67.77000 540.022
67.94000 606.914
68.11000 644.159
68.28000 719.090
68.45000 857.356
68.62000 1311.880
68.79000 2527.701
68.96000 19299.777
69.13000 81661.375
69.30000 46531.859
69.47000 10649.860
69.64000 1540.852
69.81000 988.444
69.98000 760.937
70.00000 749.921