File: XRD/25-09-2025/XY Data/BTO_Mapping_Theta2Theta_25-09-2025_001_20_-3-136_29-836.xy
20.00000 551.708
20.17000 569.782
20.34000 535.480
20.51000 547.961
20.68000 539.186
20.85000 547.957
21.02000 542.745
21.19000 523.901
21.36000 548.002
21.53000 527.148
21.70000 531.258
21.87000 581.586
22.04000 614.914
22.21000 609.802
22.38000 594.264
22.55000 546.425
22.72000 520.729
22.89000 527.492
23.06000 492.767
23.23000 511.463
23.40000 516.254
23.57000 498.464
23.74000 495.940
23.91000 476.540
24.08000 500.135
24.25000 495.010
24.42000 495.106
24.59000 486.725
24.76000 489.440
24.93000 469.602
25.10000 478.211
25.27000 465.892
25.44000 470.492
25.61000 463.999
25.78000 454.914
25.95000 458.763
26.12000 454.155
26.29000 453.553
26.46000 431.511
26.63000 445.043
26.80000 435.911
26.97000 426.018
27.14000 446.699
27.31000 433.965
27.48000 421.096
27.65000 412.498
27.82000 409.811
27.99000 415.916
28.16000 417.284
28.33000 419.960
28.50000 410.751
28.67000 405.273
28.84000 413.894
29.01000 419.627
29.18000 376.331
29.35000 406.214
29.52000 396.220
29.69000 395.018
29.86000 393.023
30.03000 390.885
30.20000 395.151
30.37000 392.516
30.54000 414.817
30.71000 372.254
30.88000 425.373
31.05000 494.901
31.22000 826.208
31.39000 1245.571
31.56000 951.721
31.73000 539.753
31.90000 439.593
32.07000 408.341
32.24000 387.438
32.41000 362.206
32.58000 370.804
32.75000 352.055
32.92000 373.032
33.09000 349.726
33.26000 333.100
33.43000 329.551
33.60000 326.663
33.77000 332.417
33.94000 321.045
34.11000 339.715
34.28000 330.326
34.45000 311.706
34.62000 316.615
34.79000 302.240
34.96000 307.068
35.13000 301.483
35.30000 307.197
35.47000 309.556
35.64000 301.882
35.81000 317.848
35.98000 301.547
36.15000 304.815
36.32000 297.830
36.49000 290.746
36.66000 288.874
36.83000 286.048
37.00000 300.965
37.17000 292.184
37.34000 291.477
37.51000 289.606
37.68000 281.126
37.85000 277.798
38.02000 288.243
38.19000 288.776
38.36000 304.966
38.53000 458.956
38.70000 774.132
38.87000 622.826
39.04000 347.773
39.21000 274.252
39.38000 270.459
39.55000 263.858
39.72000 251.157
39.89000 248.635
40.06000 252.076
40.23000 240.135
40.40000 247.175
40.57000 248.701
40.74000 235.531
40.91000 244.989
41.08000 240.792
41.25000 243.071
41.42000 236.899
41.59000 220.361
41.76000 232.966
41.93000 236.637
42.10000 240.528
42.27000 220.735
42.44000 225.036
42.61000 218.619
42.78000 212.030
42.95000 227.007
43.12000 221.048
43.29000 222.998
43.46000 218.686
43.63000 218.338
43.80000 210.320
43.97000 223.380
44.14000 216.298
44.31000 212.543
44.48000 215.385
44.65000 230.206
44.82000 237.173
44.99000 238.581
45.16000 264.468
45.33000 261.493
45.50000 246.022
45.67000 235.044
45.84000 229.709
46.01000 217.991
46.18000 202.243
46.35000 205.271
46.52000 199.690
46.69000 175.446
46.86000 201.262
47.03000 200.145
47.20000 194.339
47.37000 196.896
47.54000 186.386
47.71000 186.098
47.88000 183.217
48.05000 171.864
48.22000 184.902
48.39000 183.414
48.56000 177.450
48.73000 184.756
48.90000 179.146
49.07000 179.505
49.24000 162.449
49.41000 181.818
49.58000 172.169
49.75000 158.658
49.92000 175.464
50.09000 179.072
50.26000 172.930
50.43000 187.039
50.60000 189.138
50.77000 191.168
50.94000 187.653
51.11000 183.136
51.28000 153.111
51.45000 154.400
51.62000 163.196
51.79000 156.513
51.96000 160.653
52.13000 161.412
52.30000 166.147
52.47000 161.973
52.64000 154.289
52.81000 148.000
52.98000 160.476
53.15000 150.852
53.32000 170.413
53.49000 156.933
53.66000 149.706
53.83000 154.721
54.00000 146.327
54.17000 154.096
54.34000 152.594
54.51000 150.648
54.68000 140.308
54.85000 158.680
55.02000 154.891
55.19000 146.972
55.36000 169.214
55.53000 178.147
55.70000 240.201
55.87000 405.018
56.04000 441.019
56.21000 302.978
56.38000 216.721
56.55000 167.854
56.72000 153.427
56.89000 141.450
57.06000 139.903
57.23000 135.537
57.40000 143.349
57.57000 134.782
57.74000 130.977
57.91000 144.611
58.08000 139.370
58.25000 139.482
58.42000 133.578
58.59000 133.887
58.76000 139.352
58.93000 146.429
59.10000 124.068
59.27000 128.982
59.44000 136.696
59.61000 138.858
59.78000 139.685
59.95000 144.500
60.12000 121.510
60.29000 121.690
60.46000 137.002
60.63000 142.713
60.80000 136.881
60.97000 130.388
61.14000 136.709
61.31000 130.025
61.48000 132.809
61.65000 258.449
61.82000 197.558
61.99000 144.032
62.16000 148.360
62.33000 145.077
62.50000 139.387
62.67000 136.729
62.84000 152.112
63.01000 140.203
63.18000 142.197
63.35000 151.938
63.52000 144.551
63.69000 156.784
63.86000 156.148
64.03000 163.721
64.20000 162.297
64.37000 153.430
64.54000 170.995
64.71000 174.598
64.88000 175.133
65.05000 172.684
65.22000 214.741
65.39000 249.812
65.56000 286.214
65.73000 583.470
65.90000 1042.922
66.07000 367.346
66.24000 329.029
66.41000 446.164
66.58000 328.568
66.75000 319.624
66.92000 331.747
67.09000 348.129
67.26000 392.294
67.43000 399.587
67.60000 438.376
67.77000 481.837
67.94000 518.982
68.11000 544.746
68.28000 609.505
68.45000 723.679
68.62000 1048.567
68.79000 1939.426
68.96000 12324.547
69.13000 54181.586
69.30000 31779.211
69.47000 7549.177
69.64000 1282.361
69.81000 833.352
69.98000 679.756
70.00000 656.474