File: XRD/25-09-2025/XY Data/BTO_Mapping_Theta2Theta_25-09-2025_001_51_6-180_-19-021.xy
20.00000 566.235
20.17000 549.036
20.34000 548.793
20.51000 538.198
20.68000 543.939
20.85000 549.473
21.02000 537.728
21.19000 544.432
21.36000 535.253
21.53000 537.915
21.70000 533.116
21.87000 572.452
22.04000 632.676
22.21000 652.424
22.38000 594.358
22.55000 554.995
22.72000 516.757
22.89000 522.905
23.06000 516.122
23.23000 515.320
23.40000 498.599
23.57000 491.549
23.74000 488.077
23.91000 488.549
24.08000 480.665
24.25000 468.958
24.42000 460.562
24.59000 464.491
24.76000 496.709
24.93000 456.389
25.10000 475.718
25.27000 449.258
25.44000 450.732
25.61000 455.079
25.78000 472.316
25.95000 463.119
26.12000 442.770
26.29000 434.957
26.46000 443.001
26.63000 446.715
26.80000 439.505
26.97000 429.452
27.14000 425.093
27.31000 429.090
27.48000 407.767
27.65000 426.166
27.82000 413.142
27.99000 426.543
28.16000 430.106
28.33000 414.307
28.50000 418.763
28.67000 431.512
28.84000 394.892
29.01000 392.354
29.18000 401.672
29.35000 409.475
29.52000 410.799
29.69000 395.800
29.86000 415.838
30.03000 403.041
30.20000 398.145
30.37000 401.441
30.54000 376.688
30.71000 411.920
30.88000 427.036
31.05000 549.390
31.22000 1006.961
31.39000 1525.411
31.56000 1082.691
31.73000 597.161
31.90000 452.905
32.07000 399.291
32.24000 400.046
32.41000 382.575
32.58000 385.892
32.75000 360.415
32.92000 368.568
33.09000 330.707
33.26000 337.647
33.43000 332.874
33.60000 336.275
33.77000 336.859
33.94000 328.961
34.11000 309.953
34.28000 315.591
34.45000 320.434
34.62000 326.340
34.79000 313.777
34.96000 302.840
35.13000 308.166
35.30000 313.112
35.47000 299.544
35.64000 298.576
35.81000 311.017
35.98000 300.554
36.15000 300.316
36.32000 293.420
36.49000 295.838
36.66000 282.744
36.83000 287.347
37.00000 311.499
37.17000 289.497
37.34000 294.429
37.51000 297.180
37.68000 299.459
37.85000 293.538
38.02000 294.654
38.19000 297.638
38.36000 309.913
38.53000 504.586
38.70000 819.346
38.87000 648.222
39.04000 348.359
39.21000 270.219
39.38000 265.415
39.55000 263.964
39.72000 263.559
39.89000 250.109
40.06000 252.207
40.23000 257.268
40.40000 248.971
40.57000 234.484
40.74000 249.290
40.91000 248.059
41.08000 246.055
41.25000 241.046
41.42000 233.697
41.59000 218.237
41.76000 231.319
41.93000 246.759
42.10000 232.489
42.27000 233.468
42.44000 232.871
42.61000 220.684
42.78000 214.005
42.95000 220.408
43.12000 219.159
43.29000 216.219
43.46000 212.096
43.63000 232.639
43.80000 233.247
43.97000 218.865
44.14000 209.699
44.31000 214.782
44.48000 234.351
44.65000 221.153
44.82000 240.438
44.99000 263.939
45.16000 273.989
45.33000 268.112
45.50000 251.711
45.67000 245.711
45.84000 233.704
46.01000 224.965
46.18000 218.828
46.35000 207.111
46.52000 189.576
46.69000 181.831
46.86000 194.684
47.03000 184.060
47.20000 183.546
47.37000 190.631
47.54000 194.192
47.71000 182.905
47.88000 188.791
48.05000 192.884
48.22000 194.577
48.39000 179.747
48.56000 174.774
48.73000 182.745
48.90000 176.594
49.07000 192.817
49.24000 170.533
49.41000 188.119
49.58000 171.238
49.75000 178.995
49.92000 168.401
50.09000 166.359
50.26000 177.365
50.43000 179.457
50.60000 197.082
50.77000 195.572
50.94000 193.030
51.11000 173.844
51.28000 164.394
51.45000 171.139
51.62000 162.404
51.79000 161.388
51.96000 161.448
52.13000 157.330
52.30000 156.625
52.47000 146.960
52.64000 156.727
52.81000 165.177
52.98000 153.307
53.15000 161.700
53.32000 160.556
53.49000 154.981
53.66000 147.352
53.83000 160.179
54.00000 156.897
54.17000 159.944
54.34000 156.247
54.51000 151.839
54.68000 148.355
54.85000 153.852
55.02000 148.865
55.19000 158.632
55.36000 159.667
55.53000 195.197
55.70000 288.462
55.87000 443.879
56.04000 455.313
56.21000 316.898
56.38000 207.083
56.55000 174.052
56.72000 154.705
56.89000 154.635
57.06000 147.626
57.23000 140.745
57.40000 144.811
57.57000 139.131
57.74000 139.308
57.91000 144.053
58.08000 142.337
58.25000 139.396
58.42000 132.237
58.59000 129.404
58.76000 126.005
58.93000 141.340
59.10000 129.006
59.27000 133.003
59.44000 126.374
59.61000 137.450
59.78000 133.225
59.95000 135.933
60.12000 124.556
60.29000 132.310
60.46000 121.577
60.63000 124.748
60.80000 128.764
60.97000 138.869
61.14000 130.676
61.31000 138.655
61.48000 145.360
61.65000 258.896
61.82000 208.673
61.99000 144.514
62.16000 129.154
62.33000 135.505
62.50000 141.694
62.67000 132.377
62.84000 140.530
63.01000 151.186
63.18000 146.510
63.35000 153.331
63.52000 145.742
63.69000 140.558
63.86000 153.567
64.03000 165.550
64.20000 151.697
64.37000 167.775
64.54000 159.929
64.71000 176.890
64.88000 171.272
65.05000 186.097
65.22000 221.484
65.39000 255.803
65.56000 287.722
65.73000 606.227
65.90000 1079.236
66.07000 379.964
66.24000 314.708
66.41000 433.609
66.58000 361.543
66.75000 322.300
66.92000 329.049
67.09000 372.444
67.26000 384.303
67.43000 398.644
67.60000 439.719
67.77000 461.664
67.94000 516.375
68.11000 570.632
68.28000 596.537
68.45000 733.200
68.62000 1044.469
68.79000 1886.253
68.96000 11189.547
69.13000 54784.355
69.30000 32552.465
69.47000 8137.533
69.64000 1258.340
69.81000 843.047
69.98000 680.800
70.00000 682.462