File: XRD/25-09-2025/XY Data/BTO_Mapping_Theta2Theta_25-09-2025_001_13_26-765_29-726.xy
20.00000 521.915
20.17000 546.701
20.34000 534.939
20.51000 549.416
20.68000 551.957
20.85000 547.800
21.02000 553.064
21.19000 525.121
21.36000 542.545
21.53000 535.053
21.70000 539.189
21.87000 586.617
22.04000 582.029
22.21000 591.389
22.38000 571.342
22.55000 528.210
22.72000 539.658
22.89000 510.653
23.06000 489.914
23.23000 498.433
23.40000 492.053
23.57000 477.977
23.74000 475.379
23.91000 478.629
24.08000 508.379
24.25000 486.971
24.42000 471.493
24.59000 469.296
24.76000 475.722
24.93000 474.730
25.10000 471.225
25.27000 465.327
25.44000 479.874
25.61000 462.335
25.78000 456.971
25.95000 445.380
26.12000 436.132
26.29000 427.891
26.46000 443.842
26.63000 444.100
26.80000 435.174
26.97000 450.097
27.14000 437.551
27.31000 428.248
27.48000 426.761
27.65000 434.312
27.82000 428.340
27.99000 425.530
28.16000 428.604
28.33000 418.709
28.50000 423.765
28.67000 426.051
28.84000 430.553
29.01000 424.171
29.18000 411.683
29.35000 407.637
29.52000 403.653
29.69000 399.690
29.86000 409.583
30.03000 394.830
30.20000 422.374
30.37000 406.256
30.54000 407.751
30.71000 405.227
30.88000 445.865
31.05000 499.535
31.22000 761.277
31.39000 1149.534
31.56000 906.560
31.73000 574.606
31.90000 443.653
32.07000 431.814
32.24000 382.848
32.41000 384.288
32.58000 366.288
32.75000 360.492
32.92000 387.135
33.09000 346.063
33.26000 338.223
33.43000 332.962
33.60000 325.095
33.77000 337.266
33.94000 324.255
34.11000 322.017
34.28000 318.562
34.45000 326.917
34.62000 326.478
34.79000 308.981
34.96000 310.971
35.13000 319.245
35.30000 306.002
35.47000 310.451
35.64000 306.102
35.81000 289.425
35.98000 299.972
36.15000 294.273
36.32000 298.650
36.49000 297.599
36.66000 300.790
36.83000 297.233
37.00000 283.060
37.17000 296.740
37.34000 291.311
37.51000 289.399
37.68000 283.691
37.85000 287.204
38.02000 279.636
38.19000 289.357
38.36000 304.559
38.53000 403.169
38.70000 596.839
38.87000 440.494
39.04000 316.734
39.21000 278.747
39.38000 274.768
39.55000 282.159
39.72000 268.033
39.89000 260.614
40.06000 249.033
40.23000 252.529
40.40000 234.408
40.57000 249.681
40.74000 257.911
40.91000 239.175
41.08000 247.712
41.25000 246.304
41.42000 255.638
41.59000 241.810
41.76000 227.578
41.93000 240.716
42.10000 217.903
42.27000 232.769
42.44000 226.756
42.61000 227.571
42.78000 229.490
42.95000 229.158
43.12000 240.337
43.29000 225.599
43.46000 232.728
43.63000 213.434
43.80000 222.757
43.97000 215.270
44.14000 219.661
44.31000 211.887
44.48000 225.648
44.65000 216.891
44.82000 222.864
44.99000 231.275
45.16000 249.758
45.33000 246.530
45.50000 247.429
45.67000 248.266
45.84000 223.941
46.01000 213.946
46.18000 200.375
46.35000 210.097
46.52000 203.261
46.69000 207.327
46.86000 194.726
47.03000 187.808
47.20000 190.511
47.37000 187.209
47.54000 180.083
47.71000 187.128
47.88000 181.662
48.05000 189.914
48.22000 184.479
48.39000 182.558
48.56000 169.928
48.73000 175.764
48.90000 188.675
49.07000 176.849
49.24000 179.824
49.41000 166.301
49.58000 191.808
49.75000 173.669
49.92000 177.628
50.09000 172.307
50.26000 168.536
50.43000 185.223
50.60000 178.106
50.77000 184.222
50.94000 167.137
51.11000 182.084
51.28000 185.792
51.45000 166.711
51.62000 167.439
51.79000 166.991
51.96000 164.371
52.13000 157.741
52.30000 153.123
52.47000 155.275
52.64000 162.013
52.81000 145.156
52.98000 147.817
53.15000 156.660
53.32000 150.067
53.49000 169.786
53.66000 154.303
53.83000 152.358
54.00000 159.575
54.17000 154.198
54.34000 153.642
54.51000 155.290
54.68000 152.772
54.85000 160.424
55.02000 145.269
55.19000 157.442
55.36000 168.746
55.53000 176.378
55.70000 220.032
55.87000 277.402
56.04000 283.839
56.21000 222.947
56.38000 189.331
56.55000 158.791
56.72000 148.734
56.89000 149.426
57.06000 144.773
57.23000 145.935
57.40000 146.324
57.57000 139.699
57.74000 148.185
57.91000 133.785
58.08000 144.492
58.25000 137.510
58.42000 139.502
58.59000 144.835
58.76000 124.396
58.93000 137.066
59.10000 137.374
59.27000 133.854
59.44000 134.056
59.61000 134.331
59.78000 129.563
59.95000 128.557
60.12000 135.409
60.29000 122.355
60.46000 130.320
60.63000 120.459
60.80000 126.299
60.97000 135.889
61.14000 134.673
61.31000 140.579
61.48000 140.642
61.65000 238.606
61.82000 207.734
61.99000 146.941
62.16000 138.124
62.33000 146.234
62.50000 143.460
62.67000 139.910
62.84000 150.231
63.01000 146.926
63.18000 142.443
63.35000 151.712
63.52000 138.580
63.69000 132.569
63.86000 163.173
64.03000 162.542
64.20000 170.658
64.37000 164.518
64.54000 176.020
64.71000 174.298
64.88000 179.945
65.05000 185.404
65.22000 215.511
65.39000 232.576
65.56000 274.321
65.73000 534.501
65.90000 1033.102
66.07000 385.112
66.24000 325.717
66.41000 445.887
66.58000 362.168
66.75000 323.629
66.92000 357.776
67.09000 375.467
67.26000 366.289
67.43000 408.963
67.60000 447.049
67.77000 488.146
67.94000 511.823
68.11000 554.112
68.28000 652.464
68.45000 722.915
68.62000 1004.699
68.79000 1781.397
68.96000 9637.420
69.13000 53995.012
69.30000 32860.801
69.47000 8789.678
69.64000 1289.101
69.81000 820.580
69.98000 671.707
70.00000 667.751