File: XRD/25-09-2025/XY Data/BTO_Mapping_Theta2Theta_25-09-2025_001_47_-2-091_-19-890.xy
20.00000 573.748
20.17000 563.131
20.34000 562.063
20.51000 576.276
20.68000 539.913
20.85000 548.945
21.02000 557.421
21.19000 531.479
21.36000 540.274
21.53000 523.831
21.70000 570.953
21.87000 609.217
22.04000 667.078
22.21000 671.143
22.38000 585.094
22.55000 568.605
22.72000 520.042
22.89000 512.340
23.06000 510.651
23.23000 481.062
23.40000 479.897
23.57000 495.277
23.74000 501.799
23.91000 484.584
24.08000 497.383
24.25000 469.524
24.42000 472.969
24.59000 476.793
24.76000 467.902
24.93000 494.419
25.10000 456.264
25.27000 457.537
25.44000 460.606
25.61000 468.803
25.78000 477.186
25.95000 468.796
26.12000 471.125
26.29000 440.419
26.46000 433.902
26.63000 455.211
26.80000 441.926
26.97000 440.704
27.14000 432.195
27.31000 430.138
27.48000 452.315
27.65000 449.085
27.82000 424.561
27.99000 405.880
28.16000 428.579
28.33000 425.453
28.50000 419.904
28.67000 425.883
28.84000 414.144
29.01000 403.824
29.18000 405.672
29.35000 378.951
29.52000 400.445
29.69000 399.530
29.86000 398.703
30.03000 417.261
30.20000 410.772
30.37000 401.980
30.54000 409.313
30.71000 401.921
30.88000 435.171
31.05000 607.395
31.22000 1280.818
31.39000 1959.376
31.56000 1312.559
31.73000 657.303
31.90000 452.164
32.07000 396.130
32.24000 367.583
32.41000 384.603
32.58000 371.096
32.75000 361.689
32.92000 387.391
33.09000 363.334
33.26000 332.466
33.43000 328.175
33.60000 333.165
33.77000 325.867
33.94000 328.572
34.11000 332.106
34.28000 324.878
34.45000 324.014
34.62000 324.447
34.79000 325.353
34.96000 313.525
35.13000 317.941
35.30000 299.236
35.47000 295.726
35.64000 317.816
35.81000 303.269
35.98000 285.367
36.15000 297.966
36.32000 290.114
36.49000 297.017
36.66000 284.073
36.83000 291.051
37.00000 279.720
37.17000 279.987
37.34000 275.091
37.51000 278.246
37.68000 291.650
37.85000 292.802
38.02000 285.985
38.19000 290.678
38.36000 332.726
38.53000 514.287
38.70000 732.263
38.87000 572.313
39.04000 345.871
39.21000 281.576
39.38000 263.733
39.55000 277.058
39.72000 259.733
39.89000 270.913
40.06000 254.463
40.23000 259.716
40.40000 239.918
40.57000 242.768
40.74000 243.984
40.91000 235.360
41.08000 243.978
41.25000 243.517
41.42000 239.808
41.59000 227.296
41.76000 229.780
41.93000 224.390
42.10000 242.007
42.27000 240.051
42.44000 241.511
42.61000 229.445
42.78000 225.607
42.95000 223.835
43.12000 235.694
43.29000 243.844
43.46000 222.223
43.63000 221.721
43.80000 216.299
43.97000 220.211
44.14000 221.538
44.31000 220.858
44.48000 220.456
44.65000 228.848
44.82000 256.836
44.99000 303.082
45.16000 319.303
45.33000 288.847
45.50000 270.746
45.67000 243.169
45.84000 242.924
46.01000 217.280
46.18000 209.723
46.35000 199.711
46.52000 196.073
46.69000 204.685
46.86000 186.575
47.03000 203.304
47.20000 200.315
47.37000 193.644
47.54000 185.021
47.71000 193.107
47.88000 182.209
48.05000 173.403
48.22000 167.592
48.39000 189.714
48.56000 174.908
48.73000 173.338
48.90000 167.462
49.07000 181.573
49.24000 167.148
49.41000 165.267
49.58000 181.826
49.75000 170.732
49.92000 171.057
50.09000 171.951
50.26000 174.999
50.43000 194.227
50.60000 210.582
50.77000 217.830
50.94000 195.745
51.11000 183.060
51.28000 173.753
51.45000 167.774
51.62000 165.324
51.79000 164.545
51.96000 157.630
52.13000 177.773
52.30000 153.486
52.47000 158.396
52.64000 155.063
52.81000 155.234
52.98000 151.344
53.15000 158.177
53.32000 160.591
53.49000 157.334
53.66000 142.718
53.83000 138.056
54.00000 156.552
54.17000 156.402
54.34000 143.678
54.51000 158.564
54.68000 146.966
54.85000 154.687
55.02000 154.218
55.19000 162.827
55.36000 164.770
55.53000 215.980
55.70000 301.021
55.87000 434.798
56.04000 403.705
56.21000 282.992
56.38000 206.236
56.55000 163.781
56.72000 159.936
56.89000 143.933
57.06000 134.992
57.23000 134.376
57.40000 149.041
57.57000 133.962
57.74000 136.036
57.91000 146.041
58.08000 135.623
58.25000 138.607
58.42000 143.809
58.59000 131.329
58.76000 138.895
58.93000 133.722
59.10000 127.357
59.27000 129.180
59.44000 136.185
59.61000 125.540
59.78000 127.104
59.95000 136.176
60.12000 122.448
60.29000 125.866
60.46000 130.002
60.63000 130.034
60.80000 128.464
60.97000 134.164
61.14000 143.067
61.31000 135.173
61.48000 144.186
61.65000 263.997
61.82000 194.338
61.99000 140.362
62.16000 141.597
62.33000 144.138
62.50000 138.889
62.67000 145.542
62.84000 147.146
63.01000 139.304
63.18000 149.384
63.35000 143.843
63.52000 148.097
63.69000 159.411
63.86000 162.135
64.03000 155.726
64.20000 160.910
64.37000 159.923
64.54000 178.125
64.71000 178.118
64.88000 172.689
65.05000 193.295
65.22000 245.656
65.39000 264.661
65.56000 328.519
65.73000 640.545
65.90000 1121.794
66.07000 406.986
66.24000 337.776
66.41000 464.597
66.58000 350.406
66.75000 329.286
66.92000 368.904
67.09000 376.719
67.26000 379.781
67.43000 416.297
67.60000 457.214
67.77000 480.116
67.94000 536.511
68.11000 526.378
68.28000 608.925
68.45000 766.786
68.62000 1077.503
68.79000 1986.984
68.96000 12615.598
69.13000 58262.125
69.30000 34429.543
69.47000 8362.472
69.64000 1267.107
69.81000 865.464
69.98000 708.900
70.00000 671.237