File: XRD/25-09-2025/XY Data/BTO_Mapping_Theta2Theta_25-09-2025_001_01_0-000_0-000.xy
20.00000 557.566
20.17000 574.730
20.34000 554.377
20.51000 557.343
20.68000 550.392
20.85000 540.512
21.02000 529.553
21.19000 546.553
21.36000 550.831
21.53000 544.003
21.70000 550.478
21.87000 572.998
22.04000 617.563
22.21000 619.764
22.38000 582.048
22.55000 545.277
22.72000 502.754
22.89000 495.717
23.06000 500.589
23.23000 494.158
23.40000 511.610
23.57000 514.232
23.74000 480.348
23.91000 495.619
24.08000 487.772
24.25000 475.956
24.42000 478.567
24.59000 477.627
24.76000 469.919
24.93000 461.834
25.10000 471.789
25.27000 471.131
25.44000 471.936
25.61000 477.431
25.78000 442.860
25.95000 453.257
26.12000 449.864
26.29000 429.192
26.46000 450.164
26.63000 439.696
26.80000 444.671
26.97000 436.497
27.14000 432.558
27.31000 421.716
27.48000 426.363
27.65000 418.611
27.82000 413.628
27.99000 425.686
28.16000 425.687
28.33000 425.339
28.50000 413.062
28.67000 403.277
28.84000 417.142
29.01000 403.307
29.18000 398.409
29.35000 413.813
29.52000 392.620
29.69000 399.267
29.86000 389.659
30.03000 425.525
30.20000 408.310
30.37000 403.885
30.54000 403.326
30.71000 411.336
30.88000 434.634
31.05000 523.497
31.22000 1029.774
31.39000 1567.296
31.56000 1068.292
31.73000 582.689
31.90000 424.036
32.07000 403.436
32.24000 369.995
32.41000 373.718
32.58000 362.180
32.75000 349.505
32.92000 360.010
33.09000 343.673
33.26000 344.254
33.43000 337.558
33.60000 324.579
33.77000 316.636
33.94000 322.112
34.11000 321.584
34.28000 311.888
34.45000 334.883
34.62000 310.869
34.79000 313.430
34.96000 321.723
35.13000 320.452
35.30000 303.737
35.47000 320.693
35.64000 302.684
35.81000 306.084
35.98000 302.673
36.15000 287.065
36.32000 284.404
36.49000 295.095
36.66000 288.768
36.83000 278.185
37.00000 294.978
37.17000 292.741
37.34000 290.615
37.51000 287.559
37.68000 292.663
37.85000 286.653
38.02000 289.452
38.19000 301.968
38.36000 328.563
38.53000 519.443
38.70000 772.392
38.87000 629.332
39.04000 358.806
39.21000 273.364
39.38000 265.553
39.55000 264.800
39.72000 253.461
39.89000 257.776
40.06000 256.783
40.23000 257.186
40.40000 256.943
40.57000 259.203
40.74000 245.982
40.91000 239.951
41.08000 236.659
41.25000 237.107
41.42000 245.753
41.59000 234.098
41.76000 241.475
41.93000 246.282
42.10000 232.462
42.27000 230.956
42.44000 234.564
42.61000 235.744
42.78000 226.652
42.95000 219.717
43.12000 229.058
43.29000 220.282
43.46000 218.763
43.63000 221.275
43.80000 213.907
43.97000 225.760
44.14000 222.643
44.31000 232.539
44.48000 224.300
44.65000 249.144
44.82000 235.942
44.99000 255.919
45.16000 291.615
45.33000 267.184
45.50000 262.721
45.67000 257.018
45.84000 233.456
46.01000 219.650
46.18000 207.070
46.35000 190.019
46.52000 197.333
46.69000 199.896
46.86000 194.391
47.03000 196.614
47.20000 191.422
47.37000 191.859
47.54000 176.330
47.71000 175.730
47.88000 183.592
48.05000 187.307
48.22000 187.843
48.39000 186.264
48.56000 172.064
48.73000 188.324
48.90000 177.652
49.07000 172.948
49.24000 172.970
49.41000 183.918
49.58000 171.508
49.75000 173.882
49.92000 176.549
50.09000 176.019
50.26000 175.474
50.43000 186.360
50.60000 193.192
50.77000 199.338
50.94000 197.200
51.11000 166.232
51.28000 168.542
51.45000 175.185
51.62000 160.568
51.79000 162.606
51.96000 158.904
52.13000 170.621
52.30000 155.409
52.47000 149.771
52.64000 172.024
52.81000 153.681
52.98000 152.018
53.15000 151.311
53.32000 156.086
53.49000 172.751
53.66000 147.458
53.83000 156.134
54.00000 155.383
54.17000 142.462
54.34000 153.700
54.51000 170.435
54.68000 144.539
54.85000 150.826
55.02000 149.795
55.19000 147.651
55.36000 171.975
55.53000 193.754
55.70000 289.811
55.87000 443.160
56.04000 448.957
56.21000 324.841
56.38000 222.557
56.55000 165.405
56.72000 156.732
56.89000 148.228
57.06000 137.762
57.23000 148.171
57.40000 135.517
57.57000 132.386
57.74000 152.284
57.91000 143.529
58.08000 136.595
58.25000 131.965
58.42000 143.522
58.59000 135.830
58.76000 127.667
58.93000 137.850
59.10000 125.565
59.27000 146.928
59.44000 134.104
59.61000 128.658
59.78000 139.136
59.95000 137.768
60.12000 131.386
60.29000 127.201
60.46000 132.223
60.63000 129.572
60.80000 119.882
60.97000 132.935
61.14000 137.654
61.31000 136.509
61.48000 136.945
61.65000 249.690
61.82000 206.799
61.99000 132.150
62.16000 143.269
62.33000 145.071
62.50000 138.367
62.67000 137.922
62.84000 136.717
63.01000 140.201
63.18000 154.060
63.35000 143.770
63.52000 141.945
63.69000 146.644
63.86000 155.542
64.03000 153.255
64.20000 164.962
64.37000 160.955
64.54000 168.952
64.71000 172.867
64.88000 170.404
65.05000 186.973
65.22000 206.104
65.39000 249.019
65.56000 284.452
65.73000 602.068
65.90000 1055.632
66.07000 375.082
66.24000 314.091
66.41000 449.187
66.58000 337.498
66.75000 319.510
66.92000 341.222
67.09000 346.384
67.26000 371.692
67.43000 406.005
67.60000 434.070
67.77000 478.024
67.94000 515.226
68.11000 537.110
68.28000 610.993
68.45000 734.011
68.62000 1039.605
68.79000 1940.481
68.96000 12380.130
69.13000 55535.309
69.30000 32624.297
69.47000 7691.242
69.64000 1300.287
69.81000 799.213
69.98000 667.541
70.00000 660.988