File: XRD/25-09-2025/XY Data/BTO_Mapping_Theta2Theta_25-09-2025_001_33_-39-126_8-316.xy
20.00000 570.853
20.17000 561.068
20.34000 589.885
20.51000 565.757
20.68000 553.079
20.85000 557.634
21.02000 553.863
21.19000 554.034
21.36000 544.760
21.53000 525.937
21.70000 613.847
21.87000 789.785
22.04000 911.734
22.21000 707.205
22.38000 600.727
22.55000 554.830
22.72000 542.329
22.89000 500.304
23.06000 511.957
23.23000 508.305
23.40000 494.812
23.57000 519.504
23.74000 482.422
23.91000 491.359
24.08000 487.499
24.25000 498.394
24.42000 488.456
24.59000 467.654
24.76000 484.122
24.93000 497.942
25.10000 454.118
25.27000 467.828
25.44000 469.763
25.61000 456.519
25.78000 467.898
25.95000 454.310
26.12000 470.883
26.29000 437.342
26.46000 453.089
26.63000 452.446
26.80000 442.920
26.97000 447.080
27.14000 434.759
27.31000 433.407
27.48000 453.712
27.65000 430.281
27.82000 439.413
27.99000 451.452
28.16000 430.950
28.33000 429.351
28.50000 401.386
28.67000 411.686
28.84000 417.317
29.01000 420.614
29.18000 413.012
29.35000 399.484
29.52000 418.956
29.69000 422.695
29.86000 437.872
30.03000 441.957
30.20000 438.642
30.37000 408.741
30.54000 416.321
30.71000 443.316
30.88000 502.210
31.05000 847.725
31.22000 2180.539
31.39000 3016.243
31.56000 1656.020
31.73000 774.693
31.90000 508.201
32.07000 425.429
32.24000 400.947
32.41000 365.419
32.58000 365.222
32.75000 361.064
32.92000 402.640
33.09000 376.953
33.26000 347.883
33.43000 337.758
33.60000 340.879
33.77000 347.542
33.94000 339.439
34.11000 335.546
34.28000 327.285
34.45000 324.669
34.62000 313.119
34.79000 326.126
34.96000 311.056
35.13000 320.836
35.30000 309.960
35.47000 302.640
35.64000 306.172
35.81000 319.015
35.98000 298.107
36.15000 296.921
36.32000 304.605
36.49000 301.693
36.66000 293.639
36.83000 301.517
37.00000 285.544
37.17000 290.067
37.34000 296.547
37.51000 276.475
37.68000 287.885
37.85000 290.043
38.02000 283.135
38.19000 312.969
38.36000 320.727
38.53000 450.675
38.70000 492.874
38.87000 361.136
39.04000 298.121
39.21000 280.177
39.38000 269.072
39.55000 255.305
39.72000 274.302
39.89000 261.825
40.06000 260.429
40.23000 252.620
40.40000 235.487
40.57000 249.478
40.74000 238.767
40.91000 252.512
41.08000 234.246
41.25000 245.171
41.42000 238.344
41.59000 236.900
41.76000 233.771
41.93000 234.350
42.10000 233.196
42.27000 235.829
42.44000 227.510
42.61000 229.062
42.78000 232.397
42.95000 235.452
43.12000 241.150
43.29000 213.937
43.46000 220.891
43.63000 224.313
43.80000 228.299
43.97000 238.393
44.14000 221.675
44.31000 230.357
44.48000 247.033
44.65000 319.060
44.82000 422.572
44.99000 476.914
45.16000 420.218
45.33000 308.630
45.50000 295.103
45.67000 245.001
45.84000 232.839
46.01000 218.211
46.18000 216.339
46.35000 211.684
46.52000 201.819
46.69000 210.897
46.86000 196.702
47.03000 200.942
47.20000 198.903
47.37000 179.374
47.54000 187.847
47.71000 188.647
47.88000 198.814
48.05000 190.332
48.22000 188.276
48.39000 178.530
48.56000 193.232
48.73000 177.523
48.90000 182.221
49.07000 174.960
49.24000 184.093
49.41000 182.907
49.58000 171.071
49.75000 172.478
49.92000 174.691
50.09000 175.561
50.26000 187.794
50.43000 218.243
50.60000 244.027
50.77000 232.069
50.94000 199.028
51.11000 198.319
51.28000 186.594
51.45000 180.644
51.62000 163.018
51.79000 164.964
51.96000 161.592
52.13000 160.479
52.30000 163.716
52.47000 155.759
52.64000 163.056
52.81000 162.916
52.98000 164.441
53.15000 161.786
53.32000 158.351
53.49000 163.967
53.66000 142.760
53.83000 147.231
54.00000 147.035
54.17000 147.478
54.34000 154.301
54.51000 154.937
54.68000 149.615
54.85000 156.798
55.02000 157.019
55.19000 154.716
55.36000 184.816
55.53000 225.882
55.70000 319.403
55.87000 374.284
56.04000 351.631
56.21000 250.485
56.38000 201.824
56.55000 167.427
56.72000 152.128
56.89000 144.369
57.06000 140.169
57.23000 148.442
57.40000 138.421
57.57000 140.314
57.74000 151.659
57.91000 158.979
58.08000 142.470
58.25000 136.219
58.42000 130.030
58.59000 133.938
58.76000 133.541
58.93000 141.184
59.10000 141.456
59.27000 146.385
59.44000 135.668
59.61000 135.035
59.78000 118.847
59.95000 138.686
60.12000 140.665
60.29000 128.770
60.46000 136.541
60.63000 140.667
60.80000 132.061
60.97000 133.657
61.14000 132.043
61.31000 150.835
61.48000 145.183
61.65000 356.016
61.82000 244.125
61.99000 152.196
62.16000 156.707
62.33000 152.253
62.50000 138.091
62.67000 143.908
62.84000 147.867
63.01000 148.235
63.18000 148.159
63.35000 147.021
63.52000 152.598
63.69000 155.297
63.86000 152.531
64.03000 161.418
64.20000 174.883
64.37000 183.977
64.54000 181.586
64.71000 181.527
64.88000 204.917
65.05000 229.182
65.22000 284.639
65.39000 366.997
65.56000 431.416
65.73000 967.369
65.90000 1633.690
66.07000 493.993
66.24000 400.597
66.41000 612.697
66.58000 427.148
66.75000 387.966
66.92000 418.519
67.09000 438.288
67.26000 458.051
67.43000 500.212
67.60000 543.883
67.77000 573.266
67.94000 646.797
68.11000 678.601
68.28000 776.399
68.45000 918.654
68.62000 1414.024
68.79000 2868.766
68.96000 22928.908
69.13000 91507.047
69.30000 52182.973
69.47000 11698.942
69.64000 1645.384
69.81000 1064.868
69.98000 797.485
70.00000 802.231