File: XRD/25-09-2025/XY Data/BTO_Mapping_Theta2Theta_25-09-2025_001_27_-16-180_11-756.xy
20.00000 563.708
20.17000 539.957
20.34000 578.621
20.51000 549.810
20.68000 543.118
20.85000 536.049
21.02000 542.915
21.19000 544.548
21.36000 522.723
21.53000 514.135
21.70000 574.168
21.87000 630.030
22.04000 697.725
22.21000 659.462
22.38000 615.258
22.55000 563.247
22.72000 520.584
22.89000 501.023
23.06000 525.830
23.23000 499.701
23.40000 499.230
23.57000 505.701
23.74000 513.174
23.91000 485.543
24.08000 477.536
24.25000 496.048
24.42000 499.952
24.59000 480.084
24.76000 481.078
24.93000 483.816
25.10000 471.082
25.27000 472.041
25.44000 465.214
25.61000 464.073
25.78000 466.428
25.95000 459.106
26.12000 454.201
26.29000 443.746
26.46000 458.372
26.63000 443.269
26.80000 439.293
26.97000 443.248
27.14000 418.939
27.31000 408.260
27.48000 424.055
27.65000 409.898
27.82000 432.050
27.99000 406.078
28.16000 423.531
28.33000 424.014
28.50000 424.679
28.67000 420.438
28.84000 422.684
29.01000 412.239
29.18000 427.193
29.35000 415.367
29.52000 400.944
29.69000 396.563
29.86000 413.691
30.03000 436.368
30.20000 411.349
30.37000 409.176
30.54000 408.724
30.71000 413.864
30.88000 430.916
31.05000 611.238
31.22000 1373.467
31.39000 2013.727
31.56000 1334.905
31.73000 657.796
31.90000 451.462
32.07000 402.389
32.24000 382.630
32.41000 382.765
32.58000 379.384
32.75000 371.164
32.92000 367.386
33.09000 363.969
33.26000 341.339
33.43000 338.920
33.60000 315.410
33.77000 330.054
33.94000 330.507
34.11000 330.617
34.28000 321.087
34.45000 312.322
34.62000 322.089
34.79000 311.139
34.96000 316.932
35.13000 315.451
35.30000 307.678
35.47000 294.704
35.64000 327.246
35.81000 320.977
35.98000 284.021
36.15000 308.682
36.32000 297.459
36.49000 314.606
36.66000 300.867
36.83000 287.877
37.00000 292.958
37.17000 295.611
37.34000 306.319
37.51000 282.537
37.68000 295.925
37.85000 281.800
38.02000 282.317
38.19000 302.466
38.36000 327.103
38.53000 487.063
38.70000 708.336
38.87000 544.972
39.04000 330.137
39.21000 286.725
39.38000 274.181
39.55000 273.285
39.72000 255.793
39.89000 261.253
40.06000 253.003
40.23000 261.088
40.40000 251.369
40.57000 247.881
40.74000 254.904
40.91000 250.406
41.08000 239.269
41.25000 246.188
41.42000 239.717
41.59000 239.856
41.76000 226.759
41.93000 244.446
42.10000 229.402
42.27000 213.750
42.44000 227.941
42.61000 236.674
42.78000 223.380
42.95000 226.980
43.12000 215.855
43.29000 218.737
43.46000 217.028
43.63000 219.064
43.80000 207.227
43.97000 227.950
44.14000 209.678
44.31000 220.323
44.48000 206.398
44.65000 229.057
44.82000 271.479
44.99000 318.789
45.16000 306.730
45.33000 307.867
45.50000 269.222
45.67000 256.973
45.84000 238.249
46.01000 216.282
46.18000 219.157
46.35000 200.707
46.52000 201.098
46.69000 204.252
46.86000 189.828
47.03000 183.123
47.20000 186.799
47.37000 188.699
47.54000 186.879
47.71000 184.966
47.88000 190.427
48.05000 185.796
48.22000 175.126
48.39000 182.419
48.56000 181.489
48.73000 178.315
48.90000 171.360
49.07000 177.683
49.24000 177.556
49.41000 185.846
49.58000 180.462
49.75000 180.013
49.92000 179.799
50.09000 185.465
50.26000 166.582
50.43000 196.429
50.60000 218.679
50.77000 223.310
50.94000 209.899
51.11000 187.645
51.28000 165.537
51.45000 160.423
51.62000 161.837
51.79000 158.528
51.96000 170.676
52.13000 155.655
52.30000 160.271
52.47000 156.723
52.64000 169.713
52.81000 145.148
52.98000 152.612
53.15000 155.348
53.32000 160.044
53.49000 164.432
53.66000 153.453
53.83000 161.269
54.00000 160.387
54.17000 149.653
54.34000 152.195
54.51000 159.942
54.68000 137.905
54.85000 152.515
55.02000 152.416
55.19000 163.955
55.36000 167.369
55.53000 199.810
55.70000 298.323
55.87000 402.513
56.04000 385.408
56.21000 282.160
56.38000 215.155
56.55000 155.180
56.72000 160.551
56.89000 148.231
57.06000 145.136
57.23000 149.938
57.40000 151.911
57.57000 141.065
57.74000 137.982
57.91000 136.406
58.08000 139.717
58.25000 135.280
58.42000 137.896
58.59000 137.322
58.76000 126.790
58.93000 130.740
59.10000 138.525
59.27000 135.382
59.44000 131.817
59.61000 135.487
59.78000 130.006
59.95000 124.867
60.12000 130.219
60.29000 126.934
60.46000 135.656
60.63000 127.656
60.80000 126.821
60.97000 126.903
61.14000 136.148
61.31000 133.207
61.48000 155.425
61.65000 262.841
61.82000 191.398
61.99000 141.547
62.16000 134.223
62.33000 130.423
62.50000 134.100
62.67000 146.608
62.84000 148.525
63.01000 143.354
63.18000 148.189
63.35000 145.106
63.52000 147.531
63.69000 141.655
63.86000 147.268
64.03000 145.294
64.20000 156.061
64.37000 161.056
64.54000 156.655
64.71000 186.450
64.88000 188.360
65.05000 210.677
65.22000 240.229
65.39000 264.759
65.56000 321.954
65.73000 693.452
65.90000 1185.017
66.07000 403.206
66.24000 345.327
66.41000 481.874
66.58000 352.416
66.75000 332.668
66.92000 339.129
67.09000 369.013
67.26000 384.908
67.43000 428.072
67.60000 456.221
67.77000 504.915
67.94000 543.245
68.11000 633.823
68.28000 638.592
68.45000 753.449
68.62000 1126.311
68.79000 2155.259
68.96000 14905.036
69.13000 60952.688
69.30000 34914.086
69.47000 7940.973
69.64000 1259.978
69.81000 853.191
69.98000 683.993
70.00000 671.825