File: XRD/25-09-2025/XY Data/BTO_Mapping_Theta2Theta_25-09-2025_001_52_9-271_-28-532.xy
20.00000 553.720
20.17000 570.919
20.34000 548.723
20.51000 526.891
20.68000 548.982
20.85000 555.653
21.02000 533.662
21.19000 529.305
21.36000 550.540
21.53000 524.260
21.70000 538.650
21.87000 560.728
22.04000 630.887
22.21000 610.938
22.38000 581.184
22.55000 549.198
22.72000 521.341
22.89000 509.065
23.06000 482.931
23.23000 514.137
23.40000 487.966
23.57000 493.869
23.74000 494.714
23.91000 475.314
24.08000 488.322
24.25000 463.690
24.42000 486.480
24.59000 482.400
24.76000 475.067
24.93000 461.373
25.10000 468.492
25.27000 476.815
25.44000 464.055
25.61000 461.158
25.78000 469.538
25.95000 450.354
26.12000 452.207
26.29000 453.023
26.46000 457.996
26.63000 444.678
26.80000 436.663
26.97000 425.932
27.14000 428.343
27.31000 439.109
27.48000 422.718
27.65000 419.055
27.82000 410.891
27.99000 424.341
28.16000 411.670
28.33000 428.035
28.50000 409.870
28.67000 415.448
28.84000 412.121
29.01000 402.472
29.18000 376.643
29.35000 400.253
29.52000 397.027
29.69000 399.961
29.86000 414.882
30.03000 407.627
30.20000 403.327
30.37000 399.384
30.54000 415.065
30.71000 398.942
30.88000 415.476
31.05000 514.421
31.22000 964.870
31.39000 1468.190
31.56000 1047.761
31.73000 559.673
31.90000 439.343
32.07000 407.703
32.24000 392.306
32.41000 385.266
32.58000 374.261
32.75000 343.223
32.92000 361.994
33.09000 357.471
33.26000 338.422
33.43000 338.920
33.60000 336.074
33.77000 329.159
33.94000 324.312
34.11000 341.896
34.28000 310.923
34.45000 308.352
34.62000 310.317
34.79000 323.236
34.96000 305.844
35.13000 313.622
35.30000 306.100
35.47000 315.141
35.64000 291.495
35.81000 298.578
35.98000 291.223
36.15000 289.385
36.32000 307.451
36.49000 296.295
36.66000 294.123
36.83000 295.177
37.00000 290.756
37.17000 282.739
37.34000 284.613
37.51000 289.515
37.68000 293.978
37.85000 288.556
38.02000 287.570
38.19000 302.693
38.36000 316.526
38.53000 482.337
38.70000 821.461
38.87000 657.171
39.04000 371.451
39.21000 295.229
39.38000 280.725
39.55000 269.976
39.72000 263.789
39.89000 259.124
40.06000 274.803
40.23000 237.910
40.40000 261.256
40.57000 249.247
40.74000 250.643
40.91000 249.469
41.08000 232.518
41.25000 240.925
41.42000 246.037
41.59000 226.057
41.76000 226.773
41.93000 242.231
42.10000 222.658
42.27000 223.640
42.44000 238.093
42.61000 233.875
42.78000 231.545
42.95000 210.539
43.12000 225.611
43.29000 229.551
43.46000 220.881
43.63000 214.642
43.80000 208.069
43.97000 221.592
44.14000 207.334
44.31000 223.019
44.48000 216.776
44.65000 242.281
44.82000 246.673
44.99000 254.199
45.16000 268.206
45.33000 266.076
45.50000 245.358
45.67000 243.021
45.84000 235.035
46.01000 216.494
46.18000 199.011
46.35000 202.342
46.52000 191.680
46.69000 196.797
46.86000 204.203
47.03000 190.967
47.20000 186.043
47.37000 188.354
47.54000 189.076
47.71000 185.878
47.88000 195.885
48.05000 180.812
48.22000 173.381
48.39000 177.841
48.56000 175.815
48.73000 189.427
48.90000 179.487
49.07000 174.467
49.24000 176.781
49.41000 153.952
49.58000 183.582
49.75000 166.138
49.92000 159.884
50.09000 169.919
50.26000 185.391
50.43000 183.247
50.60000 198.023
50.77000 205.706
50.94000 198.450
51.11000 174.254
51.28000 167.670
51.45000 160.211
51.62000 146.411
51.79000 165.742
51.96000 163.103
52.13000 155.083
52.30000 147.363
52.47000 159.187
52.64000 156.138
52.81000 152.872
52.98000 161.607
53.15000 162.675
53.32000 157.248
53.49000 150.620
53.66000 154.790
53.83000 154.908
54.00000 153.621
54.17000 158.026
54.34000 141.605
54.51000 145.069
54.68000 161.176
54.85000 159.484
55.02000 145.303
55.19000 151.435
55.36000 158.288
55.53000 191.259
55.70000 290.341
55.87000 448.364
56.04000 448.158
56.21000 321.899
56.38000 220.250
56.55000 171.803
56.72000 151.304
56.89000 149.366
57.06000 148.162
57.23000 143.713
57.40000 130.870
57.57000 133.867
57.74000 137.382
57.91000 137.227
58.08000 143.172
58.25000 136.735
58.42000 130.235
58.59000 139.658
58.76000 131.967
58.93000 129.291
59.10000 134.607
59.27000 132.333
59.44000 138.158
59.61000 137.692
59.78000 140.313
59.95000 141.130
60.12000 127.824
60.29000 134.014
60.46000 127.943
60.63000 126.549
60.80000 127.299
60.97000 135.237
61.14000 130.071
61.31000 138.730
61.48000 149.144
61.65000 258.249
61.82000 187.598
61.99000 141.087
62.16000 153.439
62.33000 150.678
62.50000 144.932
62.67000 149.492
62.84000 140.464
63.01000 144.428
63.18000 146.650
63.35000 139.433
63.52000 147.142
63.69000 155.801
63.86000 149.139
64.03000 150.674
64.20000 165.325
64.37000 154.854
64.54000 151.069
64.71000 172.517
64.88000 181.087
65.05000 197.734
65.22000 210.130
65.39000 241.029
65.56000 289.894
65.73000 558.329
65.90000 1085.036
66.07000 394.711
66.24000 302.915
66.41000 450.609
66.58000 349.395
66.75000 316.390
66.92000 351.383
67.09000 365.620
67.26000 384.520
67.43000 412.065
67.60000 444.327
67.77000 470.064
67.94000 512.804
68.11000 563.505
68.28000 627.126
68.45000 754.202
68.62000 1008.367
68.79000 1847.354
68.96000 10922.531
69.13000 54526.492
69.30000 32803.984
69.47000 8295.790
69.64000 1261.220
69.81000 803.414
69.98000 682.748
70.00000 652.905