File: XRD/25-09-2025/XY Data/BTO_Mapping_Theta2Theta_25-09-2025_001_11_13-383_14-863.xy
20.00000 571.113
20.17000 544.718
20.34000 563.113
20.51000 544.465
20.68000 534.009
20.85000 530.441
21.02000 531.233
21.19000 538.373
21.36000 561.251
21.53000 529.025
21.70000 543.853
21.87000 561.785
22.04000 595.782
22.21000 601.353
22.38000 588.818
22.55000 549.905
22.72000 527.608
22.89000 489.572
23.06000 515.437
23.23000 488.771
23.40000 522.900
23.57000 510.158
23.74000 500.645
23.91000 472.965
24.08000 483.299
24.25000 481.673
24.42000 509.344
24.59000 494.668
24.76000 472.893
24.93000 501.019
25.10000 466.731
25.27000 480.527
25.44000 460.314
25.61000 474.490
25.78000 439.078
25.95000 429.373
26.12000 469.938
26.29000 458.578
26.46000 463.100
26.63000 453.771
26.80000 455.095
26.97000 439.070
27.14000 422.112
27.31000 417.766
27.48000 425.591
27.65000 413.218
27.82000 419.623
27.99000 423.841
28.16000 417.159
28.33000 405.214
28.50000 413.516
28.67000 409.688
28.84000 405.212
29.01000 411.322
29.18000 397.390
29.35000 398.148
29.52000 398.272
29.69000 394.953
29.86000 415.792
30.03000 407.780
30.20000 409.217
30.37000 388.506
30.54000 405.007
30.71000 405.288
30.88000 440.315
31.05000 477.009
31.22000 844.335
31.39000 1287.955
31.56000 1021.471
31.73000 615.266
31.90000 447.072
32.07000 413.212
32.24000 393.036
32.41000 381.976
32.58000 368.824
32.75000 352.005
32.92000 371.224
33.09000 360.272
33.26000 330.215
33.43000 326.255
33.60000 346.975
33.77000 332.572
33.94000 333.891
34.11000 326.628
34.28000 326.899
34.45000 328.866
34.62000 314.047
34.79000 312.476
34.96000 309.574
35.13000 322.171
35.30000 306.431
35.47000 314.719
35.64000 304.554
35.81000 311.079
35.98000 309.291
36.15000 291.937
36.32000 298.138
36.49000 303.046
36.66000 289.554
36.83000 295.996
37.00000 296.273
37.17000 287.561
37.34000 288.381
37.51000 287.199
37.68000 277.310
37.85000 275.646
38.02000 281.709
38.19000 283.587
38.36000 301.756
38.53000 416.488
38.70000 744.061
38.87000 586.421
39.04000 336.676
39.21000 281.243
39.38000 265.259
39.55000 263.572
39.72000 265.587
39.89000 258.221
40.06000 246.664
40.23000 255.733
40.40000 258.049
40.57000 249.815
40.74000 233.341
40.91000 233.085
41.08000 235.660
41.25000 245.648
41.42000 244.652
41.59000 220.542
41.76000 236.964
41.93000 242.160
42.10000 229.393
42.27000 245.059
42.44000 232.705
42.61000 225.899
42.78000 230.660
42.95000 220.385
43.12000 226.148
43.29000 222.090
43.46000 220.781
43.63000 219.612
43.80000 216.299
43.97000 217.300
44.14000 213.776
44.31000 224.599
44.48000 219.227
44.65000 195.734
44.82000 246.870
44.99000 256.652
45.16000 265.985
45.33000 258.951
45.50000 246.399
45.67000 244.177
45.84000 229.820
46.01000 223.148
46.18000 216.459
46.35000 199.681
46.52000 194.183
46.69000 196.337
46.86000 188.278
47.03000 197.800
47.20000 198.362
47.37000 190.297
47.54000 182.177
47.71000 184.688
47.88000 192.331
48.05000 189.451
48.22000 186.620
48.39000 188.922
48.56000 181.765
48.73000 176.532
48.90000 169.945
49.07000 183.202
49.24000 169.834
49.41000 177.766
49.58000 174.493
49.75000 162.053
49.92000 167.982
50.09000 168.006
50.26000 171.027
50.43000 174.672
50.60000 192.613
50.77000 189.643
50.94000 185.010
51.11000 171.267
51.28000 170.260
51.45000 170.577
51.62000 163.462
51.79000 158.753
51.96000 160.740
52.13000 155.192
52.30000 169.289
52.47000 152.196
52.64000 151.961
52.81000 166.737
52.98000 157.391
53.15000 155.496
53.32000 156.725
53.49000 152.452
53.66000 146.752
53.83000 151.405
54.00000 164.964
54.17000 148.610
54.34000 140.639
54.51000 143.401
54.68000 159.637
54.85000 149.697
55.02000 160.072
55.19000 149.401
55.36000 155.276
55.53000 171.089
55.70000 242.794
55.87000 374.866
56.04000 414.716
56.21000 290.306
56.38000 198.173
56.55000 165.761
56.72000 150.562
56.89000 139.950
57.06000 146.140
57.23000 137.676
57.40000 140.921
57.57000 133.642
57.74000 131.382
57.91000 136.809
58.08000 144.602
58.25000 142.317
58.42000 135.313
58.59000 137.525
58.76000 128.063
58.93000 144.537
59.10000 135.677
59.27000 128.953
59.44000 134.043
59.61000 127.619
59.78000 134.828
59.95000 130.294
60.12000 128.849
60.29000 142.836
60.46000 125.851
60.63000 126.678
60.80000 130.870
60.97000 131.248
61.14000 142.960
61.31000 139.051
61.48000 142.405
61.65000 261.858
61.82000 194.714
61.99000 130.720
62.16000 139.257
62.33000 146.725
62.50000 133.918
62.67000 140.782
62.84000 145.797
63.01000 138.597
63.18000 150.873
63.35000 152.121
63.52000 157.381
63.69000 151.565
63.86000 154.425
64.03000 143.007
64.20000 158.176
64.37000 160.815
64.54000 161.964
64.71000 177.502
64.88000 182.079
65.05000 182.782
65.22000 200.642
65.39000 244.227
65.56000 290.790
65.73000 563.393
65.90000 1065.524
66.07000 373.604
66.24000 323.411
66.41000 427.976
66.58000 370.548
66.75000 324.101
66.92000 323.298
67.09000 354.662
67.26000 376.804
67.43000 393.287
67.60000 438.552
67.77000 469.109
67.94000 536.000
68.11000 543.345
68.28000 636.187
68.45000 734.284
68.62000 995.729
68.79000 1855.913
68.96000 10534.244
69.13000 53393.855
69.30000 32060.734
69.47000 8144.825
69.64000 1249.972
69.81000 833.538
69.98000 663.740
70.00000 670.713