File: XRD/25-09-2025/XY Data/BTO_Mapping_Theta2Theta_25-09-2025_001_41_-32-361_-23-511.xy
20.00000 556.546
20.17000 556.908
20.34000 565.171
20.51000 547.947
20.68000 525.668
20.85000 548.673
21.02000 553.039
21.19000 544.906
21.36000 566.620
21.53000 538.394
21.70000 599.853
21.87000 816.190
22.04000 957.617
22.21000 723.628
22.38000 599.247
22.55000 563.706
22.72000 524.825
22.89000 496.119
23.06000 511.352
23.23000 502.797
23.40000 522.923
23.57000 503.774
23.74000 495.360
23.91000 498.750
24.08000 503.701
24.25000 496.954
24.42000 486.601
24.59000 489.362
24.76000 490.117
24.93000 468.180
25.10000 474.258
25.27000 473.242
25.44000 465.638
25.61000 450.813
25.78000 457.009
25.95000 453.463
26.12000 458.021
26.29000 452.757
26.46000 453.815
26.63000 436.679
26.80000 444.226
26.97000 463.397
27.14000 435.901
27.31000 455.647
27.48000 437.636
27.65000 433.175
27.82000 425.980
27.99000 438.168
28.16000 426.608
28.33000 405.469
28.50000 421.345
28.67000 423.120
28.84000 405.875
29.01000 426.458
29.18000 412.450
29.35000 421.800
29.52000 402.397
29.69000 420.213
29.86000 441.691
30.03000 430.089
30.20000 429.446
30.37000 429.732
30.54000 450.400
30.71000 434.112
30.88000 504.817
31.05000 915.517
31.22000 2740.070
31.39000 3017.663
31.56000 1320.540
31.73000 678.498
31.90000 470.759
32.07000 424.680
32.24000 376.891
32.41000 384.735
32.58000 391.563
32.75000 357.488
32.92000 390.852
33.09000 361.724
33.26000 344.053
33.43000 336.277
33.60000 346.399
33.77000 343.684
33.94000 326.168
34.11000 343.396
34.28000 328.292
34.45000 330.249
34.62000 339.067
34.79000 335.015
34.96000 325.316
35.13000 313.876
35.30000 330.823
35.47000 317.541
35.64000 309.421
35.81000 313.601
35.98000 289.284
36.15000 299.292
36.32000 288.368
36.49000 296.066
36.66000 289.812
36.83000 297.814
37.00000 288.046
37.17000 297.793
37.34000 282.521
37.51000 271.304
37.68000 285.659
37.85000 282.388
38.02000 300.031
38.19000 304.902
38.36000 340.979
38.53000 438.220
38.70000 464.198
38.87000 337.501
39.04000 296.533
39.21000 261.967
39.38000 274.621
39.55000 260.727
39.72000 271.726
39.89000 259.254
40.06000 257.544
40.23000 253.290
40.40000 244.456
40.57000 240.397
40.74000 253.468
40.91000 241.432
41.08000 241.272
41.25000 250.140
41.42000 246.364
41.59000 238.018
41.76000 247.582
41.93000 238.950
42.10000 237.351
42.27000 232.263
42.44000 237.408
42.61000 232.692
42.78000 234.656
42.95000 235.627
43.12000 223.464
43.29000 229.352
43.46000 229.588
43.63000 233.943
43.80000 226.262
43.97000 231.948
44.14000 228.999
44.31000 231.065
44.48000 271.719
44.65000 338.247
44.82000 510.219
44.99000 543.318
45.16000 408.624
45.33000 333.097
45.50000 291.632
45.67000 253.954
45.84000 235.857
46.01000 219.479
46.18000 214.587
46.35000 217.112
46.52000 194.270
46.69000 211.434
46.86000 190.750
47.03000 203.962
47.20000 187.642
47.37000 194.673
47.54000 181.411
47.71000 197.545
47.88000 206.375
48.05000 184.337
48.22000 172.216
48.39000 193.830
48.56000 185.574
48.73000 189.075
48.90000 183.298
49.07000 180.620
49.24000 166.747
49.41000 184.007
49.58000 174.717
49.75000 185.466
49.92000 174.497
50.09000 178.490
50.26000 198.098
50.43000 233.807
50.60000 234.500
50.77000 230.683
50.94000 196.368
51.11000 182.921
51.28000 174.420
51.45000 164.267
51.62000 160.023
51.79000 170.427
51.96000 157.370
52.13000 153.583
52.30000 160.360
52.47000 159.301
52.64000 165.656
52.81000 157.466
52.98000 158.717
53.15000 162.565
53.32000 158.685
53.49000 162.299
53.66000 156.498
53.83000 150.819
54.00000 152.335
54.17000 155.822
54.34000 152.507
54.51000 150.575
54.68000 151.052
54.85000 158.114
55.02000 156.425
55.19000 166.671
55.36000 176.924
55.53000 236.489
55.70000 344.850
55.87000 392.195
56.04000 318.860
56.21000 231.923
56.38000 195.635
56.55000 165.114
56.72000 156.517
56.89000 149.035
57.06000 144.483
57.23000 136.472
57.40000 142.462
57.57000 139.323
57.74000 135.982
57.91000 134.480
58.08000 147.175
58.25000 150.176
58.42000 142.726
58.59000 142.728
58.76000 143.953
58.93000 140.168
59.10000 136.119
59.27000 146.320
59.44000 130.155
59.61000 130.875
59.78000 131.727
59.95000 128.797
60.12000 131.598
60.29000 131.778
60.46000 129.716
60.63000 140.107
60.80000 130.069
60.97000 134.135
61.14000 142.085
61.31000 136.395
61.48000 165.487
61.65000 326.612
61.82000 231.725
61.99000 135.016
62.16000 146.380
62.33000 141.002
62.50000 146.635
62.67000 140.937
62.84000 147.283
63.01000 144.691
63.18000 156.382
63.35000 146.657
63.52000 163.827
63.69000 160.255
63.86000 149.714
64.03000 157.617
64.20000 167.978
64.37000 163.372
64.54000 169.861
64.71000 173.980
64.88000 207.084
65.05000 241.269
65.22000 317.201
65.39000 380.631
65.56000 387.740
65.73000 813.463
65.90000 1529.697
66.07000 480.956
66.24000 375.506
66.41000 556.268
66.58000 402.698
66.75000 369.952
66.92000 362.072
67.09000 399.201
67.26000 429.683
67.43000 474.687
67.60000 525.357
67.77000 550.079
67.94000 600.826
68.11000 667.751
68.28000 715.364
68.45000 865.776
68.62000 1317.092
68.79000 2491.738
68.96000 19172.365
69.13000 83221.664
69.30000 47993.813
69.47000 11248.563
69.64000 1557.309
69.81000 994.931
69.98000 769.534
70.00000 748.454