File: XRD/25-09-2025/XY Data/BTO_Mapping_Theta2Theta_25-09-2025_001_24_-15-000_25-981.xy
20.00000 547.943
20.17000 559.157
20.34000 564.902
20.51000 545.018
20.68000 539.521
20.85000 538.976
21.02000 545.883
21.19000 553.299
21.36000 541.281
21.53000 534.129
21.70000 556.901
21.87000 579.341
22.04000 659.044
22.21000 637.528
22.38000 602.695
22.55000 541.622
22.72000 531.225
22.89000 496.142
23.06000 499.768
23.23000 499.050
23.40000 497.508
23.57000 513.731
23.74000 497.930
23.91000 487.810
24.08000 484.326
24.25000 483.887
24.42000 471.712
24.59000 470.713
24.76000 466.446
24.93000 452.711
25.10000 454.099
25.27000 474.401
25.44000 475.845
25.61000 465.086
25.78000 434.265
25.95000 441.030
26.12000 451.777
26.29000 448.905
26.46000 460.622
26.63000 421.408
26.80000 442.385
26.97000 435.015
27.14000 444.562
27.31000 432.990
27.48000 431.255
27.65000 441.419
27.82000 410.671
27.99000 428.902
28.16000 422.468
28.33000 404.057
28.50000 405.880
28.67000 419.428
28.84000 404.543
29.01000 396.546
29.18000 421.737
29.35000 393.450
29.52000 419.367
29.69000 390.545
29.86000 411.496
30.03000 392.039
30.20000 405.972
30.37000 399.899
30.54000 395.079
30.71000 412.409
30.88000 420.225
31.05000 526.517
31.22000 1014.912
31.39000 1543.235
31.56000 1088.862
31.73000 567.090
31.90000 431.287
32.07000 390.315
32.24000 392.816
32.41000 356.764
32.58000 380.535
32.75000 362.874
32.92000 378.800
33.09000 344.920
33.26000 338.465
33.43000 329.940
33.60000 346.224
33.77000 323.957
33.94000 343.656
34.11000 328.760
34.28000 307.671
34.45000 323.060
34.62000 318.337
34.79000 301.470
34.96000 317.939
35.13000 307.827
35.30000 322.113
35.47000 275.475
35.64000 295.472
35.81000 292.842
35.98000 301.756
36.15000 298.224
36.32000 284.156
36.49000 278.139
36.66000 286.375
36.83000 294.308
37.00000 299.580
37.17000 287.153
37.34000 295.401
37.51000 278.344
37.68000 275.970
37.85000 289.920
38.02000 296.071
38.19000 285.666
38.36000 318.658
38.53000 493.777
38.70000 803.097
38.87000 615.294
39.04000 355.717
39.21000 277.839
39.38000 263.729
39.55000 255.732
39.72000 267.401
39.89000 253.211
40.06000 255.926
40.23000 251.160
40.40000 258.415
40.57000 241.904
40.74000 239.355
40.91000 228.970
41.08000 246.109
41.25000 242.427
41.42000 245.584
41.59000 237.360
41.76000 237.845
41.93000 235.568
42.10000 227.767
42.27000 228.868
42.44000 222.787
42.61000 223.526
42.78000 218.258
42.95000 225.452
43.12000 237.430
43.29000 221.612
43.46000 213.731
43.63000 228.573
43.80000 229.146
43.97000 216.618
44.14000 220.211
44.31000 217.906
44.48000 217.181
44.65000 227.652
44.82000 220.826
44.99000 273.408
45.16000 287.426
45.33000 280.884
45.50000 263.124
45.67000 249.889
45.84000 233.258
46.01000 212.289
46.18000 204.240
46.35000 202.664
46.52000 200.179
46.69000 195.415
46.86000 200.188
47.03000 187.794
47.20000 185.837
47.37000 191.278
47.54000 182.875
47.71000 180.267
47.88000 194.809
48.05000 170.781
48.22000 184.872
48.39000 175.734
48.56000 177.198
48.73000 177.926
48.90000 175.015
49.07000 164.020
49.24000 176.181
49.41000 178.760
49.58000 165.809
49.75000 165.355
49.92000 171.177
50.09000 174.408
50.26000 180.489
50.43000 192.091
50.60000 201.884
50.77000 215.033
50.94000 198.688
51.11000 176.392
51.28000 182.493
51.45000 164.736
51.62000 158.329
51.79000 165.823
51.96000 161.206
52.13000 165.881
52.30000 153.441
52.47000 159.963
52.64000 153.125
52.81000 159.693
52.98000 153.350
53.15000 173.070
53.32000 154.890
53.49000 161.159
53.66000 150.808
53.83000 148.030
54.00000 162.233
54.17000 156.041
54.34000 136.732
54.51000 157.601
54.68000 146.638
54.85000 143.203
55.02000 157.229
55.19000 159.507
55.36000 162.971
55.53000 205.062
55.70000 290.352
55.87000 400.130
56.04000 441.968
56.21000 298.219
56.38000 210.887
56.55000 174.318
56.72000 169.513
56.89000 142.035
57.06000 142.310
57.23000 137.554
57.40000 146.627
57.57000 138.507
57.74000 150.247
57.91000 137.953
58.08000 147.549
58.25000 136.695
58.42000 130.013
58.59000 128.464
58.76000 143.573
58.93000 129.458
59.10000 138.380
59.27000 136.494
59.44000 130.791
59.61000 126.964
59.78000 131.878
59.95000 132.274
60.12000 124.836
60.29000 130.890
60.46000 128.630
60.63000 137.731
60.80000 132.254
60.97000 121.891
61.14000 135.881
61.31000 137.039
61.48000 153.166
61.65000 262.130
61.82000 193.551
61.99000 141.808
62.16000 134.944
62.33000 144.273
62.50000 138.127
62.67000 154.847
62.84000 148.920
63.01000 139.945
63.18000 137.082
63.35000 150.659
63.52000 137.837
63.69000 148.889
63.86000 148.883
64.03000 170.573
64.20000 164.890
64.37000 150.311
64.54000 172.445
64.71000 176.670
64.88000 189.670
65.05000 199.757
65.22000 227.205
65.39000 247.521
65.56000 305.470
65.73000 663.111
65.90000 1097.005
66.07000 387.651
66.24000 331.888
66.41000 449.996
66.58000 351.606
66.75000 335.001
66.92000 327.893
67.09000 367.196
67.26000 402.435
67.43000 421.566
67.60000 430.744
67.77000 476.047
67.94000 541.781
68.11000 551.182
68.28000 643.523
68.45000 765.597
68.62000 1096.490
68.79000 2019.104
68.96000 14345.561
69.13000 56788.621
69.30000 32364.203
69.47000 7195.870
69.64000 1259.050
69.81000 877.308
69.98000 670.438
70.00000 664.358