File: XRD/25-09-2025/XY Data/BTO_Mapping_Theta2Theta_25-09-2025_001_14_3-090_9-511.xy
20.00000 574.552
20.17000 562.312
20.34000 554.512
20.51000 546.718
20.68000 550.035
20.85000 546.195
21.02000 535.666
21.19000 531.140
21.36000 546.471
21.53000 523.426
21.70000 566.573
21.87000 566.486
22.04000 617.811
22.21000 609.693
22.38000 585.467
22.55000 539.423
22.72000 526.820
22.89000 510.237
23.06000 494.175
23.23000 491.601
23.40000 485.525
23.57000 496.671
23.74000 496.159
23.91000 494.782
24.08000 501.297
24.25000 479.075
24.42000 463.620
24.59000 475.641
24.76000 482.358
24.93000 465.185
25.10000 485.241
25.27000 476.558
25.44000 468.298
25.61000 442.988
25.78000 465.042
25.95000 454.584
26.12000 439.618
26.29000 446.229
26.46000 441.259
26.63000 446.235
26.80000 449.927
26.97000 449.027
27.14000 429.732
27.31000 422.026
27.48000 434.593
27.65000 442.817
27.82000 421.739
27.99000 431.098
28.16000 415.807
28.33000 418.771
28.50000 405.110
28.67000 398.845
28.84000 412.376
29.01000 407.276
29.18000 388.437
29.35000 413.769
29.52000 396.374
29.69000 408.735
29.86000 401.308
30.03000 404.017
30.20000 408.286
30.37000 412.876
30.54000 397.040
30.71000 415.619
30.88000 432.296
31.05000 502.645
31.22000 910.649
31.39000 1393.070
31.56000 959.923
31.73000 561.149
31.90000 438.986
32.07000 402.764
32.24000 387.826
32.41000 383.922
32.58000 373.968
32.75000 351.284
32.92000 350.909
33.09000 342.073
33.26000 326.996
33.43000 334.197
33.60000 326.600
33.77000 343.458
33.94000 330.485
34.11000 308.325
34.28000 323.477
34.45000 325.578
34.62000 319.423
34.79000 311.103
34.96000 322.544
35.13000 317.538
35.30000 309.604
35.47000 308.600
35.64000 301.112
35.81000 293.146
35.98000 304.861
36.15000 307.377
36.32000 288.139
36.49000 280.103
36.66000 287.928
36.83000 305.357
37.00000 312.940
37.17000 297.694
37.34000 290.756
37.51000 276.645
37.68000 280.187
37.85000 273.918
38.02000 287.474
38.19000 297.254
38.36000 321.176
38.53000 473.083
38.70000 814.623
38.87000 655.233
39.04000 349.172
39.21000 274.426
39.38000 274.554
39.55000 270.717
39.72000 261.093
39.89000 268.667
40.06000 280.646
40.23000 248.811
40.40000 245.689
40.57000 249.129
40.74000 241.338
40.91000 235.726
41.08000 241.682
41.25000 240.538
41.42000 241.137
41.59000 243.996
41.76000 249.726
41.93000 238.270
42.10000 236.904
42.27000 238.920
42.44000 226.598
42.61000 227.886
42.78000 235.972
42.95000 223.324
43.12000 219.935
43.29000 207.285
43.46000 214.605
43.63000 216.683
43.80000 228.863
43.97000 217.221
44.14000 218.130
44.31000 219.928
44.48000 215.108
44.65000 210.191
44.82000 233.042
44.99000 252.296
45.16000 259.831
45.33000 248.106
45.50000 244.276
45.67000 244.200
45.84000 229.417
46.01000 207.503
46.18000 217.251
46.35000 201.723
46.52000 196.309
46.69000 187.781
46.86000 197.000
47.03000 196.663
47.20000 187.556
47.37000 191.595
47.54000 189.659
47.71000 176.952
47.88000 189.640
48.05000 180.375
48.22000 171.227
48.39000 185.620
48.56000 177.911
48.73000 184.051
48.90000 173.804
49.07000 169.535
49.24000 181.739
49.41000 162.602
49.58000 175.089
49.75000 167.555
49.92000 172.629
50.09000 176.181
50.26000 160.644
50.43000 185.241
50.60000 189.248
50.77000 194.157
50.94000 200.455
51.11000 169.769
51.28000 179.426
51.45000 159.566
51.62000 156.491
51.79000 153.487
51.96000 163.885
52.13000 158.616
52.30000 158.559
52.47000 156.039
52.64000 158.140
52.81000 158.881
52.98000 152.140
53.15000 149.694
53.32000 156.203
53.49000 153.354
53.66000 155.272
53.83000 159.072
54.00000 162.468
54.17000 157.581
54.34000 145.170
54.51000 144.872
54.68000 150.422
54.85000 150.904
55.02000 154.278
55.19000 149.909
55.36000 169.695
55.53000 183.845
55.70000 262.504
55.87000 423.328
56.04000 448.789
56.21000 314.963
56.38000 218.396
56.55000 161.790
56.72000 156.418
56.89000 153.529
57.06000 145.750
57.23000 140.704
57.40000 141.060
57.57000 154.403
57.74000 133.022
57.91000 133.345
58.08000 144.700
58.25000 121.328
58.42000 133.607
58.59000 134.559
58.76000 135.265
58.93000 116.773
59.10000 129.299
59.27000 124.702
59.44000 127.575
59.61000 129.991
59.78000 124.450
59.95000 128.120
60.12000 135.337
60.29000 122.885
60.46000 137.891
60.63000 129.836
60.80000 135.353
60.97000 130.831
61.14000 129.628
61.31000 128.450
61.48000 147.465
61.65000 255.248
61.82000 186.673
61.99000 144.339
62.16000 142.831
62.33000 135.658
62.50000 147.985
62.67000 143.616
62.84000 140.992
63.01000 149.012
63.18000 142.966
63.35000 142.852
63.52000 142.225
63.69000 142.880
63.86000 163.021
64.03000 158.643
64.20000 156.427
64.37000 161.265
64.54000 153.735
64.71000 161.950
64.88000 182.101
65.05000 185.205
65.22000 234.694
65.39000 241.440
65.56000 287.438
65.73000 591.208
65.90000 1049.267
66.07000 372.901
66.24000 322.042
66.41000 459.911
66.58000 345.781
66.75000 315.623
66.92000 355.231
67.09000 364.172
67.26000 396.943
67.43000 406.049
67.60000 435.599
67.77000 481.931
67.94000 521.329
68.11000 553.269
68.28000 617.695
68.45000 685.358
68.62000 1003.539
68.79000 1895.164
68.96000 11513.690
69.13000 54086.086
69.30000 31930.916
69.47000 7717.362
69.64000 1264.478
69.81000 834.016
69.98000 670.598
70.00000 652.982