File: XRD/25-09-2025/XY Data/BTO_Mapping_Theta2Theta_25-09-2025_001_43_-10-000_-17-321.xy
20.00000 541.586
20.17000 563.580
20.34000 552.187
20.51000 560.876
20.68000 539.326
20.85000 550.934
21.02000 547.023
21.19000 545.347
21.36000 529.748
21.53000 547.957
21.70000 567.662
21.87000 646.268
22.04000 739.671
22.21000 685.189
22.38000 600.676
22.55000 552.496
22.72000 525.915
22.89000 513.305
23.06000 500.192
23.23000 500.884
23.40000 500.170
23.57000 492.270
23.74000 494.224
23.91000 497.135
24.08000 502.798
24.25000 470.561
24.42000 478.378
24.59000 486.795
24.76000 479.652
24.93000 477.312
25.10000 474.024
25.27000 468.190
25.44000 461.845
25.61000 454.717
25.78000 448.833
25.95000 446.925
26.12000 459.933
26.29000 453.870
26.46000 423.500
26.63000 443.286
26.80000 451.508
26.97000 426.951
27.14000 433.181
27.31000 426.524
27.48000 434.485
27.65000 444.486
27.82000 421.978
27.99000 424.269
28.16000 419.325
28.33000 411.387
28.50000 403.595
28.67000 411.717
28.84000 415.995
29.01000 402.985
29.18000 392.992
29.35000 415.757
29.52000 413.142
29.69000 400.259
29.86000 417.940
30.03000 408.912
30.20000 435.793
30.37000 422.411
30.54000 412.643
30.71000 428.664
30.88000 461.627
31.05000 697.208
31.22000 1501.031
31.39000 2169.971
31.56000 1395.751
31.73000 691.243
31.90000 468.713
32.07000 408.956
32.24000 395.444
32.41000 377.495
32.58000 378.840
32.75000 366.743
32.92000 378.827
33.09000 371.103
33.26000 345.398
33.43000 330.479
33.60000 351.180
33.77000 331.305
33.94000 329.009
34.11000 323.874
34.28000 324.112
34.45000 318.478
34.62000 341.538
34.79000 302.329
34.96000 317.021
35.13000 296.865
35.30000 306.292
35.47000 313.546
35.64000 297.917
35.81000 317.104
35.98000 293.936
36.15000 294.128
36.32000 283.064
36.49000 279.888
36.66000 300.713
36.83000 300.553
37.00000 310.680
37.17000 308.209
37.34000 288.172
37.51000 292.567
37.68000 279.060
37.85000 274.809
38.02000 277.750
38.19000 301.392
38.36000 338.401
38.53000 485.989
38.70000 596.957
38.87000 471.324
39.04000 322.325
39.21000 265.550
39.38000 274.563
39.55000 274.006
39.72000 255.909
39.89000 240.154
40.06000 245.819
40.23000 250.344
40.40000 252.992
40.57000 247.617
40.74000 257.254
40.91000 244.549
41.08000 235.941
41.25000 245.942
41.42000 245.869
41.59000 234.618
41.76000 238.953
41.93000 223.716
42.10000 222.963
42.27000 241.516
42.44000 222.467
42.61000 246.782
42.78000 237.415
42.95000 219.397
43.12000 225.556
43.29000 223.760
43.46000 241.985
43.63000 222.154
43.80000 211.762
43.97000 218.244
44.14000 222.287
44.31000 218.075
44.48000 227.614
44.65000 247.979
44.82000 310.283
44.99000 353.833
45.16000 336.638
45.33000 310.487
45.50000 277.421
45.67000 242.956
45.84000 239.851
46.01000 223.714
46.18000 218.736
46.35000 203.728
46.52000 208.781
46.69000 191.339
46.86000 196.789
47.03000 191.057
47.20000 183.334
47.37000 200.223
47.54000 186.838
47.71000 186.405
47.88000 178.120
48.05000 188.855
48.22000 193.004
48.39000 180.622
48.56000 180.545
48.73000 175.672
48.90000 192.547
49.07000 181.838
49.24000 164.912
49.41000 167.339
49.58000 175.743
49.75000 183.538
49.92000 170.840
50.09000 167.042
50.26000 182.038
50.43000 208.496
50.60000 228.053
50.77000 222.739
50.94000 194.299
51.11000 169.475
51.28000 170.401
51.45000 166.368
51.62000 155.455
51.79000 163.312
51.96000 159.460
52.13000 162.525
52.30000 152.510
52.47000 143.499
52.64000 162.983
52.81000 165.295
52.98000 155.512
53.15000 149.436
53.32000 151.114
53.49000 147.223
53.66000 154.652
53.83000 160.196
54.00000 168.555
54.17000 150.638
54.34000 152.217
54.51000 137.947
54.68000 157.333
54.85000 157.449
55.02000 156.352
55.19000 155.164
55.36000 171.857
55.53000 212.053
55.70000 314.630
55.87000 395.230
56.04000 345.272
56.21000 263.652
56.38000 199.182
56.55000 166.511
56.72000 155.157
56.89000 148.271
57.06000 136.114
57.23000 159.504
57.40000 139.489
57.57000 137.730
57.74000 136.418
57.91000 130.347
58.08000 140.107
58.25000 142.951
58.42000 131.250
58.59000 145.572
58.76000 120.561
58.93000 122.971
59.10000 135.660
59.27000 132.345
59.44000 132.203
59.61000 132.176
59.78000 131.628
59.95000 126.093
60.12000 133.726
60.29000 142.649
60.46000 124.076
60.63000 136.819
60.80000 121.350
60.97000 127.870
61.14000 128.860
61.31000 144.589
61.48000 159.090
61.65000 291.448
61.82000 192.534
61.99000 160.656
62.16000 152.862
62.33000 127.049
62.50000 140.473
62.67000 145.956
62.84000 141.866
63.01000 142.201
63.18000 150.451
63.35000 153.164
63.52000 141.209
63.69000 142.250
63.86000 159.467
64.03000 158.960
64.20000 157.382
64.37000 166.112
64.54000 185.144
64.71000 174.289
64.88000 201.277
65.05000 202.437
65.22000 246.444
65.39000 276.494
65.56000 331.763
65.73000 711.004
65.90000 1233.378
66.07000 402.093
66.24000 339.984
66.41000 499.278
66.58000 389.983
66.75000 333.093
66.92000 347.045
67.09000 405.653
67.26000 394.658
67.43000 443.184
67.60000 469.984
67.77000 506.240
67.94000 537.087
68.11000 590.979
68.28000 638.965
68.45000 770.993
68.62000 1138.772
68.79000 2194.444
68.96000 14909.601
69.13000 64851.207
69.30000 37914.277
69.47000 8988.938
69.64000 1384.149
69.81000 872.475
69.98000 713.007
70.00000 690.056