File: XRD/25-09-2025/XY Data/BTO_Mapping_Theta2Theta_25-09-2025_001_34_-9-781_-2-079.xy
20.00000 560.757
20.17000 546.918
20.34000 555.060
20.51000 556.170
20.68000 552.738
20.85000 549.170
21.02000 554.607
21.19000 539.019
21.36000 550.775
21.53000 554.069
21.70000 575.151
21.87000 620.519
22.04000 706.178
22.21000 653.612
22.38000 591.762
22.55000 550.521
22.72000 515.313
22.89000 524.051
23.06000 506.973
23.23000 508.619
23.40000 496.929
23.57000 501.613
23.74000 498.698
23.91000 484.298
24.08000 489.609
24.25000 493.145
24.42000 487.263
24.59000 486.694
24.76000 474.926
24.93000 470.327
25.10000 472.626
25.27000 472.841
25.44000 463.508
25.61000 470.940
25.78000 458.039
25.95000 452.452
26.12000 455.347
26.29000 446.639
26.46000 434.672
26.63000 437.078
26.80000 445.763
26.97000 429.568
27.14000 434.198
27.31000 429.840
27.48000 425.151
27.65000 427.499
27.82000 429.742
27.99000 403.508
28.16000 431.295
28.33000 423.290
28.50000 418.773
28.67000 408.571
28.84000 427.174
29.01000 409.093
29.18000 413.663
29.35000 421.592
29.52000 421.334
29.69000 400.522
29.86000 406.066
30.03000 424.664
30.20000 410.021
30.37000 426.201
30.54000 399.723
30.71000 418.058
30.88000 437.582
31.05000 622.314
31.22000 1362.313
31.39000 2075.777
31.56000 1313.484
31.73000 644.947
31.90000 459.713
32.07000 406.946
32.24000 396.067
32.41000 397.990
32.58000 372.751
32.75000 371.729
32.92000 388.567
33.09000 346.960
33.26000 345.876
33.43000 341.362
33.60000 343.696
33.77000 327.579
33.94000 327.966
34.11000 335.423
34.28000 309.759
34.45000 334.462
34.62000 314.006
34.79000 330.443
34.96000 305.921
35.13000 302.966
35.30000 307.235
35.47000 301.991
35.64000 299.863
35.81000 296.273
35.98000 309.941
36.15000 304.506
36.32000 293.589
36.49000 294.867
36.66000 300.979
36.83000 296.668
37.00000 287.493
37.17000 301.355
37.34000 294.583
37.51000 289.209
37.68000 281.441
37.85000 283.125
38.02000 291.983
38.19000 311.364
38.36000 319.366
38.53000 510.111
38.70000 697.730
38.87000 544.946
39.04000 332.910
39.21000 288.167
39.38000 266.943
39.55000 256.604
39.72000 268.034
39.89000 259.913
40.06000 251.979
40.23000 281.330
40.40000 249.449
40.57000 249.895
40.74000 252.925
40.91000 240.003
41.08000 236.785
41.25000 244.956
41.42000 230.748
41.59000 245.075
41.76000 231.299
41.93000 239.642
42.10000 230.325
42.27000 226.214
42.44000 231.662
42.61000 225.734
42.78000 227.352
42.95000 228.239
43.12000 228.916
43.29000 231.896
43.46000 223.628
43.63000 224.239
43.80000 218.286
43.97000 219.589
44.14000 223.693
44.31000 224.412
44.48000 229.585
44.65000 231.257
44.82000 274.139
44.99000 313.290
45.16000 319.091
45.33000 291.663
45.50000 280.070
45.67000 249.071
45.84000 230.707
46.01000 220.099
46.18000 218.559
46.35000 217.079
46.52000 196.208
46.69000 200.479
46.86000 199.258
47.03000 201.072
47.20000 190.024
47.37000 191.531
47.54000 190.795
47.71000 187.568
47.88000 189.893
48.05000 188.175
48.22000 195.736
48.39000 182.597
48.56000 172.712
48.73000 174.113
48.90000 178.244
49.07000 177.086
49.24000 170.426
49.41000 166.219
49.58000 169.603
49.75000 159.975
49.92000 187.759
50.09000 175.523
50.26000 176.420
50.43000 199.967
50.60000 223.289
50.77000 208.690
50.94000 190.108
51.11000 174.958
51.28000 184.213
51.45000 177.244
51.62000 158.253
51.79000 153.318
51.96000 164.171
52.13000 159.300
52.30000 158.152
52.47000 150.442
52.64000 157.473
52.81000 154.662
52.98000 159.770
53.15000 151.485
53.32000 148.278
53.49000 163.273
53.66000 151.249
53.83000 157.921
54.00000 157.712
54.17000 143.921
54.34000 153.060
54.51000 151.880
54.68000 152.144
54.85000 151.276
55.02000 153.100
55.19000 153.211
55.36000 175.992
55.53000 207.486
55.70000 298.652
55.87000 416.487
56.04000 380.650
56.21000 278.689
56.38000 197.347
56.55000 168.812
56.72000 147.114
56.89000 149.321
57.06000 148.767
57.23000 144.650
57.40000 138.389
57.57000 139.608
57.74000 138.572
57.91000 133.745
58.08000 136.149
58.25000 143.724
58.42000 135.690
58.59000 132.891
58.76000 136.022
58.93000 129.706
59.10000 129.364
59.27000 138.419
59.44000 129.478
59.61000 127.389
59.78000 134.678
59.95000 137.639
60.12000 145.145
60.29000 130.639
60.46000 132.190
60.63000 130.713
60.80000 131.582
60.97000 127.674
61.14000 131.943
61.31000 135.546
61.48000 147.998
61.65000 279.160
61.82000 192.315
61.99000 148.271
62.16000 128.939
62.33000 141.850
62.50000 150.199
62.67000 138.167
62.84000 145.486
63.01000 140.570
63.18000 146.411
63.35000 146.862
63.52000 144.638
63.69000 141.552
63.86000 156.617
64.03000 162.053
64.20000 161.220
64.37000 166.372
64.54000 169.919
64.71000 183.663
64.88000 186.806
65.05000 197.895
65.22000 240.044
65.39000 266.134
65.56000 318.301
65.73000 676.952
65.90000 1156.996
66.07000 409.710
66.24000 338.427
66.41000 478.323
66.58000 358.317
66.75000 326.171
66.92000 345.254
67.09000 361.683
67.26000 394.112
67.43000 442.000
67.60000 460.392
67.77000 482.400
67.94000 511.481
68.11000 603.773
68.28000 638.857
68.45000 772.766
68.62000 1110.194
68.79000 2084.770
68.96000 14072.942
69.13000 60520.418
69.30000 34951.453
69.47000 8154.153
69.64000 1298.530
69.81000 841.314
69.98000 676.659
70.00000 680.420