File: XRD/25-09-2025/XY Data/BTO_Mapping_Theta2Theta_25-09-2025_001_57_26-765_-29-726.xy
20.00000 546.592
20.17000 577.112
20.34000 538.650
20.51000 540.918
20.68000 559.981
20.85000 567.397
21.02000 536.409
21.19000 550.438
21.36000 543.255
21.53000 545.506
21.70000 528.142
21.87000 547.653
22.04000 594.994
22.21000 614.874
22.38000 579.073
22.55000 541.884
22.72000 515.889
22.89000 522.151
23.06000 501.606
23.23000 506.223
23.40000 503.148
23.57000 490.343
23.74000 512.987
23.91000 485.745
24.08000 490.234
24.25000 474.982
24.42000 493.440
24.59000 463.830
24.76000 466.637
24.93000 452.108
25.10000 461.499
25.27000 476.731
25.44000 467.776
25.61000 463.131
25.78000 466.809
25.95000 472.158
26.12000 469.049
26.29000 448.311
26.46000 455.481
26.63000 460.281
26.80000 444.390
26.97000 445.004
27.14000 431.714
27.31000 445.583
27.48000 435.315
27.65000 419.190
27.82000 424.077
27.99000 407.079
28.16000 403.782
28.33000 412.161
28.50000 424.079
28.67000 415.692
28.84000 392.596
29.01000 406.844
29.18000 410.486
29.35000 412.902
29.52000 409.829
29.69000 397.133
29.86000 417.586
30.03000 412.263
30.20000 412.734
30.37000 419.310
30.54000 419.367
30.71000 402.683
30.88000 437.359
31.05000 509.092
31.22000 845.133
31.39000 1349.211
31.56000 1041.475
31.73000 609.026
31.90000 460.137
32.07000 402.121
32.24000 386.867
32.41000 380.460
32.58000 365.348
32.75000 389.071
32.92000 379.661
33.09000 334.928
33.26000 332.393
33.43000 349.295
33.60000 328.297
33.77000 316.813
33.94000 337.740
34.11000 316.426
34.28000 312.046
34.45000 322.680
34.62000 314.025
34.79000 322.275
34.96000 327.600
35.13000 301.288
35.30000 306.785
35.47000 299.426
35.64000 292.359
35.81000 303.580
35.98000 306.493
36.15000 303.629
36.32000 286.412
36.49000 290.570
36.66000 291.879
36.83000 292.279
37.00000 293.249
37.17000 276.334
37.34000 279.371
37.51000 294.742
37.68000 281.388
37.85000 291.826
38.02000 261.286
38.19000 284.101
38.36000 296.750
38.53000 428.846
38.70000 726.315
38.87000 597.125
39.04000 348.987
39.21000 296.670
39.38000 275.788
39.55000 261.202
39.72000 262.876
39.89000 257.584
40.06000 264.366
40.23000 262.336
40.40000 246.793
40.57000 239.764
40.74000 236.072
40.91000 235.595
41.08000 232.802
41.25000 245.875
41.42000 243.330
41.59000 231.927
41.76000 232.980
41.93000 235.891
42.10000 247.361
42.27000 243.709
42.44000 225.285
42.61000 231.613
42.78000 225.718
42.95000 241.630
43.12000 233.656
43.29000 211.417
43.46000 230.599
43.63000 218.644
43.80000 205.088
43.97000 220.235
44.14000 216.233
44.31000 211.669
44.48000 215.444
44.65000 230.680
44.82000 218.033
44.99000 240.021
45.16000 241.700
45.33000 247.708
45.50000 246.505
45.67000 248.331
45.84000 225.607
46.01000 220.234
46.18000 208.796
46.35000 200.340
46.52000 191.479
46.69000 213.220
46.86000 210.649
47.03000 191.979
47.20000 202.184
47.37000 181.523
47.54000 196.288
47.71000 177.015
47.88000 179.689
48.05000 181.485
48.22000 190.888
48.39000 179.495
48.56000 176.980
48.73000 182.913
48.90000 188.309
49.07000 179.671
49.24000 176.213
49.41000 167.347
49.58000 174.539
49.75000 176.939
49.92000 173.976
50.09000 174.591
50.26000 183.698
50.43000 171.528
50.60000 179.968
50.77000 188.165
50.94000 181.642
51.11000 173.982
51.28000 159.178
51.45000 163.638
51.62000 155.835
51.79000 173.853
51.96000 159.885
52.13000 165.072
52.30000 155.584
52.47000 152.637
52.64000 151.838
52.81000 168.238
52.98000 165.604
53.15000 153.261
53.32000 154.433
53.49000 159.137
53.66000 150.727
53.83000 152.697
54.00000 153.705
54.17000 157.343
54.34000 161.189
54.51000 146.160
54.68000 155.917
54.85000 145.447
55.02000 144.023
55.19000 154.756
55.36000 165.484
55.53000 177.837
55.70000 255.370
55.87000 373.896
56.04000 410.726
56.21000 289.371
56.38000 201.067
56.55000 163.599
56.72000 156.499
56.89000 152.616
57.06000 149.054
57.23000 145.940
57.40000 147.088
57.57000 146.674
57.74000 142.445
57.91000 136.446
58.08000 139.270
58.25000 142.198
58.42000 140.318
58.59000 141.662
58.76000 136.634
58.93000 135.168
59.10000 133.771
59.27000 128.594
59.44000 133.761
59.61000 136.078
59.78000 134.315
59.95000 133.983
60.12000 131.611
60.29000 130.294
60.46000 144.537
60.63000 127.034
60.80000 133.125
60.97000 133.286
61.14000 139.825
61.31000 130.522
61.48000 145.329
61.65000 253.278
61.82000 192.115
61.99000 141.698
62.16000 145.935
62.33000 147.974
62.50000 138.212
62.67000 147.157
62.84000 143.110
63.01000 145.472
63.18000 158.451
63.35000 149.324
63.52000 154.101
63.69000 157.140
63.86000 149.956
64.03000 163.803
64.20000 164.387
64.37000 166.266
64.54000 166.068
64.71000 170.859
64.88000 175.940
65.05000 195.163
65.22000 204.284
65.39000 266.211
65.56000 278.456
65.73000 544.347
65.90000 1054.286
66.07000 372.772
66.24000 313.508
66.41000 451.253
66.58000 349.331
66.75000 331.563
66.92000 345.016
67.09000 366.206
67.26000 365.984
67.43000 408.308
67.60000 447.065
67.77000 466.844
67.94000 515.924
68.11000 561.342
68.28000 614.197
68.45000 717.054
68.62000 987.951
68.79000 1856.325
68.96000 9820.078
69.13000 53452.469
69.30000 32523.670
69.47000 8575.217
69.64000 1236.278
69.81000 832.744
69.98000 681.402
70.00000 650.021