File: XRD/25-09-2025/XY Data/BTO_Mapping_Theta2Theta_25-09-2025_001_12_20-074_22-294.xy
20.00000 570.295
20.17000 538.085
20.34000 555.814
20.51000 566.006
20.68000 526.592
20.85000 560.845
21.02000 547.482
21.19000 534.258
21.36000 538.131
21.53000 525.657
21.70000 550.001
21.87000 532.487
22.04000 569.027
22.21000 603.781
22.38000 575.875
22.55000 549.749
22.72000 527.929
22.89000 535.574
23.06000 501.585
23.23000 496.063
23.40000 489.244
23.57000 497.528
23.74000 504.697
23.91000 492.650
24.08000 494.834
24.25000 485.863
24.42000 486.353
24.59000 487.185
24.76000 466.483
24.93000 467.314
25.10000 457.538
25.27000 491.076
25.44000 469.071
25.61000 465.847
25.78000 464.939
25.95000 434.894
26.12000 453.913
26.29000 458.778
26.46000 444.340
26.63000 436.042
26.80000 447.977
26.97000 427.225
27.14000 437.007
27.31000 410.676
27.48000 440.841
27.65000 424.304
27.82000 434.952
27.99000 431.099
28.16000 423.642
28.33000 415.342
28.50000 412.515
28.67000 401.428
28.84000 418.867
29.01000 407.194
29.18000 403.463
29.35000 404.965
29.52000 418.235
29.69000 418.180
29.86000 406.809
30.03000 416.635
30.20000 424.347
30.37000 406.646
30.54000 399.954
30.71000 420.835
30.88000 441.497
31.05000 546.296
31.22000 888.277
31.39000 1322.536
31.56000 1032.255
31.73000 601.951
31.90000 453.659
32.07000 420.095
32.24000 399.250
32.41000 376.880
32.58000 367.836
32.75000 373.519
32.92000 377.369
33.09000 348.003
33.26000 340.987
33.43000 330.776
33.60000 344.071
33.77000 327.657
33.94000 329.823
34.11000 341.018
34.28000 325.408
34.45000 316.822
34.62000 312.355
34.79000 322.330
34.96000 328.900
35.13000 303.792
35.30000 299.947
35.47000 312.405
35.64000 299.433
35.81000 293.129
35.98000 301.324
36.15000 296.837
36.32000 289.352
36.49000 298.853
36.66000 297.795
36.83000 293.956
37.00000 287.537
37.17000 303.184
37.34000 276.397
37.51000 287.220
37.68000 290.956
37.85000 281.454
38.02000 270.003
38.19000 278.550
38.36000 305.819
38.53000 433.900
38.70000 667.686
38.87000 520.835
39.04000 318.642
39.21000 276.887
39.38000 277.686
39.55000 265.222
39.72000 256.745
39.89000 271.109
40.06000 243.034
40.23000 259.248
40.40000 249.405
40.57000 265.992
40.74000 249.884
40.91000 234.599
41.08000 239.102
41.25000 246.627
41.42000 246.246
41.59000 228.902
41.76000 242.118
41.93000 228.721
42.10000 232.347
42.27000 237.066
42.44000 228.656
42.61000 231.768
42.78000 229.308
42.95000 226.357
43.12000 225.614
43.29000 230.637
43.46000 214.693
43.63000 225.421
43.80000 227.210
43.97000 227.041
44.14000 214.357
44.31000 216.425
44.48000 221.121
44.65000 210.568
44.82000 244.082
44.99000 233.564
45.16000 246.099
45.33000 253.074
45.50000 247.923
45.67000 236.450
45.84000 221.193
46.01000 208.871
46.18000 198.800
46.35000 192.213
46.52000 198.657
46.69000 203.539
46.86000 200.599
47.03000 194.714
47.20000 198.500
47.37000 189.692
47.54000 183.474
47.71000 174.972
47.88000 191.911
48.05000 173.110
48.22000 180.171
48.39000 179.383
48.56000 182.483
48.73000 171.578
48.90000 174.264
49.07000 172.008
49.24000 187.342
49.41000 166.876
49.58000 172.907
49.75000 171.718
49.92000 174.370
50.09000 172.126
50.26000 170.300
50.43000 169.832
50.60000 183.570
50.77000 188.974
50.94000 177.990
51.11000 174.521
51.28000 168.991
51.45000 168.476
51.62000 160.954
51.79000 161.253
51.96000 155.739
52.13000 165.533
52.30000 157.273
52.47000 174.471
52.64000 157.128
52.81000 155.306
52.98000 154.539
53.15000 147.041
53.32000 160.521
53.49000 156.041
53.66000 154.490
53.83000 154.931
54.00000 163.622
54.17000 133.808
54.34000 152.007
54.51000 146.132
54.68000 152.221
54.85000 138.910
55.02000 152.475
55.19000 157.896
55.36000 167.398
55.53000 197.570
55.70000 242.208
55.87000 323.349
56.04000 323.871
56.21000 237.653
56.38000 199.661
56.55000 180.073
56.72000 149.966
56.89000 153.991
57.06000 147.298
57.23000 133.713
57.40000 144.921
57.57000 135.959
57.74000 141.308
57.91000 136.315
58.08000 130.560
58.25000 137.705
58.42000 135.671
58.59000 145.698
58.76000 151.386
58.93000 143.030
59.10000 127.356
59.27000 139.322
59.44000 140.350
59.61000 140.938
59.78000 132.619
59.95000 134.521
60.12000 138.901
60.29000 129.143
60.46000 121.366
60.63000 125.628
60.80000 133.706
60.97000 132.525
61.14000 139.278
61.31000 142.235
61.48000 145.567
61.65000 265.226
61.82000 205.459
61.99000 136.082
62.16000 133.614
62.33000 137.928
62.50000 134.639
62.67000 144.871
62.84000 153.430
63.01000 142.233
63.18000 142.585
63.35000 149.510
63.52000 160.645
63.69000 141.672
63.86000 149.157
64.03000 154.593
64.20000 160.917
64.37000 164.110
64.54000 173.481
64.71000 170.303
64.88000 186.502
65.05000 179.668
65.22000 202.743
65.39000 221.047
65.56000 289.467
65.73000 556.165
65.90000 1063.347
66.07000 377.125
66.24000 314.577
66.41000 450.985
66.58000 362.826
66.75000 333.643
66.92000 354.047
67.09000 366.895
67.26000 375.793
67.43000 410.646
67.60000 439.910
67.77000 469.042
67.94000 516.459
68.11000 570.801
68.28000 645.007
68.45000 743.245
68.62000 1016.834
68.79000 1835.317
68.96000 10056.806
69.13000 53658.531
69.30000 32455.805
69.47000 8436.067
69.64000 1254.306
69.81000 838.361
69.98000 660.855
70.00000 657.830