File: XRD/25-09-2025/XY Data/BTO_Mapping_Theta2Theta_25-09-2025_001_36_-29-344_-6-237.xy
20.00000 577.263
20.17000 559.456
20.34000 549.482
20.51000 549.361
20.68000 559.325
20.85000 535.667
21.02000 548.182
21.19000 550.563
21.36000 569.893
21.53000 550.678
21.70000 600.212
21.87000 788.355
22.04000 864.274
22.21000 701.105
22.38000 610.750
22.55000 535.788
22.72000 521.557
22.89000 497.915
23.06000 517.871
23.23000 498.927
23.40000 510.155
23.57000 507.833
23.74000 501.692
23.91000 501.831
24.08000 495.045
24.25000 474.961
24.42000 483.562
24.59000 484.912
24.76000 466.576
24.93000 466.372
25.10000 464.712
25.27000 475.303
25.44000 466.355
25.61000 480.116
25.78000 460.094
25.95000 450.169
26.12000 441.254
26.29000 456.664
26.46000 461.826
26.63000 451.769
26.80000 428.416
26.97000 434.267
27.14000 426.444
27.31000 436.520
27.48000 449.477
27.65000 432.683
27.82000 433.957
27.99000 433.375
28.16000 435.143
28.33000 418.035
28.50000 424.584
28.67000 408.636
28.84000 408.418
29.01000 426.231
29.18000 406.164
29.35000 423.401
29.52000 405.585
29.69000 420.039
29.86000 421.843
30.03000 434.806
30.20000 421.286
30.37000 421.897
30.54000 407.964
30.71000 454.501
30.88000 486.614
31.05000 827.697
31.22000 1994.370
31.39000 2690.206
31.56000 1476.661
31.73000 751.276
31.90000 476.718
32.07000 404.989
32.24000 395.434
32.41000 381.125
32.58000 374.748
32.75000 388.772
32.92000 394.711
33.09000 371.803
33.26000 338.550
33.43000 335.097
33.60000 339.582
33.77000 343.965
33.94000 325.366
34.11000 314.913
34.28000 320.744
34.45000 322.888
34.62000 314.243
34.79000 327.609
34.96000 319.544
35.13000 317.978
35.30000 302.925
35.47000 300.391
35.64000 323.183
35.81000 314.386
35.98000 305.144
36.15000 297.465
36.32000 291.315
36.49000 302.462
36.66000 303.056
36.83000 303.891
37.00000 286.047
37.17000 296.312
37.34000 281.814
37.51000 277.193
37.68000 287.734
37.85000 285.996
38.02000 277.574
38.19000 290.034
38.36000 333.668
38.53000 455.248
38.70000 502.155
38.87000 377.662
39.04000 299.335
39.21000 267.496
39.38000 264.348
39.55000 265.830
39.72000 264.402
39.89000 269.105
40.06000 269.515
40.23000 241.796
40.40000 254.237
40.57000 238.754
40.74000 249.439
40.91000 247.266
41.08000 239.583
41.25000 246.131
41.42000 239.244
41.59000 245.014
41.76000 236.763
41.93000 241.828
42.10000 221.798
42.27000 230.448
42.44000 228.250
42.61000 217.398
42.78000 223.158
42.95000 233.695
43.12000 226.584
43.29000 225.390
43.46000 232.932
43.63000 226.500
43.80000 215.401
43.97000 212.911
44.14000 216.066
44.31000 226.108
44.48000 271.611
44.65000 319.521
44.82000 425.632
44.99000 452.029
45.16000 408.615
45.33000 337.662
45.50000 274.390
45.67000 238.639
45.84000 234.322
46.01000 206.495
46.18000 217.353
46.35000 202.374
46.52000 204.134
46.69000 201.412
46.86000 193.155
47.03000 193.519
47.20000 186.177
47.37000 194.687
47.54000 180.631
47.71000 181.605
47.88000 187.484
48.05000 201.001
48.22000 185.201
48.39000 179.413
48.56000 183.488
48.73000 185.529
48.90000 184.453
49.07000 179.139
49.24000 183.961
49.41000 180.218
49.58000 185.079
49.75000 182.990
49.92000 179.657
50.09000 177.565
50.26000 193.268
50.43000 223.612
50.60000 235.647
50.77000 226.007
50.94000 199.034
51.11000 187.048
51.28000 176.241
51.45000 172.125
51.62000 162.843
51.79000 162.907
51.96000 150.343
52.13000 166.255
52.30000 144.413
52.47000 153.377
52.64000 160.051
52.81000 163.415
52.98000 161.685
53.15000 154.291
53.32000 161.087
53.49000 155.137
53.66000 158.670
53.83000 151.687
54.00000 158.040
54.17000 149.156
54.34000 155.217
54.51000 153.060
54.68000 149.470
54.85000 160.089
55.02000 152.646
55.19000 158.508
55.36000 176.778
55.53000 231.905
55.70000 342.109
55.87000 382.303
56.04000 342.419
56.21000 249.190
56.38000 196.002
56.55000 171.094
56.72000 154.813
56.89000 147.343
57.06000 142.596
57.23000 152.026
57.40000 151.463
57.57000 135.987
57.74000 140.720
57.91000 142.000
58.08000 146.744
58.25000 137.619
58.42000 134.128
58.59000 130.760
58.76000 147.963
58.93000 133.945
59.10000 122.554
59.27000 133.327
59.44000 128.505
59.61000 136.367
59.78000 129.839
59.95000 137.210
60.12000 159.718
60.29000 129.054
60.46000 133.012
60.63000 136.186
60.80000 127.254
60.97000 135.841
61.14000 129.423
61.31000 141.021
61.48000 152.731
61.65000 358.026
61.82000 233.658
61.99000 139.575
62.16000 140.176
62.33000 147.462
62.50000 141.633
62.67000 145.134
62.84000 151.608
63.01000 151.099
63.18000 147.585
63.35000 150.200
63.52000 152.648
63.69000 161.576
63.86000 152.613
64.03000 162.687
64.20000 158.507
64.37000 171.441
64.54000 170.137
64.71000 176.300
64.88000 203.330
65.05000 215.473
65.22000 270.669
65.39000 322.945
65.56000 386.646
65.73000 916.333
65.90000 1626.402
66.07000 487.100
66.24000 399.429
66.41000 609.424
66.58000 448.867
66.75000 404.705
66.92000 379.521
67.09000 410.605
67.26000 462.814
67.43000 491.254
67.60000 532.437
67.77000 556.223
67.94000 637.311
68.11000 652.929
68.28000 745.949
68.45000 938.581
68.62000 1370.656
68.79000 2808.634
68.96000 22000.660
69.13000 88786.844
69.30000 50888.316
69.47000 11520.781
69.64000 1592.164
69.81000 1042.395
69.98000 791.215
70.00000 779.654