File: XRD/25-09-2025/XY Data/BTO_Mapping_Theta2Theta_25-09-2025_001_58_9-135_-4-067.xy
20.00000 576.433
20.17000 558.995
20.34000 562.806
20.51000 537.988
20.68000 534.508
20.85000 529.711
21.02000 545.561
21.19000 547.520
21.36000 557.775
21.53000 533.126
21.70000 550.841
21.87000 559.444
22.04000 579.943
22.21000 612.433
22.38000 580.866
22.55000 565.824
22.72000 529.507
22.89000 502.559
23.06000 502.260
23.23000 511.436
23.40000 500.034
23.57000 500.060
23.74000 490.463
23.91000 486.096
24.08000 488.374
24.25000 483.998
24.42000 506.929
24.59000 472.587
24.76000 477.429
24.93000 468.310
25.10000 467.925
25.27000 466.263
25.44000 456.399
25.61000 458.768
25.78000 455.434
25.95000 446.903
26.12000 431.167
26.29000 482.632
26.46000 433.759
26.63000 432.717
26.80000 441.199
26.97000 427.262
27.14000 428.696
27.31000 437.971
27.48000 433.286
27.65000 439.337
27.82000 445.208
27.99000 404.827
28.16000 415.757
28.33000 414.455
28.50000 426.463
28.67000 426.166
28.84000 417.380
29.01000 413.317
29.18000 399.589
29.35000 400.288
29.52000 391.082
29.69000 409.466
29.86000 395.928
30.03000 411.984
30.20000 408.339
30.37000 414.851
30.54000 405.932
30.71000 416.040
30.88000 420.507
31.05000 509.979
31.22000 887.229
31.39000 1336.064
31.56000 926.290
31.73000 555.950
31.90000 426.512
32.07000 393.431
32.24000 387.975
32.41000 385.610
32.58000 366.602
32.75000 352.976
32.92000 373.395
33.09000 345.284
33.26000 346.560
33.43000 328.234
33.60000 349.603
33.77000 331.298
33.94000 319.873
34.11000 335.703
34.28000 318.909
34.45000 320.370
34.62000 320.482
34.79000 313.724
34.96000 307.175
35.13000 297.812
35.30000 306.038
35.47000 311.739
35.64000 286.632
35.81000 322.285
35.98000 292.088
36.15000 276.069
36.32000 296.140
36.49000 290.940
36.66000 297.726
36.83000 305.307
37.00000 302.241
37.17000 300.210
37.34000 283.598
37.51000 289.697
37.68000 284.696
37.85000 287.378
38.02000 273.283
38.19000 292.346
38.36000 305.503
38.53000 492.368
38.70000 809.955
38.87000 645.669
39.04000 361.300
39.21000 272.454
39.38000 274.378
39.55000 268.374
39.72000 256.428
39.89000 259.050
40.06000 253.072
40.23000 267.995
40.40000 247.034
40.57000 238.305
40.74000 242.914
40.91000 249.699
41.08000 236.361
41.25000 246.785
41.42000 239.002
41.59000 225.635
41.76000 236.516
41.93000 235.293
42.10000 234.853
42.27000 228.237
42.44000 227.895
42.61000 239.166
42.78000 218.515
42.95000 224.085
43.12000 226.710
43.29000 224.202
43.46000 202.076
43.63000 219.620
43.80000 218.808
43.97000 225.654
44.14000 219.511
44.31000 222.436
44.48000 222.212
44.65000 220.318
44.82000 229.233
44.99000 239.370
45.16000 262.154
45.33000 258.195
45.50000 250.417
45.67000 237.843
45.84000 229.130
46.01000 208.055
46.18000 213.570
46.35000 194.470
46.52000 198.309
46.69000 201.299
46.86000 192.472
47.03000 202.195
47.20000 200.715
47.37000 180.051
47.54000 193.788
47.71000 187.456
47.88000 187.068
48.05000 193.111
48.22000 193.632
48.39000 174.367
48.56000 176.056
48.73000 171.764
48.90000 180.503
49.07000 185.574
49.24000 183.688
49.41000 176.285
49.58000 175.330
49.75000 172.139
49.92000 176.074
50.09000 184.472
50.26000 179.074
50.43000 188.356
50.60000 200.089
50.77000 201.165
50.94000 180.709
51.11000 188.145
51.28000 186.843
51.45000 158.050
51.62000 166.440
51.79000 170.869
51.96000 156.458
52.13000 159.229
52.30000 156.432
52.47000 155.078
52.64000 158.149
52.81000 167.880
52.98000 143.982
53.15000 159.135
53.32000 149.175
53.49000 152.939
53.66000 143.998
53.83000 160.348
54.00000 144.704
54.17000 141.325
54.34000 139.971
54.51000 155.823
54.68000 143.531
54.85000 154.785
55.02000 153.162
55.19000 157.275
55.36000 157.671
55.53000 184.548
55.70000 273.059
55.87000 414.058
56.04000 457.727
56.21000 332.000
56.38000 229.999
56.55000 165.339
56.72000 155.792
56.89000 160.906
57.06000 143.403
57.23000 142.455
57.40000 124.265
57.57000 134.528
57.74000 150.781
57.91000 145.110
58.08000 135.956
58.25000 132.381
58.42000 141.564
58.59000 142.019
58.76000 130.089
58.93000 139.343
59.10000 128.903
59.27000 137.578
59.44000 139.740
59.61000 129.748
59.78000 139.205
59.95000 130.108
60.12000 136.980
60.29000 139.111
60.46000 140.917
60.63000 130.607
60.80000 129.461
60.97000 129.122
61.14000 132.347
61.31000 130.343
61.48000 150.597
61.65000 255.523
61.82000 193.816
61.99000 137.118
62.16000 141.348
62.33000 137.088
62.50000 140.694
62.67000 137.846
62.84000 140.669
63.01000 139.869
63.18000 148.856
63.35000 147.198
63.52000 142.334
63.69000 147.315
63.86000 151.860
64.03000 162.386
64.20000 153.458
64.37000 160.343
64.54000 170.843
64.71000 169.225
64.88000 181.054
65.05000 190.973
65.22000 211.870
65.39000 230.871
65.56000 280.373
65.73000 580.147
65.90000 1070.158
66.07000 376.172
66.24000 319.940
66.41000 441.232
66.58000 339.033
66.75000 323.170
66.92000 331.148
67.09000 365.845
67.26000 381.553
67.43000 428.192
67.60000 434.055
67.77000 463.504
67.94000 517.380
68.11000 567.818
68.28000 639.454
68.45000 730.269
68.62000 988.762
68.79000 1864.440
68.96000 10916.547
69.13000 53671.207
69.30000 32021.865
69.47000 8011.182
69.64000 1260.172
69.81000 818.049
69.98000 670.268
70.00000 672.253