File: XRD/25-09-2025/XY Data/BTO_Mapping_Theta2Theta_25-09-2025_001_40_-24-271_-17-634.xy
20.00000 566.543
20.17000 563.781
20.34000 546.081
20.51000 532.389
20.68000 545.101
20.85000 545.946
21.02000 555.695
21.19000 541.080
21.36000 551.831
21.53000 545.535
21.70000 601.283
21.87000 775.415
22.04000 874.505
22.21000 699.386
22.38000 586.606
22.55000 539.861
22.72000 521.927
22.89000 509.137
23.06000 528.263
23.23000 492.030
23.40000 511.911
23.57000 471.373
23.74000 490.783
23.91000 488.755
24.08000 488.054
24.25000 475.977
24.42000 473.451
24.59000 468.807
24.76000 491.988
24.93000 475.756
25.10000 482.442
25.27000 457.144
25.44000 467.225
25.61000 466.005
25.78000 452.294
25.95000 456.103
26.12000 453.404
26.29000 466.674
26.46000 465.345
26.63000 453.017
26.80000 443.184
26.97000 448.818
27.14000 441.934
27.31000 443.653
27.48000 423.594
27.65000 441.745
27.82000 437.631
27.99000 437.162
28.16000 428.233
28.33000 420.664
28.50000 418.211
28.67000 418.295
28.84000 409.578
29.01000 402.685
29.18000 408.678
29.35000 426.768
29.52000 401.644
29.69000 408.816
29.86000 402.827
30.03000 434.265
30.20000 435.804
30.37000 430.348
30.54000 431.346
30.71000 438.612
30.88000 488.876
31.05000 841.280
31.22000 2026.417
31.39000 2657.996
31.56000 1518.047
31.73000 715.782
31.90000 492.469
32.07000 414.993
32.24000 386.012
32.41000 372.309
32.58000 365.585
32.75000 364.511
32.92000 399.677
33.09000 363.294
33.26000 345.596
33.43000 351.720
33.60000 344.119
33.77000 344.183
33.94000 332.016
34.11000 331.028
34.28000 327.712
34.45000 329.189
34.62000 318.646
34.79000 313.676
34.96000 324.295
35.13000 317.139
35.30000 319.818
35.47000 330.603
35.64000 303.061
35.81000 291.185
35.98000 309.349
36.15000 309.996
36.32000 289.203
36.49000 285.363
36.66000 288.016
36.83000 278.103
37.00000 288.989
37.17000 303.700
37.34000 297.019
37.51000 294.029
37.68000 291.652
37.85000 281.465
38.02000 299.100
38.19000 294.474
38.36000 338.615
38.53000 450.367
38.70000 498.257
38.87000 402.908
39.04000 301.532
39.21000 267.764
39.38000 263.207
39.55000 262.963
39.72000 263.031
39.89000 251.502
40.06000 265.939
40.23000 261.402
40.40000 249.138
40.57000 240.667
40.74000 232.174
40.91000 236.709
41.08000 246.585
41.25000 226.107
41.42000 252.399
41.59000 241.130
41.76000 236.846
41.93000 235.697
42.10000 212.062
42.27000 233.651
42.44000 233.056
42.61000 227.375
42.78000 223.480
42.95000 232.634
43.12000 226.869
43.29000 224.470
43.46000 228.585
43.63000 222.868
43.80000 222.513
43.97000 221.125
44.14000 230.289
44.31000 237.325
44.48000 256.349
44.65000 321.270
44.82000 416.272
44.99000 470.031
45.16000 384.597
45.33000 321.962
45.50000 284.006
45.67000 231.428
45.84000 234.665
46.01000 215.890
46.18000 209.867
46.35000 207.547
46.52000 196.461
46.69000 194.177
46.86000 201.060
47.03000 192.950
47.20000 195.316
47.37000 182.027
47.54000 175.397
47.71000 178.211
47.88000 184.680
48.05000 180.905
48.22000 179.082
48.39000 188.514
48.56000 185.924
48.73000 174.575
48.90000 175.674
49.07000 183.174
49.24000 182.796
49.41000 189.598
49.58000 184.607
49.75000 175.663
49.92000 179.637
50.09000 168.031
50.26000 190.065
50.43000 210.446
50.60000 232.968
50.77000 233.596
50.94000 201.873
51.11000 186.022
51.28000 172.108
51.45000 171.520
51.62000 168.151
51.79000 162.836
51.96000 156.424
52.13000 160.361
52.30000 155.537
52.47000 175.075
52.64000 169.878
52.81000 148.775
52.98000 158.477
53.15000 148.708
53.32000 150.259
53.49000 157.749
53.66000 150.761
53.83000 152.458
54.00000 145.019
54.17000 139.365
54.34000 147.810
54.51000 145.084
54.68000 155.384
54.85000 156.747
55.02000 153.636
55.19000 157.745
55.36000 180.376
55.53000 237.522
55.70000 339.649
55.87000 384.857
56.04000 345.966
56.21000 249.564
56.38000 196.338
56.55000 158.933
56.72000 146.723
56.89000 149.768
57.06000 145.612
57.23000 134.658
57.40000 148.229
57.57000 142.052
57.74000 143.377
57.91000 149.332
58.08000 134.600
58.25000 150.826
58.42000 136.542
58.59000 130.496
58.76000 141.276
58.93000 133.267
59.10000 126.266
59.27000 123.516
59.44000 121.000
59.61000 132.338
59.78000 132.237
59.95000 144.114
60.12000 120.154
60.29000 133.644
60.46000 137.461
60.63000 133.463
60.80000 140.323
60.97000 140.640
61.14000 142.200
61.31000 134.702
61.48000 150.798
61.65000 344.246
61.82000 228.159
61.99000 148.378
62.16000 145.853
62.33000 140.556
62.50000 144.421
62.67000 147.471
62.84000 150.367
63.01000 150.326
63.18000 152.400
63.35000 146.510
63.52000 164.521
63.69000 173.570
63.86000 148.193
64.03000 157.904
64.20000 157.166
64.37000 167.622
64.54000 170.782
64.71000 187.010
64.88000 193.702
65.05000 212.058
65.22000 284.155
65.39000 333.990
65.56000 391.127
65.73000 912.897
65.90000 1606.406
66.07000 503.996
66.24000 395.373
66.41000 585.674
66.58000 410.491
66.75000 375.760
66.92000 405.257
67.09000 407.092
67.26000 476.205
67.43000 483.456
67.60000 524.275
67.77000 562.305
67.94000 630.093
68.11000 676.406
68.28000 773.963
68.45000 892.235
68.62000 1362.929
68.79000 2746.190
68.96000 21003.535
69.13000 87503.469
69.30000 50689.605
69.47000 11895.003
69.64000 1594.110
69.81000 1019.848
69.98000 795.783
70.00000 768.197