File: XRD/25-09-2025/XY Data/BTO_Mapping_Theta2Theta_25-09-2025_001_22_-5-000_8-660.xy
20.00000 543.000
20.17000 563.147
20.34000 534.090
20.51000 563.172
20.68000 546.383
20.85000 546.141
21.02000 545.233
21.19000 541.182
21.36000 562.919
21.53000 544.860
21.70000 533.516
21.87000 594.053
22.04000 622.488
22.21000 616.922
22.38000 601.338
22.55000 564.870
22.72000 526.557
22.89000 506.981
23.06000 526.038
23.23000 513.155
23.40000 489.697
23.57000 496.209
23.74000 492.137
23.91000 484.168
24.08000 501.976
24.25000 493.396
24.42000 462.248
24.59000 499.924
24.76000 484.763
24.93000 478.111
25.10000 474.390
25.27000 474.023
25.44000 474.044
25.61000 473.294
25.78000 462.283
25.95000 456.247
26.12000 457.757
26.29000 455.899
26.46000 463.738
26.63000 433.798
26.80000 437.754
26.97000 434.985
27.14000 419.753
27.31000 414.661
27.48000 438.108
27.65000 420.519
27.82000 410.116
27.99000 412.634
28.16000 420.178
28.33000 394.375
28.50000 403.346
28.67000 407.450
28.84000 412.729
29.01000 411.672
29.18000 407.445
29.35000 403.541
29.52000 385.719
29.69000 385.646
29.86000 391.822
30.03000 409.633
30.20000 416.663
30.37000 412.999
30.54000 392.503
30.71000 421.924
30.88000 421.544
31.05000 557.564
31.22000 1076.121
31.39000 1606.625
31.56000 1140.479
31.73000 571.792
31.90000 440.542
32.07000 405.208
32.24000 389.817
32.41000 370.982
32.58000 369.819
32.75000 371.525
32.92000 368.463
33.09000 345.555
33.26000 337.932
33.43000 314.569
33.60000 341.341
33.77000 334.210
33.94000 326.075
34.11000 317.832
34.28000 320.341
34.45000 331.713
34.62000 320.543
34.79000 317.298
34.96000 320.738
35.13000 319.726
35.30000 308.546
35.47000 297.853
35.64000 307.595
35.81000 299.152
35.98000 306.081
36.15000 290.666
36.32000 295.702
36.49000 298.788
36.66000 299.604
36.83000 300.411
37.00000 291.500
37.17000 284.107
37.34000 283.517
37.51000 281.975
37.68000 277.077
37.85000 287.104
38.02000 274.603
38.19000 301.067
38.36000 332.535
38.53000 492.710
38.70000 798.361
38.87000 640.139
39.04000 338.473
39.21000 268.706
39.38000 268.535
39.55000 264.224
39.72000 260.396
39.89000 273.612
40.06000 254.005
40.23000 235.827
40.40000 247.583
40.57000 249.753
40.74000 252.708
40.91000 243.445
41.08000 241.415
41.25000 227.046
41.42000 236.178
41.59000 233.298
41.76000 246.786
41.93000 243.863
42.10000 238.300
42.27000 234.936
42.44000 233.068
42.61000 223.771
42.78000 216.598
42.95000 236.085
43.12000 228.278
43.29000 230.083
43.46000 234.217
43.63000 221.245
43.80000 222.286
43.97000 227.850
44.14000 232.789
44.31000 220.765
44.48000 213.656
44.65000 227.074
44.82000 254.085
44.99000 268.916
45.16000 288.510
45.33000 286.518
45.50000 257.458
45.67000 243.066
45.84000 229.918
46.01000 217.598
46.18000 210.588
46.35000 191.691
46.52000 196.580
46.69000 197.510
46.86000 197.221
47.03000 187.845
47.20000 186.944
47.37000 191.110
47.54000 177.217
47.71000 165.874
47.88000 185.298
48.05000 176.115
48.22000 162.900
48.39000 185.572
48.56000 179.003
48.73000 179.300
48.90000 176.721
49.07000 176.980
49.24000 176.696
49.41000 162.132
49.58000 169.802
49.75000 175.363
49.92000 172.360
50.09000 186.035
50.26000 174.774
50.43000 182.665
50.60000 204.552
50.77000 202.093
50.94000 177.251
51.11000 187.289
51.28000 168.072
51.45000 168.101
51.62000 162.446
51.79000 155.283
51.96000 155.418
52.13000 164.306
52.30000 147.014
52.47000 166.210
52.64000 151.417
52.81000 148.316
52.98000 168.423
53.15000 154.379
53.32000 152.291
53.49000 151.487
53.66000 159.126
53.83000 162.763
54.00000 149.128
54.17000 139.262
54.34000 148.743
54.51000 145.204
54.68000 148.543
54.85000 148.977
55.02000 160.622
55.19000 150.650
55.36000 168.848
55.53000 196.406
55.70000 308.601
55.87000 431.662
56.04000 449.477
56.21000 319.876
56.38000 219.029
56.55000 163.265
56.72000 162.935
56.89000 141.909
57.06000 152.210
57.23000 142.116
57.40000 135.514
57.57000 147.178
57.74000 134.811
57.91000 141.437
58.08000 133.343
58.25000 129.819
58.42000 140.123
58.59000 136.232
58.76000 129.320
58.93000 130.247
59.10000 122.598
59.27000 121.014
59.44000 135.482
59.61000 132.789
59.78000 139.590
59.95000 134.850
60.12000 139.935
60.29000 126.735
60.46000 137.609
60.63000 134.666
60.80000 132.171
60.97000 138.046
61.14000 135.347
61.31000 134.185
61.48000 151.098
61.65000 268.320
61.82000 184.065
61.99000 139.652
62.16000 135.272
62.33000 145.084
62.50000 149.876
62.67000 151.800
62.84000 138.811
63.01000 146.142
63.18000 137.952
63.35000 163.269
63.52000 145.625
63.69000 162.133
63.86000 167.252
64.03000 155.626
64.20000 157.306
64.37000 158.433
64.54000 169.827
64.71000 172.184
64.88000 181.701
65.05000 189.016
65.22000 218.988
65.39000 240.004
65.56000 298.561
65.73000 639.723
65.90000 1094.760
66.07000 387.219
66.24000 319.762
66.41000 460.108
66.58000 358.759
66.75000 322.267
66.92000 333.818
67.09000 361.504
67.26000 387.196
67.43000 414.636
67.60000 446.564
67.77000 467.043
67.94000 501.702
68.11000 562.441
68.28000 632.331
68.45000 708.382
68.62000 1056.359
68.79000 1906.023
68.96000 12632.811
69.13000 55808.484
69.30000 32676.025
69.47000 7624.827
69.64000 1243.848
69.81000 841.568
69.98000 642.551
70.00000 650.780