File: XRD/17-09-2025/XY Data/BTO_Mapping_Theta2Theta_09-17-2025_001_08_30-000_-30-000.xy
20.00000 549.682
20.17000 539.460
20.34000 539.147
20.51000 537.615
20.68000 543.727
20.85000 545.188
21.02000 542.419
21.19000 531.619
21.36000 550.953
21.53000 545.250
21.70000 550.079
21.87000 589.673
22.04000 636.220
22.21000 621.858
22.38000 566.548
22.55000 520.880
22.72000 515.174
22.89000 510.092
23.06000 510.050
23.23000 525.605
23.40000 496.231
23.57000 488.890
23.74000 500.821
23.91000 525.013
24.08000 520.756
24.25000 506.290
24.42000 497.901
24.59000 465.230
24.76000 496.537
24.93000 473.205
25.10000 452.910
25.27000 453.523
25.44000 462.640
25.61000 444.166
25.78000 453.305
25.95000 440.671
26.12000 462.380
26.29000 471.905
26.46000 453.001
26.63000 434.802
26.80000 448.949
26.97000 428.963
27.14000 437.650
27.31000 433.971
27.48000 445.981
27.65000 430.291
27.82000 415.931
27.99000 408.487
28.16000 421.534
28.33000 430.126
28.50000 409.885
28.67000 407.837
28.84000 416.653
29.01000 397.713
29.18000 408.226
29.35000 397.525
29.52000 399.587
29.69000 388.376
29.86000 393.956
30.03000 417.373
30.20000 413.847
30.37000 405.181
30.54000 418.130
30.71000 412.120
30.88000 449.070
31.05000 529.769
31.22000 1219.507
31.39000 2212.999
31.56000 1328.462
31.73000 556.687
31.90000 427.484
32.07000 393.318
32.24000 384.082
32.41000 386.231
32.58000 379.033
32.75000 360.685
32.92000 334.667
33.09000 348.070
33.26000 350.155
33.43000 337.108
33.60000 337.353
33.77000 329.603
33.94000 353.104
34.11000 331.829
34.28000 349.983
34.45000 360.004
34.62000 334.348
34.79000 321.792
34.96000 308.329
35.13000 319.187
35.30000 318.380
35.47000 305.706
35.64000 299.773
35.81000 307.271
35.98000 296.290
36.15000 289.170
36.32000 285.173
36.49000 298.177
36.66000 294.612
36.83000 287.268
37.00000 304.101
37.17000 303.522
37.34000 289.540
37.51000 284.133
37.68000 274.157
37.85000 293.202
38.02000 299.260
38.19000 285.188
38.36000 324.486
38.53000 511.553
38.70000 986.971
38.87000 828.861
39.04000 366.701
39.21000 281.452
39.38000 272.608
39.55000 258.883
39.72000 259.010
39.89000 263.080
40.06000 263.074
40.23000 258.546
40.40000 245.838
40.57000 243.037
40.74000 260.020
40.91000 247.626
41.08000 244.955
41.25000 233.410
41.42000 243.165
41.59000 234.815
41.76000 253.839
41.93000 236.248
42.10000 240.860
42.27000 238.548
42.44000 239.540
42.61000 232.049
42.78000 245.724
42.95000 227.126
43.12000 226.339
43.29000 223.372
43.46000 226.888
43.63000 214.722
43.80000 216.095
43.97000 216.188
44.14000 217.982
44.31000 212.940
44.48000 225.697
44.65000 248.648
44.82000 258.037
44.99000 277.297
45.16000 303.274
45.33000 260.764
45.50000 236.025
45.67000 211.829
45.84000 216.126
46.01000 202.555
46.18000 207.327
46.35000 192.619
46.52000 201.169
46.69000 194.177
46.86000 198.081
47.03000 188.852
47.20000 184.666
47.37000 185.087
47.54000 183.444
47.71000 186.206
47.88000 187.565
48.05000 174.528
48.22000 186.898
48.39000 175.331
48.56000 176.207
48.73000 177.131
48.90000 170.762
49.07000 188.875
49.24000 179.225
49.41000 174.106
49.58000 176.476
49.75000 175.080
49.92000 164.658
50.09000 167.392
50.26000 174.316
50.43000 184.785
50.60000 199.581
50.77000 240.579
50.94000 198.681
51.11000 168.555
51.28000 165.034
51.45000 169.852
51.62000 169.369
51.79000 170.948
51.96000 170.388
52.13000 145.282
52.30000 148.172
52.47000 149.640
52.64000 160.614
52.81000 156.426
52.98000 155.113
53.15000 153.516
53.32000 165.022
53.49000 160.272
53.66000 151.679
53.83000 150.196
54.00000 152.491
54.17000 156.634
54.34000 163.467
54.51000 157.092
54.68000 157.090
54.85000 153.202
55.02000 159.904
55.19000 160.089
55.36000 148.544
55.53000 181.607
55.70000 293.034
55.87000 507.302
56.04000 568.157
56.21000 350.618
56.38000 209.065
56.55000 163.238
56.72000 146.842
56.89000 150.280
57.06000 144.876
57.23000 138.098
57.40000 144.872
57.57000 134.745
57.74000 139.527
57.91000 136.681
58.08000 138.974
58.25000 139.874
58.42000 132.086
58.59000 133.954
58.76000 128.114
58.93000 135.122
59.10000 132.195
59.27000 124.458
59.44000 133.446
59.61000 133.126
59.78000 130.207
59.95000 131.019
60.12000 133.827
60.29000 131.833
60.46000 133.215
60.63000 133.123
60.80000 138.650
60.97000 140.941
61.14000 127.550
61.31000 140.087
61.48000 132.721
61.65000 245.206
61.82000 200.141
61.99000 136.413
62.16000 140.197
62.33000 130.637
62.50000 143.754
62.67000 134.168
62.84000 145.148
63.01000 135.389
63.18000 136.826
63.35000 146.296
63.52000 159.733
63.69000 148.399
63.86000 153.237
64.03000 154.948
64.20000 158.504
64.37000 158.651
64.54000 158.954
64.71000 171.993
64.88000 169.013
65.05000 191.686
65.22000 221.905
65.39000 250.470
65.56000 332.766
65.73000 543.254
65.90000 881.889
66.07000 331.475
66.24000 285.905
66.41000 384.319
66.58000 318.979
66.75000 293.895
66.92000 318.213
67.09000 324.487
67.26000 345.229
67.43000 389.684
67.60000 408.921
67.77000 435.936
67.94000 481.379
68.11000 548.492
68.28000 577.230
68.45000 667.372
68.62000 953.921
68.79000 1671.571
68.96000 10926.248
69.13000 49604.043
69.30000 29155.441
69.47000 6601.947
69.64000 1158.716
69.81000 785.625
69.98000 646.629
70.00000 623.321