File: XRD/17-09-2025/XY Data/BTO_Mapping_Theta2Theta_09-17-2025_001_21_30-000_0-000.xy
20.00000 546.103
20.17000 556.585
20.34000 559.921
20.51000 547.032
20.68000 552.628
20.85000 527.740
21.02000 557.865
21.19000 538.769
21.36000 579.476
21.53000 527.334
21.70000 547.582
21.87000 582.715
22.04000 644.340
22.21000 596.552
22.38000 539.927
22.55000 524.277
22.72000 517.598
22.89000 519.248
23.06000 494.690
23.23000 499.374
23.40000 503.373
23.57000 487.055
23.74000 527.181
23.91000 523.616
24.08000 518.493
24.25000 502.537
24.42000 487.006
24.59000 472.187
24.76000 467.476
24.93000 477.820
25.10000 451.511
25.27000 480.425
25.44000 451.837
25.61000 454.143
25.78000 448.914
25.95000 458.212
26.12000 466.116
26.29000 451.806
26.46000 466.555
26.63000 450.046
26.80000 439.355
26.97000 438.713
27.14000 429.631
27.31000 432.161
27.48000 430.429
27.65000 435.458
27.82000 440.838
27.99000 413.905
28.16000 414.775
28.33000 408.287
28.50000 414.449
28.67000 407.891
28.84000 421.526
29.01000 419.252
29.18000 399.465
29.35000 398.177
29.52000 396.523
29.69000 415.241
29.86000 403.132
30.03000 423.023
30.20000 404.829
30.37000 397.184
30.54000 397.085
30.71000 417.609
30.88000 447.949
31.05000 563.931
31.22000 1176.156
31.39000 2123.627
31.56000 1251.591
31.73000 531.484
31.90000 426.074
32.07000 410.740
32.24000 396.628
32.41000 389.545
32.58000 389.911
32.75000 346.847
32.92000 358.773
33.09000 338.769
33.26000 345.879
33.43000 326.986
33.60000 335.760
33.77000 335.598
33.94000 339.278
34.11000 338.789
34.28000 355.800
34.45000 351.497
34.62000 347.457
34.79000 330.004
34.96000 324.940
35.13000 313.026
35.30000 319.395
35.47000 300.693
35.64000 304.967
35.81000 312.266
35.98000 294.223
36.15000 294.559
36.32000 287.060
36.49000 306.042
36.66000 294.345
36.83000 297.916
37.00000 314.572
37.17000 301.625
37.34000 306.424
37.51000 288.754
37.68000 300.139
37.85000 289.508
38.02000 280.941
38.19000 294.352
38.36000 323.995
38.53000 534.591
38.70000 1102.039
38.87000 907.045
39.04000 383.915
39.21000 290.035
39.38000 284.152
39.55000 276.010
39.72000 269.297
39.89000 265.271
40.06000 253.173
40.23000 266.512
40.40000 251.216
40.57000 266.855
40.74000 244.340
40.91000 239.873
41.08000 251.236
41.25000 238.918
41.42000 242.186
41.59000 230.933
41.76000 251.780
41.93000 245.961
42.10000 233.973
42.27000 239.461
42.44000 226.383
42.61000 237.311
42.78000 238.628
42.95000 226.429
43.12000 228.530
43.29000 222.174
43.46000 227.332
43.63000 210.500
43.80000 222.196
43.97000 219.935
44.14000 215.963
44.31000 213.547
44.48000 219.573
44.65000 233.033
44.82000 243.918
44.99000 274.718
45.16000 300.709
45.33000 259.927
45.50000 237.210
45.67000 208.676
45.84000 211.689
46.01000 193.156
46.18000 188.176
46.35000 192.160
46.52000 199.768
46.69000 203.087
46.86000 209.806
47.03000 198.972
47.20000 192.366
47.37000 198.286
47.54000 192.499
47.71000 177.936
47.88000 181.208
48.05000 175.953
48.22000 176.719
48.39000 187.975
48.56000 179.557
48.73000 182.533
48.90000 188.905
49.07000 192.377
49.24000 177.601
49.41000 178.519
49.58000 163.124
49.75000 176.015
49.92000 179.282
50.09000 172.515
50.26000 170.933
50.43000 193.540
50.60000 225.522
50.77000 213.726
50.94000 199.751
51.11000 178.396
51.28000 165.879
51.45000 163.772
51.62000 159.433
51.79000 158.686
51.96000 155.413
52.13000 157.509
52.30000 156.925
52.47000 160.118
52.64000 168.448
52.81000 162.421
52.98000 156.365
53.15000 155.796
53.32000 155.427
53.49000 153.100
53.66000 159.175
53.83000 152.395
54.00000 143.555
54.17000 162.167
54.34000 147.005
54.51000 150.355
54.68000 158.440
54.85000 163.140
55.02000 166.784
55.19000 171.643
55.36000 173.892
55.53000 182.303
55.70000 286.365
55.87000 520.349
56.04000 555.842
56.21000 339.642
56.38000 209.496
56.55000 166.256
56.72000 151.016
56.89000 138.999
57.06000 145.341
57.23000 149.130
57.40000 142.606
57.57000 139.511
57.74000 137.948
57.91000 135.461
58.08000 129.587
58.25000 139.536
58.42000 133.426
58.59000 139.445
58.76000 131.082
58.93000 126.645
59.10000 135.223
59.27000 128.774
59.44000 130.462
59.61000 143.165
59.78000 137.065
59.95000 135.382
60.12000 140.290
60.29000 129.719
60.46000 136.749
60.63000 126.870
60.80000 141.080
60.97000 129.804
61.14000 128.760
61.31000 127.419
61.48000 139.794
61.65000 247.296
61.82000 197.334
61.99000 136.085
62.16000 134.262
62.33000 139.378
62.50000 141.987
62.67000 144.662
62.84000 146.107
63.01000 139.943
63.18000 146.267
63.35000 145.700
63.52000 143.363
63.69000 148.971
63.86000 146.192
64.03000 149.991
64.20000 160.667
64.37000 154.057
64.54000 162.663
64.71000 166.893
64.88000 181.044
65.05000 171.477
65.22000 204.944
65.39000 256.813
65.56000 318.533
65.73000 545.629
65.90000 862.346
66.07000 327.977
66.24000 295.639
66.41000 385.800
66.58000 318.791
66.75000 287.023
66.92000 311.198
67.09000 326.711
67.26000 363.631
67.43000 370.987
67.60000 416.004
67.77000 442.238
67.94000 482.136
68.11000 525.573
68.28000 580.234
68.45000 686.142
68.62000 919.175
68.79000 1617.142
68.96000 9826.429
69.13000 48913.680
69.30000 29111.420
69.47000 6962.372
69.64000 1118.961
69.81000 769.685
69.98000 648.882
70.00000 627.451