File: XRD/17-09-2025/XY Data/BTO_Mapping_Theta2Theta_09-17-2025_001_37_15-000_45-000.xy
20.00000 557.204
20.17000 561.095
20.34000 538.446
20.51000 551.039
20.68000 526.345
20.85000 533.424
21.02000 528.108
21.19000 529.357
21.36000 537.061
21.53000 549.314
21.70000 489.096
21.87000 512.212
22.04000 505.947
22.21000 513.350
22.38000 505.590
22.55000 508.591
22.72000 513.755
22.89000 511.791
23.06000 495.525
23.23000 489.823
23.40000 503.123
23.57000 468.751
23.74000 492.980
23.91000 487.627
24.08000 469.853
24.25000 494.746
24.42000 467.295
24.59000 452.229
24.76000 468.430
24.93000 466.583
25.10000 439.592
25.27000 461.996
25.44000 452.468
25.61000 447.988
25.78000 445.574
25.95000 457.696
26.12000 428.049
26.29000 443.689
26.46000 424.105
26.63000 439.225
26.80000 432.206
26.97000 430.186
27.14000 439.372
27.31000 420.340
27.48000 426.154
27.65000 422.679
27.82000 397.823
27.99000 397.628
28.16000 394.400
28.33000 399.370
28.50000 399.347
28.67000 395.812
28.84000 377.919
29.01000 403.180
29.18000 389.045
29.35000 389.348
29.52000 395.546
29.69000 374.876
29.86000 381.037
30.03000 380.665
30.20000 370.670
30.37000 359.228
30.54000 372.503
30.71000 363.664
30.88000 369.013
31.05000 338.261
31.22000 366.968
31.39000 349.013
31.56000 344.764
31.73000 347.505
31.90000 348.938
32.07000 348.459
32.24000 334.433
32.41000 347.634
32.58000 338.529
32.75000 337.696
32.92000 317.254
33.09000 334.324
33.26000 332.481
33.43000 328.915
33.60000 317.918
33.77000 326.369
33.94000 323.876
34.11000 315.600
34.28000 321.064
34.45000 302.290
34.62000 310.603
34.79000 307.353
34.96000 304.853
35.13000 298.388
35.30000 300.872
35.47000 310.723
35.64000 296.960
35.81000 297.575
35.98000 297.968
36.15000 288.429
36.32000 301.801
36.49000 293.083
36.66000 282.476
36.83000 284.115
37.00000 278.594
37.17000 276.662
37.34000 277.599
37.51000 260.275
37.68000 252.211
37.85000 259.869
38.02000 259.097
38.19000 265.832
38.36000 269.331
38.53000 273.493
38.70000 275.385
38.87000 270.304
39.04000 248.297
39.21000 253.832
39.38000 250.391
39.55000 265.890
39.72000 262.275
39.89000 253.179
40.06000 254.319
40.23000 243.349
40.40000 249.980
40.57000 230.807
40.74000 228.097
40.91000 251.520
41.08000 234.482
41.25000 220.383
41.42000 219.649
41.59000 234.396
41.76000 230.057
41.93000 237.974
42.10000 235.908
42.27000 215.492
42.44000 237.317
42.61000 228.024
42.78000 211.117
42.95000 216.762
43.12000 214.986
43.29000 216.067
43.46000 212.146
43.63000 209.695
43.80000 212.348
43.97000 208.493
44.14000 219.016
44.31000 195.342
44.48000 211.785
44.65000 189.881
44.82000 209.107
44.99000 195.932
45.16000 198.268
45.33000 186.428
45.50000 210.796
45.67000 190.136
45.84000 193.776
46.01000 188.795
46.18000 188.214
46.35000 188.702
46.52000 191.782
46.69000 182.338
46.86000 189.692
47.03000 188.005
47.20000 194.122
47.37000 169.715
47.54000 187.818
47.71000 191.332
47.88000 178.373
48.05000 186.242
48.22000 182.444
48.39000 182.916
48.56000 177.436
48.73000 185.243
48.90000 164.043
49.07000 172.435
49.24000 166.086
49.41000 173.285
49.58000 171.822
49.75000 171.511
49.92000 156.818
50.09000 160.759
50.26000 171.780
50.43000 169.548
50.60000 158.337
50.77000 174.349
50.94000 162.052
51.11000 163.122
51.28000 167.711
51.45000 158.494
51.62000 164.262
51.79000 161.828
51.96000 164.748
52.13000 164.197
52.30000 161.685
52.47000 149.777
52.64000 147.379
52.81000 160.655
52.98000 154.260
53.15000 154.353
53.32000 153.188
53.49000 147.236
53.66000 156.887
53.83000 145.326
54.00000 147.783
54.17000 138.312
54.34000 147.575
54.51000 141.360
54.68000 146.459
54.85000 144.175
55.02000 144.524
55.19000 146.537
55.36000 146.528
55.53000 131.022
55.70000 138.455
55.87000 141.279
56.04000 139.102
56.21000 133.788
56.38000 142.539
56.55000 141.784
56.72000 144.054
56.89000 132.034
57.06000 130.912
57.23000 128.577
57.40000 134.621
57.57000 136.485
57.74000 133.595
57.91000 134.162
58.08000 130.907
58.25000 136.621
58.42000 135.109
58.59000 142.946
58.76000 133.426
58.93000 133.845
59.10000 136.340
59.27000 125.917
59.44000 123.737
59.61000 141.265
59.78000 132.461
59.95000 128.496
60.12000 143.044
60.29000 140.555
60.46000 133.799
60.63000 130.333
60.80000 130.545
60.97000 133.938
61.14000 130.973
61.31000 130.042
61.48000 141.047
61.65000 244.480
61.82000 197.150
61.99000 139.353
62.16000 130.598
62.33000 145.102
62.50000 154.086
62.67000 141.942
62.84000 144.026
63.01000 145.197
63.18000 148.497
63.35000 145.533
63.52000 156.905
63.69000 157.027
63.86000 146.359
64.03000 142.676
64.20000 170.476
64.37000 161.820
64.54000 163.041
64.71000 183.049
64.88000 164.252
65.05000 184.591
65.22000 183.915
65.39000 204.304
65.56000 231.420
65.73000 472.552
65.90000 918.117
66.07000 351.716
66.24000 293.664
66.41000 425.625
66.58000 346.264
66.75000 315.838
66.92000 356.218
67.09000 361.782
67.26000 396.812
67.43000 405.164
67.60000 451.502
67.77000 473.504
67.94000 534.985
68.11000 607.445
68.28000 662.174
68.45000 752.134
68.62000 1005.032
68.79000 1857.848
68.96000 9820.615
69.13000 55486.035
69.30000 34503.531
69.47000 8927.707
69.64000 1306.315
69.81000 862.521
69.98000 711.344
70.00000 686.612