File: XRD/17-09-2025/XY Data/BTO_Mapping_Theta2Theta_09-17-2025_001_19_0-000_0-000.xy
20.00000 537.074
20.17000 569.934
20.34000 570.495
20.51000 565.897
20.68000 557.618
20.85000 525.349
21.02000 560.999
21.19000 565.409
21.36000 588.474
21.53000 559.540
21.70000 563.866
21.87000 634.880
22.04000 813.783
22.21000 685.283
22.38000 565.493
22.55000 517.983
22.72000 525.777
22.89000 514.001
23.06000 516.332
23.23000 506.210
23.40000 510.309
23.57000 485.151
23.74000 502.236
23.91000 492.240
24.08000 479.753
24.25000 481.698
24.42000 482.258
24.59000 479.613
24.76000 475.812
24.93000 456.730
25.10000 467.936
25.27000 475.346
25.44000 461.734
25.61000 467.258
25.78000 448.901
25.95000 449.373
26.12000 452.747
26.29000 478.899
26.46000 451.734
26.63000 455.252
26.80000 466.887
26.97000 463.873
27.14000 454.219
27.31000 426.891
27.48000 421.875
27.65000 429.445
27.82000 436.223
27.99000 446.749
28.16000 437.571
28.33000 419.090
28.50000 418.697
28.67000 419.819
28.84000 409.549
29.01000 414.358
29.18000 397.204
29.35000 401.328
29.52000 409.471
29.69000 417.580
29.86000 420.041
30.03000 466.590
30.20000 443.095
30.37000 423.739
30.54000 437.568
30.71000 449.077
30.88000 488.528
31.05000 677.946
31.22000 1912.497
31.39000 3692.910
31.56000 1749.568
31.73000 573.712
31.90000 439.938
32.07000 425.400
32.24000 403.238
32.41000 375.739
32.58000 376.159
32.75000 367.670
32.92000 341.534
33.09000 320.402
33.26000 345.044
33.43000 332.014
33.60000 335.050
33.77000 330.927
33.94000 336.681
34.11000 330.365
34.28000 336.614
34.45000 311.071
34.62000 333.462
34.79000 303.384
34.96000 322.118
35.13000 318.086
35.30000 319.483
35.47000 309.885
35.64000 308.203
35.81000 290.169
35.98000 295.534
36.15000 286.392
36.32000 297.229
36.49000 298.903
36.66000 284.626
36.83000 293.640
37.00000 299.970
37.17000 296.639
37.34000 293.512
37.51000 291.165
37.68000 307.214
37.85000 280.542
38.02000 309.245
38.19000 305.320
38.36000 326.152
38.53000 504.702
38.70000 778.981
38.87000 571.666
39.04000 331.013
39.21000 289.532
39.38000 289.392
39.55000 272.014
39.72000 275.870
39.89000 247.130
40.06000 259.832
40.23000 271.714
40.40000 248.099
40.57000 251.145
40.74000 256.384
40.91000 246.195
41.08000 246.133
41.25000 252.402
41.42000 229.983
41.59000 243.967
41.76000 247.372
41.93000 234.917
42.10000 249.927
42.27000 261.274
42.44000 231.531
42.61000 218.611
42.78000 234.174
42.95000 226.555
43.12000 228.736
43.29000 216.357
43.46000 207.755
43.63000 230.985
43.80000 227.370
43.97000 221.530
44.14000 221.049
44.31000 204.949
44.48000 240.452
44.65000 224.631
44.82000 285.352
44.99000 426.732
45.16000 451.328
45.33000 310.404
45.50000 247.801
45.67000 216.378
45.84000 204.455
46.01000 205.109
46.18000 201.820
46.35000 214.482
46.52000 194.520
46.69000 211.355
46.86000 198.445
47.03000 189.554
47.20000 199.574
47.37000 189.378
47.54000 201.052
47.71000 195.068
47.88000 188.015
48.05000 198.456
48.22000 179.681
48.39000 173.595
48.56000 170.426
48.73000 178.624
48.90000 176.179
49.07000 174.059
49.24000 182.688
49.41000 178.560
49.58000 179.596
49.75000 186.187
49.92000 181.447
50.09000 170.397
50.26000 189.484
50.43000 211.486
50.60000 258.601
50.77000 260.856
50.94000 228.681
51.11000 180.089
51.28000 175.137
51.45000 166.202
51.62000 161.934
51.79000 151.933
51.96000 159.927
52.13000 170.541
52.30000 161.373
52.47000 165.005
52.64000 154.349
52.81000 156.584
52.98000 152.237
53.15000 166.096
53.32000 156.080
53.49000 173.154
53.66000 168.199
53.83000 158.968
54.00000 158.855
54.17000 153.264
54.34000 156.995
54.51000 157.633
54.68000 151.914
54.85000 155.813
55.02000 155.821
55.19000 167.090
55.36000 174.177
55.53000 199.093
55.70000 328.891
55.87000 607.318
56.04000 579.380
56.21000 343.106
56.38000 191.721
56.55000 166.687
56.72000 161.188
56.89000 153.538
57.06000 146.700
57.23000 136.398
57.40000 143.105
57.57000 142.216
57.74000 136.532
57.91000 132.735
58.08000 141.561
58.25000 141.549
58.42000 128.021
58.59000 151.117
58.76000 138.532
58.93000 141.771
59.10000 132.274
59.27000 138.286
59.44000 132.755
59.61000 130.859
59.78000 133.542
59.95000 130.649
60.12000 127.091
60.29000 144.207
60.46000 130.376
60.63000 130.918
60.80000 136.671
60.97000 124.668
61.14000 139.136
61.31000 135.034
61.48000 153.307
61.65000 307.278
61.82000 204.713
61.99000 142.620
62.16000 131.649
62.33000 152.207
62.50000 135.774
62.67000 143.530
62.84000 149.262
63.01000 141.821
63.18000 148.164
63.35000 147.589
63.52000 143.393
63.69000 150.073
63.86000 158.957
64.03000 156.596
64.20000 155.364
64.37000 169.386
64.54000 176.059
64.71000 181.848
64.88000 190.594
65.05000 199.513
65.22000 231.809
65.39000 341.313
65.56000 453.227
65.73000 797.483
65.90000 1258.590
66.07000 399.824
66.24000 336.694
66.41000 457.441
66.58000 365.624
66.75000 336.506
66.92000 348.399
67.09000 376.390
67.26000 405.931
67.43000 423.529
67.60000 474.056
67.77000 487.245
67.94000 542.476
68.11000 607.349
68.28000 673.009
68.45000 780.829
68.62000 1212.019
68.79000 2267.784
68.96000 18363.201
69.13000 75018.086
69.30000 43488.145
69.47000 9545.483
69.64000 1413.466
69.81000 955.928
69.98000 745.320
70.00000 740.738