File: XRD/17-09-2025/XY Data/BTO_fwhm_results.csv
X Coordinates,Y Coordinates,FWHM
-45.0,0.0,0.302655
-30.0,-30.0,0.310129
-30.0,-15.0,0.317339
-30.0,0.0,0.318096
-30.0,15.0,0.305262
-30.0,30.0,0.307309
-15.0,-45.0,0.328766
-15.0,-30.0,0.309924
-15.0,-15.0,0.305858
-15.0,0.0,0.30364
-15.0,15.0,0.312431
-15.0,30.0,0.315722
0.0,-45.0,0.311528
0.0,-30.0,0.31277
0.0,-15.0,0.309049
0.0,0.0,0.30795
0.0,15.0,0.312145
0.0,30.0,0.311784
15.0,-45.0,0.337179
15.0,-30.0,0.311013
15.0,-15.0,0.317552
15.0,0.0,0.315349
15.0,15.0,0.322099
15.0,30.0,0.328691
30.0,-30.0,0.334455
30.0,-15.0,0.329794
30.0,0.0,0.327418
30.0,15.0,0.32377