File: XRD/17-09-2025/XY Data/BTO_Mapping_Theta2Theta_09-17-2025_001_23_-45-000_15-000.xy
20.00000 555.731
20.17000 560.426
20.34000 532.516
20.51000 545.881
20.68000 537.033
20.85000 537.659
21.02000 529.498
21.19000 536.813
21.36000 547.915
21.53000 523.671
21.70000 540.065
21.87000 527.793
22.04000 525.478
22.21000 523.980
22.38000 507.201
22.55000 496.401
22.72000 517.452
22.89000 478.231
23.06000 510.396
23.23000 496.324
23.40000 490.255
23.57000 488.789
23.74000 476.715
23.91000 477.037
24.08000 463.799
24.25000 480.337
24.42000 461.214
24.59000 456.737
24.76000 445.695
24.93000 453.972
25.10000 459.527
25.27000 454.988
25.44000 458.719
25.61000 457.048
25.78000 444.047
25.95000 448.776
26.12000 447.631
26.29000 435.198
26.46000 425.670
26.63000 442.102
26.80000 424.047
26.97000 428.012
27.14000 415.818
27.31000 426.559
27.48000 415.820
27.65000 409.508
27.82000 416.008
27.99000 414.911
28.16000 394.737
28.33000 421.056
28.50000 408.355
28.67000 394.482
28.84000 387.609
29.01000 388.010
29.18000 382.394
29.35000 384.990
29.52000 375.313
29.69000 370.822
29.86000 379.891
30.03000 370.135
30.20000 368.118
30.37000 366.413
30.54000 368.713
30.71000 370.829
30.88000 349.183
31.05000 357.011
31.22000 345.208
31.39000 345.972
31.56000 357.642
31.73000 353.044
31.90000 343.440
32.07000 340.797
32.24000 345.945
32.41000 338.049
32.58000 354.082
32.75000 347.467
32.92000 336.563
33.09000 324.155
33.26000 323.268
33.43000 330.110
33.60000 340.350
33.77000 334.053
33.94000 322.837
34.11000 322.208
34.28000 322.454
34.45000 337.251
34.62000 324.147
34.79000 309.637
34.96000 300.005
35.13000 299.672
35.30000 299.525
35.47000 299.162
35.64000 304.366
35.81000 296.087
35.98000 296.191
36.15000 293.766
36.32000 281.450
36.49000 292.824
36.66000 286.822
36.83000 289.571
37.00000 285.005
37.17000 276.034
37.34000 274.934
37.51000 277.260
37.68000 275.168
37.85000 276.302
38.02000 264.300
38.19000 270.880
38.36000 250.554
38.53000 261.805
38.70000 240.463
38.87000 242.359
39.04000 248.756
39.21000 258.023
39.38000 262.978
39.55000 251.082
39.72000 239.579
39.89000 249.382
40.06000 256.068
40.23000 240.751
40.40000 256.633
40.57000 244.100
40.74000 232.400
40.91000 236.146
41.08000 237.521
41.25000 232.817
41.42000 244.748
41.59000 224.958
41.76000 225.662
41.93000 240.619
42.10000 227.431
42.27000 225.384
42.44000 222.890
42.61000 224.870
42.78000 232.407
42.95000 211.105
43.12000 218.858
43.29000 219.136
43.46000 211.215
43.63000 215.361
43.80000 216.387
43.97000 205.989
44.14000 211.355
44.31000 197.689
44.48000 207.112
44.65000 195.967
44.82000 199.354
44.99000 194.401
45.16000 191.028
45.33000 198.216
45.50000 181.391
45.67000 196.337
45.84000 182.741
46.01000 194.036
46.18000 194.082
46.35000 195.040
46.52000 187.358
46.69000 193.615
46.86000 176.618
47.03000 175.819
47.20000 176.671
47.37000 184.309
47.54000 183.254
47.71000 175.095
47.88000 193.839
48.05000 185.476
48.22000 188.407
48.39000 178.456
48.56000 181.082
48.73000 179.210
48.90000 167.988
49.07000 161.591
49.24000 167.854
49.41000 176.530
49.58000 160.566
49.75000 159.338
49.92000 167.670
50.09000 180.707
50.26000 165.311
50.43000 176.245
50.60000 160.418
50.77000 160.440
50.94000 159.674
51.11000 170.679
51.28000 156.482
51.45000 158.492
51.62000 172.717
51.79000 146.558
51.96000 148.901
52.13000 151.511
52.30000 148.076
52.47000 147.801
52.64000 155.419
52.81000 161.503
52.98000 151.500
53.15000 145.743
53.32000 149.284
53.49000 138.043
53.66000 148.586
53.83000 146.713
54.00000 154.914
54.17000 135.445
54.34000 145.549
54.51000 138.645
54.68000 144.983
54.85000 143.472
55.02000 150.885
55.19000 134.959
55.36000 144.451
55.53000 136.123
55.70000 148.436
55.87000 148.824
56.04000 141.944
56.21000 136.452
56.38000 139.522
56.55000 144.335
56.72000 136.734
56.89000 148.304
57.06000 139.645
57.23000 128.055
57.40000 143.695
57.57000 141.856
57.74000 140.601
57.91000 139.743
58.08000 126.456
58.25000 136.468
58.42000 129.504
58.59000 136.092
58.76000 138.173
58.93000 131.105
59.10000 130.164
59.27000 133.309
59.44000 141.329
59.61000 123.217
59.78000 132.121
59.95000 132.490
60.12000 145.146
60.29000 131.384
60.46000 129.935
60.63000 125.589
60.80000 129.938
60.97000 137.605
61.14000 138.679
61.31000 133.521
61.48000 144.035
61.65000 240.368
61.82000 177.594
61.99000 150.055
62.16000 138.191
62.33000 141.031
62.50000 139.960
62.67000 140.860
62.84000 145.914
63.01000 140.007
63.18000 152.508
63.35000 155.698
63.52000 149.648
63.69000 146.700
63.86000 167.070
64.03000 152.075
64.20000 146.212
64.37000 173.020
64.54000 180.295
64.71000 180.216
64.88000 183.538
65.05000 172.940
65.22000 190.291
65.39000 204.219
65.56000 233.915
65.73000 485.602
65.90000 911.154
66.07000 348.115
66.24000 295.680
66.41000 442.159
66.58000 337.593
66.75000 335.757
66.92000 331.118
67.09000 363.848
67.26000 382.090
67.43000 418.457
67.60000 441.768
67.77000 490.511
67.94000 526.078
68.11000 593.164
68.28000 645.255
68.45000 766.838
68.62000 1053.028
68.79000 1842.928
68.96000 11456.659
69.13000 55569.656
69.30000 33074.188
69.47000 8195.187
69.64000 1253.059
69.81000 852.851
69.98000 694.839
70.00000 665.219