File: XRD/17-09-2025/XY Data/BTO_Mapping_Theta2Theta_09-17-2025_001_20_15-000_0-000.xy
20.00000 548.785
20.17000 556.915
20.34000 556.888
20.51000 538.337
20.68000 549.263
20.85000 551.470
21.02000 551.977
21.19000 534.703
21.36000 573.886
21.53000 513.587
21.70000 526.820
21.87000 591.587
22.04000 660.014
22.21000 605.316
22.38000 552.423
22.55000 534.936
22.72000 517.505
22.89000 502.698
23.06000 518.984
23.23000 490.605
23.40000 476.329
23.57000 486.725
23.74000 484.133
23.91000 482.974
24.08000 491.448
24.25000 477.450
24.42000 490.896
24.59000 471.115
24.76000 465.357
24.93000 472.147
25.10000 462.396
25.27000 480.400
25.44000 477.166
25.61000 469.951
25.78000 468.526
25.95000 454.911
26.12000 461.165
26.29000 447.312
26.46000 444.127
26.63000 445.524
26.80000 451.376
26.97000 452.638
27.14000 433.530
27.31000 422.913
27.48000 440.793
27.65000 423.940
27.82000 431.367
27.99000 412.584
28.16000 428.208
28.33000 422.330
28.50000 396.022
28.67000 418.032
28.84000 403.393
29.01000 413.925
29.18000 400.538
29.35000 412.506
29.52000 402.331
29.69000 392.730
29.86000 417.081
30.03000 443.673
30.20000 429.032
30.37000 428.824
30.54000 424.688
30.71000 440.733
30.88000 461.600
31.05000 603.470
31.22000 1556.731
31.39000 3287.786
31.56000 1766.974
31.73000 592.601
31.90000 430.964
32.07000 407.411
32.24000 376.084
32.41000 379.952
32.58000 372.564
32.75000 342.942
32.92000 342.582
33.09000 346.262
33.26000 334.368
33.43000 332.469
33.60000 344.434
33.77000 330.413
33.94000 347.401
34.11000 337.877
34.28000 333.570
34.45000 336.445
34.62000 330.595
34.79000 305.539
34.96000 325.566
35.13000 317.338
35.30000 303.913
35.47000 303.760
35.64000 302.163
35.81000 300.707
35.98000 308.358
36.15000 298.698
36.32000 287.318
36.49000 297.305
36.66000 292.645
36.83000 289.762
37.00000 300.674
37.17000 297.080
37.34000 295.003
37.51000 308.173
37.68000 292.890
37.85000 293.826
38.02000 287.815
38.19000 294.361
38.36000 336.562
38.53000 526.326
38.70000 1017.341
38.87000 774.833
39.04000 352.173
39.21000 275.412
39.38000 276.186
39.55000 263.685
39.72000 275.888
39.89000 256.783
40.06000 256.033
40.23000 272.254
40.40000 257.398
40.57000 253.449
40.74000 249.889
40.91000 254.642
41.08000 235.609
41.25000 243.709
41.42000 251.594
41.59000 230.273
41.76000 231.730
41.93000 242.508
42.10000 223.946
42.27000 236.518
42.44000 222.995
42.61000 219.531
42.78000 220.887
42.95000 220.840
43.12000 221.767
43.29000 231.799
43.46000 223.929
43.63000 228.773
43.80000 210.670
43.97000 215.341
44.14000 213.141
44.31000 216.870
44.48000 216.961
44.65000 243.866
44.82000 236.293
44.99000 279.546
45.16000 325.383
45.33000 270.856
45.50000 233.481
45.67000 218.511
45.84000 205.344
46.01000 195.472
46.18000 201.135
46.35000 215.082
46.52000 200.717
46.69000 209.511
46.86000 194.570
47.03000 191.042
47.20000 178.563
47.37000 174.285
47.54000 194.567
47.71000 183.783
47.88000 183.335
48.05000 183.147
48.22000 171.685
48.39000 175.554
48.56000 185.224
48.73000 181.885
48.90000 179.364
49.07000 178.452
49.24000 175.233
49.41000 176.949
49.58000 169.322
49.75000 170.208
49.92000 165.131
50.09000 171.840
50.26000 174.300
50.43000 188.458
50.60000 243.548
50.77000 254.261
50.94000 214.334
51.11000 175.066
51.28000 169.010
51.45000 171.798
51.62000 170.020
51.79000 164.601
51.96000 171.623
52.13000 168.184
52.30000 144.198
52.47000 164.158
52.64000 163.209
52.81000 158.193
52.98000 147.196
53.15000 159.695
53.32000 169.070
53.49000 157.109
53.66000 145.946
53.83000 157.959
54.00000 157.225
54.17000 143.610
54.34000 157.654
54.51000 142.468
54.68000 148.110
54.85000 160.098
55.02000 153.950
55.19000 171.903
55.36000 156.320
55.53000 194.302
55.70000 291.547
55.87000 541.197
56.04000 591.305
56.21000 356.507
56.38000 204.910
56.55000 159.292
56.72000 152.355
56.89000 150.102
57.06000 137.049
57.23000 147.340
57.40000 150.725
57.57000 142.163
57.74000 142.336
57.91000 140.707
58.08000 137.727
58.25000 125.692
58.42000 149.816
58.59000 135.164
58.76000 134.765
58.93000 130.606
59.10000 129.239
59.27000 123.826
59.44000 130.037
59.61000 120.910
59.78000 129.965
59.95000 132.190
60.12000 140.637
60.29000 135.354
60.46000 123.677
60.63000 123.383
60.80000 131.900
60.97000 136.487
61.14000 144.702
61.31000 136.533
61.48000 144.096
61.65000 236.333
61.82000 173.714
61.99000 137.982
62.16000 139.953
62.33000 136.182
62.50000 143.272
62.67000 134.336
62.84000 136.547
63.01000 144.617
63.18000 144.609
63.35000 149.291
63.52000 149.235
63.69000 156.941
63.86000 145.518
64.03000 164.937
64.20000 154.381
64.37000 156.997
64.54000 169.202
64.71000 163.464
64.88000 167.066
65.05000 190.801
65.22000 211.706
65.39000 285.966
65.56000 375.196
65.73000 620.990
65.90000 923.834
66.07000 335.427
66.24000 287.710
66.41000 385.251
66.58000 294.125
66.75000 302.261
66.92000 295.953
67.09000 324.981
67.26000 351.027
67.43000 379.765
67.60000 392.054
67.77000 437.303
67.94000 468.423
68.11000 511.322
68.28000 593.244
68.45000 679.706
68.62000 909.967
68.79000 1636.355
68.96000 10859.351
69.13000 49356.402
69.30000 28802.783
69.47000 6611.578
69.64000 1110.431
69.81000 745.842
69.98000 613.469
70.00000 621.280