File: XRD/17-09-2025/XY Data/BTO_Mapping_Theta2Theta_09-17-2025_001_34_30-000_30-000.xy
20.00000 563.635
20.17000 555.949
20.34000 573.307
20.51000 533.289
20.68000 549.901
20.85000 552.062
21.02000 544.813
21.19000 543.664
21.36000 524.672
21.53000 541.918
21.70000 537.888
21.87000 588.581
22.04000 675.639
22.21000 633.502
22.38000 570.838
22.55000 526.347
22.72000 514.788
22.89000 490.203
23.06000 500.380
23.23000 519.695
23.40000 512.506
23.57000 512.136
23.74000 521.290
23.91000 532.703
24.08000 537.571
24.25000 520.679
24.42000 498.671
24.59000 473.451
24.76000 487.025
24.93000 471.900
25.10000 468.803
25.27000 476.307
25.44000 466.853
25.61000 444.356
25.78000 449.231
25.95000 457.622
26.12000 445.634
26.29000 445.590
26.46000 442.678
26.63000 453.235
26.80000 445.260
26.97000 419.101
27.14000 439.061
27.31000 434.812
27.48000 434.223
27.65000 404.778
27.82000 421.918
27.99000 431.163
28.16000 443.037
28.33000 418.085
28.50000 417.746
28.67000 403.770
28.84000 424.541
29.01000 416.765
29.18000 389.436
29.35000 399.391
29.52000 399.519
29.69000 391.802
29.86000 401.688
30.03000 410.476
30.20000 408.433
30.37000 385.627
30.54000 425.995
30.71000 408.341
30.88000 429.314
31.05000 502.794
31.22000 991.435
31.39000 1701.048
31.56000 1107.411
31.73000 541.494
31.90000 409.621
32.07000 392.116
32.24000 395.286
32.41000 369.222
32.58000 378.036
32.75000 364.762
32.92000 356.364
33.09000 367.110
33.26000 331.285
33.43000 341.896
33.60000 344.743
33.77000 340.138
33.94000 337.634
34.11000 343.524
34.28000 352.556
34.45000 364.985
34.62000 346.724
34.79000 323.044
34.96000 308.651
35.13000 320.436
35.30000 306.332
35.47000 302.924
35.64000 300.994
35.81000 304.042
35.98000 277.033
36.15000 302.353
36.32000 301.087
36.49000 300.349
36.66000 283.854
36.83000 292.215
37.00000 304.742
37.17000 291.230
37.34000 281.538
37.51000 268.384
37.68000 284.849
37.85000 285.099
38.02000 293.993
38.19000 289.428
38.36000 306.208
38.53000 460.057
38.70000 894.776
38.87000 736.751
39.04000 357.177
39.21000 291.223
39.38000 264.726
39.55000 278.525
39.72000 288.753
39.89000 271.444
40.06000 258.136
40.23000 255.199
40.40000 258.486
40.57000 260.804
40.74000 243.201
40.91000 244.428
41.08000 236.220
41.25000 236.425
41.42000 226.587
41.59000 240.390
41.76000 236.710
41.93000 244.034
42.10000 226.532
42.27000 246.077
42.44000 244.870
42.61000 231.378
42.78000 234.103
42.95000 228.587
43.12000 223.475
43.29000 228.748
43.46000 216.637
43.63000 238.368
43.80000 231.059
43.97000 222.014
44.14000 223.687
44.31000 228.908
44.48000 220.911
44.65000 232.219
44.82000 269.775
44.99000 310.599
45.16000 329.120
45.33000 287.985
45.50000 240.437
45.67000 223.176
45.84000 217.572
46.01000 207.459
46.18000 193.239
46.35000 208.387
46.52000 192.904
46.69000 193.884
46.86000 207.765
47.03000 190.681
47.20000 195.965
47.37000 177.581
47.54000 193.373
47.71000 172.407
47.88000 192.345
48.05000 190.463
48.22000 172.092
48.39000 182.671
48.56000 178.525
48.73000 169.483
48.90000 177.237
49.07000 173.209
49.24000 178.617
49.41000 174.462
49.58000 178.484
49.75000 171.784
49.92000 163.115
50.09000 176.183
50.26000 170.865
50.43000 176.730
50.60000 198.710
50.77000 228.277
50.94000 196.349
51.11000 170.953
51.28000 159.215
51.45000 166.407
51.62000 158.426
51.79000 153.181
51.96000 158.747
52.13000 166.549
52.30000 153.700
52.47000 149.616
52.64000 152.870
52.81000 155.519
52.98000 153.624
53.15000 160.951
53.32000 163.017
53.49000 155.286
53.66000 165.597
53.83000 170.599
54.00000 147.140
54.17000 162.046
54.34000 152.898
54.51000 142.083
54.68000 159.667
54.85000 156.859
55.02000 149.830
55.19000 160.891
55.36000 173.362
55.53000 191.077
55.70000 280.326
55.87000 475.506
56.04000 514.774
56.21000 338.404
56.38000 199.450
56.55000 164.662
56.72000 135.075
56.89000 155.390
57.06000 141.203
57.23000 137.018
57.40000 152.165
57.57000 135.021
57.74000 135.671
57.91000 146.632
58.08000 148.019
58.25000 136.617
58.42000 146.769
58.59000 134.106
58.76000 132.910
58.93000 131.084
59.10000 139.658
59.27000 120.934
59.44000 131.704
59.61000 129.047
59.78000 133.918
59.95000 125.761
60.12000 133.911
60.29000 123.088
60.46000 138.566
60.63000 133.797
60.80000 134.084
60.97000 131.213
61.14000 128.164
61.31000 146.621
61.48000 137.503
61.65000 242.348
61.82000 190.705
61.99000 137.151
62.16000 135.468
62.33000 144.592
62.50000 148.227
62.67000 142.275
62.84000 140.494
63.01000 138.691
63.18000 131.774
63.35000 142.572
63.52000 143.084
63.69000 149.223
63.86000 156.304
64.03000 159.766
64.20000 158.835
64.37000 164.220
64.54000 167.211
64.71000 165.747
64.88000 171.055
65.05000 187.638
65.22000 197.773
65.39000 248.984
65.56000 300.767
65.73000 485.864
65.90000 853.337
66.07000 336.472
66.24000 277.502
66.41000 369.173
66.58000 317.686
66.75000 292.893
66.92000 296.243
67.09000 339.946
67.26000 352.157
67.43000 379.976
67.60000 401.705
67.77000 428.717
67.94000 481.126
68.11000 531.799
68.28000 583.260
68.45000 671.980
68.62000 913.659
68.79000 1628.828
68.96000 8548.143
69.13000 49236.547
69.30000 30549.771
69.47000 8147.611
69.64000 1190.120
69.81000 782.412
69.98000 685.666
70.00000 665.728