File: XRD/17-09-2025/XY Data/BTO_Mapping_Theta2Theta_09-17-2025_001_22_45-000_0-000.xy
20.00000 576.253
20.17000 568.045
20.34000 535.207
20.51000 555.614
20.68000 544.319
20.85000 542.938
21.02000 547.385
21.19000 524.281
21.36000 520.626
21.53000 541.130
21.70000 590.439
21.87000 574.964
22.04000 658.891
22.21000 623.879
22.38000 567.795
22.55000 525.625
22.72000 502.754
22.89000 507.590
23.06000 517.901
23.23000 492.706
23.40000 495.123
23.57000 515.065
23.74000 520.450
23.91000 537.510
24.08000 552.760
24.25000 496.370
24.42000 480.562
24.59000 465.243
24.76000 480.925
24.93000 485.945
25.10000 479.496
25.27000 466.292
25.44000 448.552
25.61000 471.592
25.78000 472.393
25.95000 473.408
26.12000 460.271
26.29000 437.912
26.46000 443.155
26.63000 443.620
26.80000 452.991
26.97000 443.387
27.14000 434.892
27.31000 429.252
27.48000 429.539
27.65000 421.237
27.82000 436.120
27.99000 397.896
28.16000 425.801
28.33000 415.807
28.50000 412.118
28.67000 420.628
28.84000 387.681
29.01000 405.223
29.18000 425.716
29.35000 411.605
29.52000 406.530
29.69000 393.726
29.86000 411.775
30.03000 417.134
30.20000 401.592
30.37000 409.833
30.54000 404.114
30.71000 437.246
30.88000 439.931
31.05000 526.922
31.22000 906.793
31.39000 1412.788
31.56000 1010.161
31.73000 555.966
31.90000 413.556
32.07000 409.747
32.24000 394.778
32.41000 373.669
32.58000 371.965
32.75000 365.323
32.92000 357.916
33.09000 338.606
33.26000 342.350
33.43000 333.302
33.60000 345.881
33.77000 324.463
33.94000 344.760
34.11000 353.022
34.28000 349.905
34.45000 355.854
34.62000 332.935
34.79000 320.188
34.96000 315.608
35.13000 313.878
35.30000 299.289
35.47000 307.696
35.64000 306.417
35.81000 318.364
35.98000 290.418
36.15000 293.367
36.32000 312.511
36.49000 305.770
36.66000 296.353
36.83000 293.034
37.00000 298.722
37.17000 297.716
37.34000 304.607
37.51000 283.476
37.68000 281.310
37.85000 263.168
38.02000 293.975
38.19000 289.961
38.36000 328.190
38.53000 481.963
38.70000 833.220
38.87000 628.971
39.04000 336.527
39.21000 300.159
39.38000 267.533
39.55000 269.392
39.72000 263.980
39.89000 250.443
40.06000 249.755
40.23000 251.695
40.40000 253.771
40.57000 253.782
40.74000 238.952
40.91000 238.891
41.08000 254.689
41.25000 240.246
41.42000 253.807
41.59000 239.100
41.76000 239.292
41.93000 236.634
42.10000 250.759
42.27000 242.529
42.44000 234.367
42.61000 239.770
42.78000 226.909
42.95000 218.523
43.12000 221.889
43.29000 225.948
43.46000 223.400
43.63000 220.014
43.80000 219.989
43.97000 224.176
44.14000 220.834
44.31000 226.575
44.48000 236.136
44.65000 239.119
44.82000 254.849
44.99000 276.347
45.16000 290.988
45.33000 264.149
45.50000 246.166
45.67000 238.550
45.84000 212.361
46.01000 200.267
46.18000 209.823
46.35000 210.522
46.52000 199.520
46.69000 202.424
46.86000 196.302
47.03000 191.582
47.20000 181.998
47.37000 181.778
47.54000 183.560
47.71000 194.812
47.88000 186.169
48.05000 190.351
48.22000 189.297
48.39000 180.782
48.56000 183.527
48.73000 175.720
48.90000 180.274
49.07000 182.829
49.24000 191.121
49.41000 170.968
49.58000 174.454
49.75000 172.256
49.92000 175.249
50.09000 171.929
50.26000 168.045
50.43000 163.458
50.60000 192.905
50.77000 200.504
50.94000 185.741
51.11000 178.822
51.28000 176.084
51.45000 167.016
51.62000 175.911
51.79000 168.235
51.96000 166.013
52.13000 162.863
52.30000 155.121
52.47000 166.142
52.64000 162.217
52.81000 160.149
52.98000 158.805
53.15000 148.610
53.32000 159.414
53.49000 166.069
53.66000 153.904
53.83000 157.590
54.00000 152.675
54.17000 152.967
54.34000 160.179
54.51000 152.921
54.68000 154.239
54.85000 152.674
55.02000 158.404
55.19000 157.410
55.36000 175.731
55.53000 203.280
55.70000 278.168
55.87000 452.349
56.04000 468.006
56.21000 311.632
56.38000 202.143
56.55000 165.404
56.72000 160.488
56.89000 155.766
57.06000 152.086
57.23000 148.747
57.40000 145.021
57.57000 153.064
57.74000 148.271
57.91000 142.188
58.08000 134.945
58.25000 147.865
58.42000 135.669
58.59000 141.174
58.76000 145.697
58.93000 137.365
59.10000 142.839
59.27000 126.665
59.44000 128.696
59.61000 130.867
59.78000 132.194
59.95000 137.069
60.12000 127.545
60.29000 127.108
60.46000 130.255
60.63000 128.479
60.80000 118.893
60.97000 138.867
61.14000 134.438
61.31000 130.796
61.48000 147.192
61.65000 256.442
61.82000 190.655
61.99000 143.705
62.16000 142.032
62.33000 136.380
62.50000 141.979
62.67000 143.803
62.84000 138.693
63.01000 137.992
63.18000 145.270
63.35000 147.152
63.52000 152.300
63.69000 151.905
63.86000 147.036
64.03000 151.868
64.20000 155.644
64.37000 156.274
64.54000 166.542
64.71000 173.065
64.88000 164.194
65.05000 182.481
65.22000 203.724
65.39000 221.171
65.56000 279.983
65.73000 513.755
65.90000 924.769
66.07000 359.587
66.24000 291.821
66.41000 392.410
66.58000 327.406
66.75000 307.420
66.92000 328.822
67.09000 333.391
67.26000 370.414
67.43000 381.654
67.60000 419.275
67.77000 453.790
67.94000 483.456
68.11000 531.163
68.28000 626.754
68.45000 726.359
68.62000 950.597
68.79000 1728.923
68.96000 9545.286
69.13000 51722.895
69.30000 31536.289
69.47000 8084.520
69.64000 1188.737
69.81000 809.579
69.98000 669.459
70.00000 661.459