File: XRD/17-09-2025/XY Data/BTO_Mapping_Theta2Theta_09-17-2025_001_06_0-000_-30-000.xy
20.00000 555.326
20.17000 557.892
20.34000 555.137
20.51000 554.254
20.68000 537.964
20.85000 539.496
21.02000 556.942
21.19000 543.888
21.36000 510.173
21.53000 552.299
21.70000 549.101
21.87000 611.738
22.04000 783.924
22.21000 679.746
22.38000 551.564
22.55000 527.444
22.72000 528.835
22.89000 509.546
23.06000 509.873
23.23000 525.730
23.40000 501.846
23.57000 499.645
23.74000 505.325
23.91000 488.293
24.08000 493.392
24.25000 473.482
24.42000 478.167
24.59000 501.739
24.76000 476.209
24.93000 472.793
25.10000 472.229
25.27000 482.253
25.44000 470.099
25.61000 461.320
25.78000 451.532
25.95000 453.964
26.12000 451.912
26.29000 463.290
26.46000 442.159
26.63000 455.091
26.80000 436.226
26.97000 433.772
27.14000 437.281
27.31000 436.986
27.48000 434.545
27.65000 431.960
27.82000 432.510
27.99000 419.663
28.16000 437.086
28.33000 448.950
28.50000 416.221
28.67000 398.136
28.84000 410.254
29.01000 422.560
29.18000 416.226
29.35000 412.775
29.52000 423.711
29.69000 405.634
29.86000 427.638
30.03000 432.845
30.20000 433.943
30.37000 433.600
30.54000 434.604
30.71000 443.489
30.88000 484.426
31.05000 674.410
31.22000 1959.809
31.39000 3921.543
31.56000 1943.736
31.73000 594.958
31.90000 450.374
32.07000 411.066
32.24000 398.028
32.41000 383.969
32.58000 373.367
32.75000 372.071
32.92000 367.301
33.09000 351.520
33.26000 350.067
33.43000 340.637
33.60000 332.305
33.77000 340.343
33.94000 327.956
34.11000 321.493
34.28000 333.611
34.45000 315.660
34.62000 337.648
34.79000 317.151
34.96000 320.218
35.13000 305.146
35.30000 321.881
35.47000 311.513
35.64000 310.325
35.81000 288.643
35.98000 294.158
36.15000 308.163
36.32000 294.627
36.49000 294.728
36.66000 298.681
36.83000 297.345
37.00000 294.950
37.17000 301.900
37.34000 297.238
37.51000 296.459
37.68000 285.005
37.85000 310.897
38.02000 279.055
38.19000 293.560
38.36000 326.485
38.53000 511.521
38.70000 862.547
38.87000 643.285
39.04000 319.029
39.21000 285.433
39.38000 278.809
39.55000 261.966
39.72000 267.058
39.89000 256.280
40.06000 252.123
40.23000 262.513
40.40000 250.504
40.57000 251.458
40.74000 241.106
40.91000 252.328
41.08000 244.653
41.25000 235.100
41.42000 242.920
41.59000 233.798
41.76000 234.848
41.93000 232.362
42.10000 212.030
42.27000 237.200
42.44000 225.660
42.61000 221.654
42.78000 223.438
42.95000 237.322
43.12000 225.232
43.29000 223.313
43.46000 218.334
43.63000 229.399
43.80000 212.257
43.97000 230.458
44.14000 223.944
44.31000 229.692
44.48000 234.942
44.65000 234.367
44.82000 280.294
44.99000 377.267
45.16000 410.962
45.33000 297.835
45.50000 239.588
45.67000 215.605
45.84000 203.749
46.01000 214.668
46.18000 210.611
46.35000 209.270
46.52000 193.638
46.69000 201.147
46.86000 184.541
47.03000 187.763
47.20000 191.200
47.37000 199.781
47.54000 191.971
47.71000 180.060
47.88000 180.931
48.05000 197.772
48.22000 178.165
48.39000 187.599
48.56000 186.515
48.73000 176.930
48.90000 184.134
49.07000 177.199
49.24000 169.182
49.41000 168.865
49.58000 176.755
49.75000 181.557
49.92000 170.206
50.09000 169.967
50.26000 185.927
50.43000 192.813
50.60000 263.006
50.77000 268.475
50.94000 216.351
51.11000 190.552
51.28000 171.545
51.45000 170.720
51.62000 172.404
51.79000 145.336
51.96000 171.669
52.13000 162.127
52.30000 163.860
52.47000 159.316
52.64000 162.874
52.81000 154.161
52.98000 157.624
53.15000 158.682
53.32000 160.139
53.49000 164.620
53.66000 162.879
53.83000 163.321
54.00000 161.199
54.17000 158.303
54.34000 155.962
54.51000 149.298
54.68000 157.740
54.85000 154.832
55.02000 150.116
55.19000 165.581
55.36000 165.476
55.53000 192.927
55.70000 315.374
55.87000 595.779
56.04000 617.581
56.21000 359.725
56.38000 201.977
56.55000 166.152
56.72000 157.432
56.89000 143.229
57.06000 160.525
57.23000 137.962
57.40000 150.255
57.57000 139.652
57.74000 146.983
57.91000 135.765
58.08000 140.131
58.25000 141.432
58.42000 132.841
58.59000 123.473
58.76000 139.713
58.93000 134.917
59.10000 140.747
59.27000 134.584
59.44000 126.479
59.61000 126.525
59.78000 129.552
59.95000 128.316
60.12000 135.361
60.29000 125.647
60.46000 127.953
60.63000 132.296
60.80000 132.308
60.97000 139.993
61.14000 128.082
61.31000 142.224
61.48000 155.143
61.65000 306.289
61.82000 205.843
61.99000 142.303
62.16000 132.054
62.33000 136.659
62.50000 134.008
62.67000 149.711
62.84000 153.143
63.01000 145.204
63.18000 150.305
63.35000 153.158
63.52000 153.695
63.69000 147.287
63.86000 147.748
64.03000 158.618
64.20000 168.368
64.37000 169.358
64.54000 169.656
64.71000 166.071
64.88000 181.713
65.05000 190.950
65.22000 247.486
65.39000 328.103
65.56000 454.585
65.73000 837.049
65.90000 1280.608
66.07000 391.507
66.24000 331.187
66.41000 474.369
66.58000 338.181
66.75000 326.046
66.92000 337.620
67.09000 366.682
67.26000 416.071
67.43000 442.319
67.60000 479.497
67.77000 511.587
67.94000 560.305
68.11000 603.303
68.28000 683.207
68.45000 804.668
68.62000 1223.761
68.79000 2325.420
68.96000 19837.914
69.13000 76347.586
69.30000 43865.063
69.47000 9423.462
69.64000 1429.608
69.81000 923.758
69.98000 754.938
70.00000 746.479