File: XRD/17-09-2025/XY Data/BTO_Mapping_Theta2Theta_09-17-2025_001_27_15-000_15-000.xy
20.00000 544.468
20.17000 548.622
20.34000 554.510
20.51000 541.840
20.68000 561.285
20.85000 534.876
21.02000 540.359
21.19000 540.781
21.36000 532.259
21.53000 533.570
21.70000 557.214
21.87000 571.855
22.04000 670.228
22.21000 610.063
22.38000 541.002
22.55000 522.518
22.72000 526.260
22.89000 490.845
23.06000 493.933
23.23000 508.120
23.40000 497.631
23.57000 501.954
23.74000 492.424
23.91000 502.723
24.08000 492.241
24.25000 487.950
24.42000 479.217
24.59000 480.725
24.76000 474.151
24.93000 460.378
25.10000 453.306
25.27000 471.479
25.44000 453.359
25.61000 439.958
25.78000 487.450
25.95000 457.317
26.12000 461.436
26.29000 461.920
26.46000 448.849
26.63000 432.490
26.80000 439.653
26.97000 432.947
27.14000 435.179
27.31000 432.067
27.48000 434.027
27.65000 437.310
27.82000 427.527
27.99000 424.296
28.16000 423.859
28.33000 419.758
28.50000 416.310
28.67000 402.885
28.84000 398.495
29.01000 403.168
29.18000 419.601
29.35000 403.425
29.52000 415.420
29.69000 407.364
29.86000 416.960
30.03000 428.918
30.20000 430.952
30.37000 413.062
30.54000 413.565
30.71000 432.369
30.88000 445.052
31.05000 589.270
31.22000 1513.999
31.39000 3039.305
31.56000 1758.426
31.73000 597.919
31.90000 433.797
32.07000 413.699
32.24000 395.257
32.41000 390.271
32.58000 379.625
32.75000 354.209
32.92000 355.899
33.09000 344.841
33.26000 339.535
33.43000 348.301
33.60000 334.734
33.77000 324.377
33.94000 321.723
34.11000 336.733
34.28000 347.078
34.45000 332.644
34.62000 316.353
34.79000 314.301
34.96000 327.659
35.13000 320.103
35.30000 298.074
35.47000 306.135
35.64000 300.876
35.81000 292.668
35.98000 299.172
36.15000 302.607
36.32000 281.160
36.49000 277.561
36.66000 266.366
36.83000 307.313
37.00000 289.962
37.17000 293.115
37.34000 290.636
37.51000 278.354
37.68000 291.962
37.85000 272.114
38.02000 293.097
38.19000 309.716
38.36000 333.996
38.53000 524.763
38.70000 986.970
38.87000 810.536
39.04000 367.093
39.21000 278.816
39.38000 290.752
39.55000 260.077
39.72000 254.711
39.89000 262.691
40.06000 253.619
40.23000 247.941
40.40000 258.732
40.57000 234.882
40.74000 254.978
40.91000 235.889
41.08000 252.789
41.25000 233.534
41.42000 240.720
41.59000 237.967
41.76000 233.783
41.93000 239.149
42.10000 214.743
42.27000 223.712
42.44000 238.635
42.61000 220.497
42.78000 222.447
42.95000 225.497
43.12000 222.012
43.29000 229.325
43.46000 216.473
43.63000 219.711
43.80000 222.184
43.97000 216.804
44.14000 214.681
44.31000 207.520
44.48000 229.136
44.65000 228.093
44.82000 236.538
44.99000 270.766
45.16000 297.514
45.33000 273.848
45.50000 234.857
45.67000 208.853
45.84000 208.460
46.01000 204.979
46.18000 208.321
46.35000 200.241
46.52000 208.478
46.69000 195.545
46.86000 204.428
47.03000 202.553
47.20000 193.515
47.37000 189.088
47.54000 184.064
47.71000 185.483
47.88000 189.063
48.05000 178.997
48.22000 174.820
48.39000 178.097
48.56000 178.957
48.73000 169.277
48.90000 174.271
49.07000 188.621
49.24000 191.776
49.41000 177.976
49.58000 178.387
49.75000 168.667
49.92000 175.967
50.09000 176.776
50.26000 172.923
50.43000 195.304
50.60000 226.174
50.77000 226.021
50.94000 212.661
51.11000 170.985
51.28000 158.813
51.45000 153.400
51.62000 151.640
51.79000 161.048
51.96000 151.677
52.13000 158.183
52.30000 158.770
52.47000 147.548
52.64000 158.089
52.81000 153.069
52.98000 159.116
53.15000 160.030
53.32000 158.578
53.49000 154.856
53.66000 155.465
53.83000 164.867
54.00000 143.262
54.17000 163.087
54.34000 148.278
54.51000 144.009
54.68000 159.268
54.85000 153.055
55.02000 160.192
55.19000 148.281
55.36000 166.043
55.53000 184.916
55.70000 288.853
55.87000 549.460
56.04000 593.035
56.21000 352.341
56.38000 199.371
56.55000 169.890
56.72000 146.755
56.89000 152.480
57.06000 140.490
57.23000 148.800
57.40000 145.726
57.57000 142.053
57.74000 143.982
57.91000 144.299
58.08000 130.754
58.25000 147.116
58.42000 147.396
58.59000 136.866
58.76000 136.140
58.93000 137.856
59.10000 134.015
59.27000 136.143
59.44000 124.883
59.61000 138.435
59.78000 135.258
59.95000 132.192
60.12000 127.882
60.29000 132.934
60.46000 122.140
60.63000 127.919
60.80000 126.548
60.97000 133.960
61.14000 138.454
61.31000 133.818
61.48000 124.186
61.65000 248.505
61.82000 189.913
61.99000 141.099
62.16000 135.077
62.33000 131.882
62.50000 138.747
62.67000 138.092
62.84000 145.867
63.01000 149.932
63.18000 141.902
63.35000 137.282
63.52000 145.623
63.69000 145.717
63.86000 152.876
64.03000 157.222
64.20000 153.812
64.37000 162.123
64.54000 163.046
64.71000 174.455
64.88000 181.124
65.05000 186.642
65.22000 224.441
65.39000 292.258
65.56000 384.087
65.73000 581.674
65.90000 927.431
66.07000 337.711
66.24000 277.693
66.41000 364.886
66.58000 305.329
66.75000 284.057
66.92000 312.752
67.09000 326.270
67.26000 348.552
67.43000 366.373
67.60000 398.652
67.77000 418.876
67.94000 475.325
68.11000 530.849
68.28000 575.968
68.45000 670.369
68.62000 916.716
68.79000 1627.048
68.96000 10034.330
69.13000 48586.492
69.30000 29233.596
69.47000 6860.224
69.64000 1135.586
69.81000 765.151
69.98000 648.021
70.00000 643.029