File: XRD/17-09-2025/XY Data/BTO_Mapping_Theta2Theta_09-17-2025_001_24_-30-000_15-000.xy
20.00000 532.743
20.17000 553.813
20.34000 562.056
20.51000 553.618
20.68000 554.322
20.85000 555.882
21.02000 530.727
21.19000 550.254
21.36000 556.049
21.53000 553.765
21.70000 628.608
21.87000 812.826
22.04000 982.609
22.21000 657.114
22.38000 569.344
22.55000 542.766
22.72000 523.879
22.89000 519.980
23.06000 531.080
23.23000 498.085
23.40000 513.835
23.57000 498.995
23.74000 488.377
23.91000 489.489
24.08000 496.617
24.25000 494.071
24.42000 507.520
24.59000 471.301
24.76000 484.013
24.93000 496.618
25.10000 474.103
25.27000 472.882
25.44000 483.400
25.61000 462.472
25.78000 471.297
25.95000 493.522
26.12000 457.624
26.29000 453.364
26.46000 446.804
26.63000 442.804
26.80000 448.300
26.97000 456.432
27.14000 446.229
27.31000 442.822
27.48000 442.763
27.65000 466.526
27.82000 421.840
27.99000 442.524
28.16000 443.171
28.33000 438.251
28.50000 438.331
28.67000 432.393
28.84000 440.768
29.01000 428.183
29.18000 422.074
29.35000 419.227
29.52000 441.903
29.69000 409.436
29.86000 453.424
30.03000 462.304
30.20000 451.406
30.37000 435.192
30.54000 441.054
30.71000 481.348
30.88000 524.328
31.05000 947.235
31.22000 3095.555
31.39000 3334.532
31.56000 1074.856
31.73000 532.746
31.90000 445.681
32.07000 419.935
32.24000 406.241
32.41000 382.964
32.58000 386.396
32.75000 354.344
32.92000 381.807
33.09000 363.516
33.26000 342.105
33.43000 347.722
33.60000 344.140
33.77000 353.584
33.94000 338.478
34.11000 327.440
34.28000 342.857
34.45000 339.941
34.62000 345.707
34.79000 313.917
34.96000 314.394
35.13000 315.703
35.30000 315.756
35.47000 317.100
35.64000 324.657
35.81000 309.320
35.98000 303.323
36.15000 310.055
36.32000 281.887
36.49000 297.285
36.66000 311.079
36.83000 301.162
37.00000 305.158
37.17000 288.422
37.34000 294.379
37.51000 295.788
37.68000 291.500
37.85000 286.618
38.02000 306.231
38.19000 305.396
38.36000 355.595
38.53000 477.297
38.70000 469.651
38.87000 368.636
39.04000 300.516
39.21000 281.649
39.38000 279.609
39.55000 273.777
39.72000 281.554
39.89000 281.269
40.06000 259.940
40.23000 260.134
40.40000 253.736
40.57000 260.008
40.74000 248.165
40.91000 239.239
41.08000 260.157
41.25000 251.180
41.42000 236.076
41.59000 249.125
41.76000 233.955
41.93000 228.593
42.10000 236.103
42.27000 227.445
42.44000 242.064
42.61000 224.260
42.78000 227.778
42.95000 223.193
43.12000 234.727
43.29000 237.020
43.46000 243.728
43.63000 224.763
43.80000 225.077
43.97000 225.722
44.14000 235.051
44.31000 227.767
44.48000 255.312
44.65000 322.740
44.82000 542.854
44.99000 644.366
45.16000 451.026
45.33000 297.173
45.50000 246.337
45.67000 220.748
45.84000 218.450
46.01000 209.701
46.18000 202.612
46.35000 207.534
46.52000 201.498
46.69000 208.030
46.86000 200.060
47.03000 188.591
47.20000 178.198
47.37000 188.183
47.54000 184.002
47.71000 186.982
47.88000 180.519
48.05000 188.784
48.22000 177.307
48.39000 179.435
48.56000 183.644
48.73000 195.073
48.90000 183.934
49.07000 186.155
49.24000 174.705
49.41000 175.216
49.58000 189.710
49.75000 179.331
49.92000 163.530
50.09000 187.049
50.26000 201.647
50.43000 229.426
50.60000 292.112
50.77000 258.779
50.94000 202.036
51.11000 183.064
51.28000 177.605
51.45000 164.400
51.62000 173.148
51.79000 172.715
51.96000 176.986
52.13000 168.646
52.30000 165.028
52.47000 161.777
52.64000 152.026
52.81000 158.523
52.98000 165.315
53.15000 157.901
53.32000 166.258
53.49000 166.188
53.66000 139.012
53.83000 159.162
54.00000 156.698
54.17000 156.140
54.34000 159.599
54.51000 151.257
54.68000 156.576
54.85000 149.945
55.02000 163.952
55.19000 178.167
55.36000 170.300
55.53000 303.004
55.70000 531.258
55.87000 589.199
56.04000 358.497
56.21000 228.161
56.38000 172.733
56.55000 157.357
56.72000 146.316
56.89000 150.667
57.06000 140.907
57.23000 159.961
57.40000 153.205
57.57000 135.631
57.74000 147.401
57.91000 137.028
58.08000 146.362
58.25000 141.965
58.42000 138.424
58.59000 155.944
58.76000 136.325
58.93000 129.014
59.10000 134.966
59.27000 133.091
59.44000 133.800
59.61000 142.507
59.78000 133.293
59.95000 129.208
60.12000 136.321
60.29000 132.505
60.46000 142.856
60.63000 129.908
60.80000 138.017
60.97000 136.449
61.14000 132.377
61.31000 135.350
61.48000 159.692
61.65000 335.276
61.82000 237.325
61.99000 155.574
62.16000 151.026
62.33000 149.717
62.50000 151.367
62.67000 142.272
62.84000 139.074
63.01000 145.017
63.18000 149.270
63.35000 157.281
63.52000 148.519
63.69000 161.756
63.86000 154.623
64.03000 157.199
64.20000 159.712
64.37000 166.802
64.54000 182.475
64.71000 187.864
64.88000 187.560
65.05000 234.089
65.22000 353.057
65.39000 436.449
65.56000 418.622
65.73000 817.808
65.90000 1402.313
66.07000 447.047
66.24000 341.832
66.41000 538.222
66.58000 384.849
66.75000 374.507
66.92000 368.126
67.09000 388.262
67.26000 426.037
67.43000 469.208
67.60000 495.153
67.77000 548.763
67.94000 610.824
68.11000 664.834
68.28000 725.695
68.45000 854.938
68.62000 1299.502
68.79000 2623.302
68.96000 22544.172
69.13000 90117.703
69.30000 53278.277
69.47000 12474.425
69.64000 1636.123
69.81000 1066.956
69.98000 807.797
70.00000 786.677