File: XRD/17-09-2025/XY Data/BTO_Mapping_Theta2Theta_09-17-2025_001_01_-15-000_-45-000.xy
20.00000 548.822
20.17000 527.117
20.34000 560.612
20.51000 539.860
20.68000 559.762
20.85000 553.559
21.02000 520.749
21.19000 513.603
21.36000 550.841
21.53000 531.512
21.70000 547.684
21.87000 604.605
22.04000 640.916
22.21000 602.682
22.38000 531.523
22.55000 528.071
22.72000 515.590
22.89000 497.662
23.06000 520.191
23.23000 489.142
23.40000 499.116
23.57000 494.034
23.74000 482.539
23.91000 484.798
24.08000 477.364
24.25000 474.372
24.42000 487.621
24.59000 463.633
24.76000 470.626
24.93000 458.404
25.10000 465.984
25.27000 463.957
25.44000 465.957
25.61000 457.753
25.78000 459.870
25.95000 459.838
26.12000 449.651
26.29000 444.482
26.46000 436.185
26.63000 429.987
26.80000 410.977
26.97000 437.465
27.14000 440.846
27.31000 424.672
27.48000 439.127
27.65000 432.209
27.82000 420.404
27.99000 409.860
28.16000 412.111
28.33000 434.863
28.50000 408.641
28.67000 423.499
28.84000 413.111
29.01000 391.881
29.18000 412.789
29.35000 394.038
29.52000 405.983
29.69000 376.007
29.86000 411.242
30.03000 418.161
30.20000 409.145
30.37000 408.532
30.54000 398.156
30.71000 406.378
30.88000 438.338
31.05000 541.345
31.22000 1155.781
31.39000 2238.076
31.56000 1449.833
31.73000 542.353
31.90000 413.214
32.07000 380.765
32.24000 367.076
32.41000 373.969
32.58000 335.671
32.75000 345.591
32.92000 349.789
33.09000 344.490
33.26000 346.291
33.43000 340.911
33.60000 329.372
33.77000 328.064
33.94000 325.068
34.11000 318.960
34.28000 320.510
34.45000 325.561
34.62000 324.203
34.79000 315.088
34.96000 312.006
35.13000 311.999
35.30000 311.677
35.47000 307.570
35.64000 293.653
35.81000 293.694
35.98000 286.951
36.15000 306.459
36.32000 299.556
36.49000 294.866
36.66000 299.005
36.83000 292.582
37.00000 288.906
37.17000 285.913
37.34000 284.147
37.51000 280.985
37.68000 290.861
37.85000 298.451
38.02000 269.473
38.19000 280.163
38.36000 292.991
38.53000 324.675
38.70000 371.690
38.87000 356.255
39.04000 291.358
39.21000 251.458
39.38000 254.376
39.55000 273.057
39.72000 257.431
39.89000 259.525
40.06000 254.961
40.23000 244.975
40.40000 261.005
40.57000 233.653
40.74000 265.285
40.91000 236.154
41.08000 229.213
41.25000 226.758
41.42000 239.418
41.59000 240.537
41.76000 225.246
41.93000 234.868
42.10000 238.773
42.27000 224.620
42.44000 225.098
42.61000 232.069
42.78000 228.422
42.95000 231.317
43.12000 228.474
43.29000 209.481
43.46000 209.817
43.63000 236.032
43.80000 213.237
43.97000 214.025
44.14000 210.390
44.31000 206.607
44.48000 214.016
44.65000 231.633
44.82000 257.465
44.99000 296.692
45.16000 318.415
45.33000 274.922
45.50000 226.519
45.67000 220.042
45.84000 201.220
46.01000 207.895
46.18000 206.710
46.35000 210.016
46.52000 188.247
46.69000 192.113
46.86000 197.971
47.03000 180.185
47.20000 189.549
47.37000 181.346
47.54000 191.072
47.71000 179.014
47.88000 179.109
48.05000 179.596
48.22000 185.046
48.39000 176.300
48.56000 176.569
48.73000 179.126
48.90000 170.298
49.07000 176.662
49.24000 170.948
49.41000 174.784
49.58000 180.025
49.75000 171.544
49.92000 182.208
50.09000 173.967
50.26000 175.911
50.43000 183.962
50.60000 210.409
50.77000 199.642
50.94000 198.243
51.11000 174.101
51.28000 170.151
51.45000 172.171
51.62000 161.627
51.79000 155.198
51.96000 157.023
52.13000 164.623
52.30000 163.874
52.47000 159.250
52.64000 169.494
52.81000 149.296
52.98000 161.322
53.15000 163.284
53.32000 145.651
53.49000 148.250
53.66000 160.949
53.83000 154.862
54.00000 140.410
54.17000 145.731
54.34000 145.575
54.51000 141.644
54.68000 154.071
54.85000 148.090
55.02000 148.257
55.19000 146.745
55.36000 156.018
55.53000 168.696
55.70000 198.294
55.87000 272.589
56.04000 259.080
56.21000 217.705
56.38000 161.630
56.55000 154.638
56.72000 134.460
56.89000 144.803
57.06000 131.233
57.23000 133.269
57.40000 130.925
57.57000 145.921
57.74000 128.024
57.91000 137.578
58.08000 134.118
58.25000 127.458
58.42000 133.991
58.59000 135.221
58.76000 129.833
58.93000 135.148
59.10000 125.088
59.27000 128.674
59.44000 131.295
59.61000 142.061
59.78000 133.738
59.95000 138.034
60.12000 131.554
60.29000 136.732
60.46000 126.923
60.63000 142.789
60.80000 134.106
60.97000 137.376
61.14000 132.349
61.31000 138.654
61.48000 147.012
61.65000 284.140
61.82000 193.742
61.99000 140.301
62.16000 140.577
62.33000 134.389
62.50000 136.804
62.67000 149.371
62.84000 146.949
63.01000 139.216
63.18000 148.884
63.35000 153.133
63.52000 154.951
63.69000 157.282
63.86000 150.998
64.03000 153.994
64.20000 158.732
64.37000 161.934
64.54000 165.431
64.71000 169.084
64.88000 169.922
65.05000 203.049
65.22000 232.773
65.39000 277.820
65.56000 344.614
65.73000 648.334
65.90000 1075.259
66.07000 385.706
66.24000 312.746
66.41000 448.746
66.58000 339.392
66.75000 303.284
66.92000 337.934
67.09000 366.407
67.26000 395.035
67.43000 423.165
67.60000 463.432
67.77000 491.754
67.94000 550.903
68.11000 583.452
68.28000 649.491
68.45000 757.654
68.62000 1117.755
68.79000 2072.212
68.96000 14967.632
69.13000 64306.473
69.30000 37583.750
69.47000 8752.931
69.64000 1382.415
69.81000 928.170
69.98000 734.271
70.00000 722.895