File: XRD/17-09-2025/XY Data/BTO_Mapping_Theta2Theta_09-17-2025_001_07_15-000_-30-000.xy
20.00000 551.563
20.17000 557.171
20.34000 521.266
20.51000 538.826
20.68000 541.366
20.85000 548.913
21.02000 565.078
21.19000 549.253
21.36000 511.330
21.53000 539.778
21.70000 556.231
21.87000 576.435
22.04000 635.921
22.21000 625.064
22.38000 548.671
22.55000 514.861
22.72000 512.558
22.89000 506.645
23.06000 502.398
23.23000 537.595
23.40000 499.347
23.57000 499.339
23.74000 495.917
23.91000 502.705
24.08000 486.487
24.25000 493.434
24.42000 497.412
24.59000 490.846
24.76000 483.277
24.93000 467.109
25.10000 469.188
25.27000 474.944
25.44000 466.951
25.61000 442.204
25.78000 448.619
25.95000 457.756
26.12000 461.258
26.29000 451.866
26.46000 450.526
26.63000 449.800
26.80000 433.450
26.97000 439.123
27.14000 424.954
27.31000 433.371
27.48000 441.210
27.65000 418.012
27.82000 425.213
27.99000 420.646
28.16000 423.609
28.33000 427.977
28.50000 406.963
28.67000 416.776
28.84000 413.149
29.01000 411.468
29.18000 419.343
29.35000 385.481
29.52000 420.975
29.69000 401.294
29.86000 417.039
30.03000 413.251
30.20000 422.105
30.37000 402.869
30.54000 414.740
30.71000 435.447
30.88000 481.007
31.05000 599.316
31.22000 1583.361
31.39000 3385.798
31.56000 1859.372
31.73000 606.399
31.90000 452.895
32.07000 392.603
32.24000 380.348
32.41000 390.808
32.58000 365.960
32.75000 355.028
32.92000 359.263
33.09000 351.836
33.26000 338.895
33.43000 333.932
33.60000 339.818
33.77000 340.120
33.94000 331.008
34.11000 323.824
34.28000 325.831
34.45000 320.294
34.62000 321.612
34.79000 318.238
34.96000 320.771
35.13000 307.455
35.30000 306.583
35.47000 309.393
35.64000 297.126
35.81000 294.252
35.98000 290.722
36.15000 294.748
36.32000 289.270
36.49000 302.974
36.66000 301.726
36.83000 295.746
37.00000 301.600
37.17000 304.546
37.34000 304.473
37.51000 308.419
37.68000 286.232
37.85000 293.756
38.02000 299.340
38.19000 305.673
38.36000 328.303
38.53000 511.084
38.70000 961.911
38.87000 801.414
39.04000 361.877
39.21000 284.912
39.38000 279.223
39.55000 268.216
39.72000 269.573
39.89000 248.966
40.06000 271.110
40.23000 251.235
40.40000 250.686
40.57000 240.008
40.74000 255.038
40.91000 246.195
41.08000 256.836
41.25000 229.449
41.42000 227.651
41.59000 240.746
41.76000 231.796
41.93000 242.444
42.10000 233.736
42.27000 226.296
42.44000 233.267
42.61000 252.096
42.78000 218.446
42.95000 223.363
43.12000 218.689
43.29000 223.552
43.46000 219.728
43.63000 215.073
43.80000 218.655
43.97000 229.486
44.14000 226.222
44.31000 210.961
44.48000 214.210
44.65000 244.311
44.82000 229.756
44.99000 279.943
45.16000 312.764
45.33000 269.945
45.50000 237.856
45.67000 216.026
45.84000 229.000
46.01000 194.256
46.18000 199.046
46.35000 202.476
46.52000 200.923
46.69000 206.274
46.86000 190.128
47.03000 187.721
47.20000 195.006
47.37000 184.656
47.54000 177.639
47.71000 187.642
47.88000 189.937
48.05000 179.160
48.22000 177.822
48.39000 182.657
48.56000 189.378
48.73000 175.031
48.90000 170.799
49.07000 181.761
49.24000 168.608
49.41000 165.260
49.58000 184.005
49.75000 169.921
49.92000 168.274
50.09000 186.068
50.26000 175.092
50.43000 204.458
50.60000 216.257
50.77000 256.923
50.94000 215.239
51.11000 190.741
51.28000 169.893
51.45000 153.052
51.62000 166.544
51.79000 157.533
51.96000 158.251
52.13000 160.676
52.30000 154.765
52.47000 165.301
52.64000 151.171
52.81000 160.705
52.98000 150.841
53.15000 148.912
53.32000 164.131
53.49000 150.391
53.66000 154.163
53.83000 158.375
54.00000 153.042
54.17000 142.817
54.34000 160.605
54.51000 146.367
54.68000 154.991
54.85000 142.213
55.02000 160.371
55.19000 167.825
55.36000 171.420
55.53000 204.422
55.70000 280.921
55.87000 553.260
56.04000 628.025
56.21000 384.288
56.38000 217.387
56.55000 170.751
56.72000 166.534
56.89000 150.287
57.06000 144.518
57.23000 139.661
57.40000 145.221
57.57000 137.334
57.74000 140.678
57.91000 142.877
58.08000 146.569
58.25000 135.231
58.42000 145.827
58.59000 137.920
58.76000 134.823
58.93000 132.922
59.10000 133.847
59.27000 136.819
59.44000 130.770
59.61000 129.848
59.78000 127.408
59.95000 136.047
60.12000 122.847
60.29000 138.795
60.46000 135.969
60.63000 128.500
60.80000 132.530
60.97000 137.665
61.14000 131.429
61.31000 132.824
61.48000 147.456
61.65000 257.742
61.82000 190.798
61.99000 144.909
62.16000 141.632
62.33000 140.094
62.50000 139.614
62.67000 146.752
62.84000 147.317
63.01000 144.630
63.18000 152.997
63.35000 145.133
63.52000 159.895
63.69000 140.791
63.86000 150.502
64.03000 153.965
64.20000 158.848
64.37000 170.161
64.54000 162.274
64.71000 166.972
64.88000 169.277
65.05000 189.535
65.22000 227.926
65.39000 285.861
65.56000 389.628
65.73000 653.056
65.90000 972.197
66.07000 335.208
66.24000 293.674
66.41000 408.150
66.58000 339.533
66.75000 293.884
66.92000 331.059
67.09000 326.313
67.26000 366.748
67.43000 381.116
67.60000 409.859
67.77000 441.319
67.94000 476.547
68.11000 515.988
68.28000 585.035
68.45000 689.106
68.62000 965.053
68.79000 1778.555
68.96000 12780.466
69.13000 53171.754
69.30000 30683.369
69.47000 6609.745
69.64000 1125.105
69.81000 771.493
69.98000 646.219
70.00000 637.252