File: XRD/17-09-2025/XY Data/BTO_Mapping_Theta2Theta_09-17-2025_001_14_30-000_-15-000.xy
20.00000 565.680
20.17000 551.011
20.34000 559.924
20.51000 546.788
20.68000 555.676
20.85000 537.714
21.02000 556.008
21.19000 554.110
21.36000 554.028
21.53000 529.632
21.70000 551.944
21.87000 574.639
22.04000 629.504
22.21000 595.825
22.38000 535.033
22.55000 528.522
22.72000 523.367
22.89000 501.935
23.06000 493.422
23.23000 520.102
23.40000 508.015
23.57000 489.504
23.74000 520.665
23.91000 515.307
24.08000 525.636
24.25000 496.289
24.42000 494.432
24.59000 451.786
24.76000 465.880
24.93000 473.065
25.10000 469.344
25.27000 464.755
25.44000 463.581
25.61000 474.655
25.78000 463.106
25.95000 450.319
26.12000 446.695
26.29000 447.975
26.46000 431.999
26.63000 436.160
26.80000 439.057
26.97000 410.713
27.14000 426.208
27.31000 437.665
27.48000 430.617
27.65000 413.932
27.82000 413.891
27.99000 432.043
28.16000 433.332
28.33000 427.073
28.50000 414.885
28.67000 410.059
28.84000 417.466
29.01000 404.497
29.18000 402.466
29.35000 402.389
29.52000 405.825
29.69000 399.710
29.86000 410.118
30.03000 432.264
30.20000 415.966
30.37000 392.467
30.54000 403.306
30.71000 407.550
30.88000 446.492
31.05000 523.380
31.22000 1211.939
31.39000 2179.542
31.56000 1271.089
31.73000 542.096
31.90000 433.235
32.07000 386.214
32.24000 397.074
32.41000 374.111
32.58000 356.453
32.75000 360.184
32.92000 348.580
33.09000 331.626
33.26000 352.420
33.43000 329.037
33.60000 355.622
33.77000 339.911
33.94000 329.764
34.11000 335.917
34.28000 356.083
34.45000 351.031
34.62000 345.228
34.79000 314.146
34.96000 313.673
35.13000 308.686
35.30000 307.339
35.47000 304.302
35.64000 297.334
35.81000 309.753
35.98000 303.487
36.15000 301.161
36.32000 305.265
36.49000 310.391
36.66000 290.937
36.83000 294.192
37.00000 292.661
37.17000 294.448
37.34000 294.591
37.51000 294.484
37.68000 306.468
37.85000 267.915
38.02000 286.236
38.19000 298.864
38.36000 341.891
38.53000 558.795
38.70000 1075.864
38.87000 891.102
39.04000 378.540
39.21000 296.428
39.38000 276.371
39.55000 265.120
39.72000 266.148
39.89000 263.851
40.06000 253.244
40.23000 259.940
40.40000 249.033
40.57000 260.672
40.74000 244.890
40.91000 248.062
41.08000 245.892
41.25000 249.945
41.42000 247.383
41.59000 247.654
41.76000 231.412
41.93000 243.792
42.10000 232.797
42.27000 234.529
42.44000 232.911
42.61000 232.594
42.78000 217.245
42.95000 226.195
43.12000 227.884
43.29000 225.428
43.46000 223.534
43.63000 241.599
43.80000 211.645
43.97000 215.320
44.14000 221.649
44.31000 212.571
44.48000 227.783
44.65000 216.449
44.82000 241.500
44.99000 286.961
45.16000 303.775
45.33000 260.538
45.50000 252.810
45.67000 211.512
45.84000 201.853
46.01000 194.277
46.18000 206.071
46.35000 201.775
46.52000 198.109
46.69000 197.434
46.86000 198.893
47.03000 177.919
47.20000 186.767
47.37000 185.207
47.54000 186.450
47.71000 196.531
47.88000 185.274
48.05000 186.248
48.22000 177.011
48.39000 185.326
48.56000 169.960
48.73000 182.047
48.90000 174.588
49.07000 185.837
49.24000 180.753
49.41000 167.039
49.58000 164.341
49.75000 166.663
49.92000 179.727
50.09000 175.480
50.26000 178.168
50.43000 189.757
50.60000 214.538
50.77000 215.973
50.94000 201.985
51.11000 170.927
51.28000 163.676
51.45000 165.076
51.62000 171.756
51.79000 155.832
51.96000 153.547
52.13000 156.391
52.30000 162.864
52.47000 157.205
52.64000 154.415
52.81000 165.650
52.98000 151.330
53.15000 160.378
53.32000 168.136
53.49000 157.439
53.66000 175.387
53.83000 143.970
54.00000 150.088
54.17000 148.374
54.34000 161.467
54.51000 158.625
54.68000 146.289
54.85000 152.715
55.02000 164.212
55.19000 155.648
55.36000 153.662
55.53000 185.640
55.70000 298.344
55.87000 515.479
56.04000 579.134
56.21000 371.448
56.38000 211.504
56.55000 164.471
56.72000 150.238
56.89000 145.422
57.06000 141.190
57.23000 147.934
57.40000 146.269
57.57000 147.696
57.74000 141.535
57.91000 140.449
58.08000 132.825
58.25000 129.171
58.42000 134.678
58.59000 133.918
58.76000 131.887
58.93000 134.238
59.10000 126.844
59.27000 129.242
59.44000 137.577
59.61000 124.520
59.78000 128.274
59.95000 137.400
60.12000 125.543
60.29000 130.645
60.46000 125.996
60.63000 131.539
60.80000 128.072
60.97000 135.605
61.14000 139.117
61.31000 134.929
61.48000 138.330
61.65000 245.481
61.82000 186.307
61.99000 134.190
62.16000 135.129
62.33000 136.042
62.50000 141.025
62.67000 140.307
62.84000 128.367
63.01000 140.514
63.18000 145.284
63.35000 137.198
63.52000 131.950
63.69000 138.790
63.86000 148.786
64.03000 159.194
64.20000 145.716
64.37000 167.304
64.54000 158.410
64.71000 166.883
64.88000 178.702
65.05000 185.125
65.22000 211.855
65.39000 276.367
65.56000 321.341
65.73000 550.103
65.90000 865.030
66.07000 349.278
66.24000 279.344
66.41000 389.189
66.58000 314.077
66.75000 295.274
66.92000 314.076
67.09000 320.673
67.26000 346.039
67.43000 378.391
67.60000 407.427
67.77000 441.436
67.94000 486.801
68.11000 532.459
68.28000 576.421
68.45000 701.364
68.62000 946.420
68.79000 1629.190
68.96000 10556.713
69.13000 48831.293
69.30000 28760.621
69.47000 6664.175
69.64000 1119.721
69.81000 779.894
69.98000 627.110
70.00000 639.510