File: XRD/17-09-2025/XY Data/BTO_Mapping_Theta2Theta_09-17-2025_001_17_-30-000_0-000.xy
20.00000 580.640
20.17000 543.096
20.34000 567.124
20.51000 552.077
20.68000 561.730
20.85000 560.320
21.02000 583.169
21.19000 546.291
21.36000 552.402
21.53000 594.334
21.70000 664.344
21.87000 958.981
22.04000 1015.527
22.21000 690.347
22.38000 574.253
22.55000 552.039
22.72000 530.846
22.89000 524.168
23.06000 516.133
23.23000 507.647
23.40000 519.930
23.57000 523.733
23.74000 511.274
23.91000 498.332
24.08000 503.576
24.25000 508.776
24.42000 494.780
24.59000 488.818
24.76000 507.979
24.93000 467.794
25.10000 492.885
25.27000 487.190
25.44000 481.338
25.61000 476.287
25.78000 478.644
25.95000 482.095
26.12000 453.709
26.29000 470.675
26.46000 479.250
26.63000 466.272
26.80000 475.355
26.97000 464.643
27.14000 442.766
27.31000 454.310
27.48000 446.324
27.65000 461.669
27.82000 456.084
27.99000 453.727
28.16000 463.740
28.33000 434.336
28.50000 464.327
28.67000 454.019
28.84000 439.823
29.01000 434.506
29.18000 445.917
29.35000 427.917
29.52000 432.023
29.69000 450.136
29.86000 455.311
30.03000 473.363
30.20000 451.072
30.37000 448.708
30.54000 450.632
30.71000 494.315
30.88000 621.281
31.05000 1284.605
31.22000 3504.291
31.39000 2713.417
31.56000 889.374
31.73000 536.903
31.90000 471.287
32.07000 433.028
32.24000 408.944
32.41000 395.389
32.58000 394.738
32.75000 372.276
32.92000 364.258
33.09000 356.075
33.26000 373.667
33.43000 371.251
33.60000 355.405
33.77000 354.551
33.94000 335.471
34.11000 341.987
34.28000 339.675
34.45000 341.305
34.62000 333.461
34.79000 334.335
34.96000 324.599
35.13000 342.475
35.30000 319.928
35.47000 320.283
35.64000 303.491
35.81000 317.715
35.98000 306.641
36.15000 291.083
36.32000 296.635
36.49000 307.619
36.66000 314.309
36.83000 312.600
37.00000 313.703
37.17000 308.442
37.34000 292.951
37.51000 301.443
37.68000 290.881
37.85000 301.308
38.02000 315.861
38.19000 328.042
38.36000 386.294
38.53000 488.322
38.70000 442.401
38.87000 344.328
39.04000 300.846
39.21000 289.486
39.38000 263.269
39.55000 279.034
39.72000 277.327
39.89000 272.496
40.06000 273.247
40.23000 253.137
40.40000 262.193
40.57000 252.642
40.74000 253.523
40.91000 263.256
41.08000 252.021
41.25000 256.671
41.42000 243.440
41.59000 239.283
41.76000 254.275
41.93000 236.311
42.10000 246.426
42.27000 232.367
42.44000 246.841
42.61000 243.150
42.78000 251.412
42.95000 231.672
43.12000 238.364
43.29000 240.741
43.46000 235.604
43.63000 242.302
43.80000 243.569
43.97000 224.988
44.14000 248.278
44.31000 252.449
44.48000 292.979
44.65000 435.385
44.82000 637.268
44.99000 631.824
45.16000 426.039
45.33000 302.233
45.50000 268.055
45.67000 230.016
45.84000 209.315
46.01000 214.620
46.18000 211.527
46.35000 207.573
46.52000 206.689
46.69000 207.813
46.86000 210.549
47.03000 208.149
47.20000 208.560
47.37000 195.806
47.54000 193.062
47.71000 192.315
47.88000 187.360
48.05000 190.230
48.22000 186.039
48.39000 193.254
48.56000 190.407
48.73000 189.636
48.90000 193.236
49.07000 187.908
49.24000 182.911
49.41000 185.187
49.58000 183.081
49.75000 185.120
49.92000 172.956
50.09000 191.282
50.26000 226.838
50.43000 276.996
50.60000 277.059
50.77000 246.395
50.94000 183.428
51.11000 184.312
51.28000 186.179
51.45000 171.349
51.62000 170.395
51.79000 173.936
51.96000 163.437
52.13000 166.429
52.30000 154.102
52.47000 163.360
52.64000 168.034
52.81000 170.833
52.98000 164.309
53.15000 174.909
53.32000 161.966
53.49000 167.255
53.66000 160.282
53.83000 160.953
54.00000 153.847
54.17000 169.510
54.34000 164.519
54.51000 167.203
54.68000 164.322
54.85000 161.029
55.02000 182.004
55.19000 193.426
55.36000 239.705
55.53000 383.409
55.70000 522.709
55.87000 467.729
56.04000 297.714
56.21000 205.533
56.38000 191.855
56.55000 162.197
56.72000 166.877
56.89000 146.181
57.06000 146.446
57.23000 146.048
57.40000 135.017
57.57000 154.754
57.74000 143.802
57.91000 148.096
58.08000 140.113
58.25000 142.764
58.42000 145.494
58.59000 134.115
58.76000 138.210
58.93000 140.224
59.10000 133.591
59.27000 134.058
59.44000 136.489
59.61000 134.687
59.78000 131.251
59.95000 123.405
60.12000 128.603
60.29000 136.209
60.46000 133.260
60.63000 130.945
60.80000 139.104
60.97000 129.062
61.14000 141.386
61.31000 143.241
61.48000 166.127
61.65000 346.504
61.82000 230.112
61.99000 138.784
62.16000 142.294
62.33000 153.452
62.50000 151.704
62.67000 148.279
62.84000 134.872
63.01000 144.204
63.18000 145.459
63.35000 155.915
63.52000 151.203
63.69000 160.717
63.86000 158.418
64.03000 158.087
64.20000 157.482
64.37000 171.520
64.54000 174.998
64.71000 178.505
64.88000 199.033
65.05000 287.372
65.22000 387.826
65.39000 400.385
65.56000 379.250
65.73000 798.816
65.90000 1372.026
66.07000 431.517
66.24000 363.307
66.41000 527.870
66.58000 391.027
66.75000 331.763
66.92000 366.982
67.09000 394.770
67.26000 414.608
67.43000 444.627
67.60000 495.301
67.77000 537.779
67.94000 576.418
68.11000 604.798
68.28000 698.890
68.45000 849.575
68.62000 1304.577
68.79000 2550.756
68.96000 23196.723
69.13000 87549.445
69.30000 51533.883
69.47000 11813.512
69.64000 1618.379
69.81000 1007.727
69.98000 781.398
70.00000 764.137