File: XRD/17-09-2025/XY Data/BTO_Mapping_Theta2Theta_09-17-2025_001_18_-15-000_0-000.xy
20.00000 588.601
20.17000 556.570
20.34000 566.780
20.51000 536.520
20.68000 543.364
20.85000 541.831
21.02000 569.360
21.19000 559.488
21.36000 541.172
21.53000 574.102
21.70000 603.214
21.87000 754.454
22.04000 920.163
22.21000 682.578
22.38000 536.414
22.55000 530.085
22.72000 534.673
22.89000 514.784
23.06000 490.387
23.23000 505.472
23.40000 515.495
23.57000 495.671
23.74000 523.076
23.91000 504.036
24.08000 503.491
24.25000 496.503
24.42000 485.607
24.59000 477.878
24.76000 495.016
24.93000 465.760
25.10000 461.437
25.27000 469.193
25.44000 454.161
25.61000 471.484
25.78000 481.527
25.95000 462.119
26.12000 449.865
26.29000 479.204
26.46000 459.610
26.63000 455.718
26.80000 456.773
26.97000 448.370
27.14000 450.687
27.31000 457.360
27.48000 442.493
27.65000 445.585
27.82000 424.409
27.99000 434.741
28.16000 442.719
28.33000 443.678
28.50000 432.940
28.67000 424.600
28.84000 413.777
29.01000 425.894
29.18000 417.778
29.35000 417.136
29.52000 426.424
29.69000 435.305
29.86000 442.030
30.03000 456.025
30.20000 436.473
30.37000 437.903
30.54000 449.485
30.71000 467.543
30.88000 516.109
31.05000 786.920
31.22000 2480.576
31.39000 3753.311
31.56000 1381.849
31.73000 574.033
31.90000 456.735
32.07000 422.431
32.24000 409.932
32.41000 386.997
32.58000 384.982
32.75000 379.630
32.92000 365.359
33.09000 358.850
33.26000 336.784
33.43000 354.544
33.60000 344.449
33.77000 338.836
33.94000 343.483
34.11000 346.393
34.28000 322.038
34.45000 321.407
34.62000 326.863
34.79000 321.911
34.96000 312.244
35.13000 324.285
35.30000 305.974
35.47000 318.230
35.64000 304.968
35.81000 303.542
35.98000 308.550
36.15000 307.274
36.32000 291.911
36.49000 299.137
36.66000 304.477
36.83000 295.030
37.00000 313.034
37.17000 296.694
37.34000 286.278
37.51000 282.942
37.68000 286.210
37.85000 286.431
38.02000 289.905
38.19000 311.124
38.36000 361.049
38.53000 510.158
38.70000 601.259
38.87000 437.563
39.04000 296.988
39.21000 282.191
39.38000 271.059
39.55000 273.738
39.72000 265.789
39.89000 276.089
40.06000 271.213
40.23000 257.311
40.40000 252.907
40.57000 254.142
40.74000 259.432
40.91000 249.936
41.08000 257.408
41.25000 251.902
41.42000 257.132
41.59000 247.790
41.76000 236.499
41.93000 236.241
42.10000 237.540
42.27000 230.337
42.44000 233.595
42.61000 212.177
42.78000 237.782
42.95000 251.799
43.12000 229.410
43.29000 218.580
43.46000 226.934
43.63000 214.774
43.80000 224.828
43.97000 232.400
44.14000 227.473
44.31000 230.264
44.48000 236.555
44.65000 265.306
44.82000 401.445
44.99000 568.629
45.16000 441.457
45.33000 283.125
45.50000 239.810
45.67000 216.207
45.84000 215.968
46.01000 224.793
46.18000 214.866
46.35000 207.438
46.52000 214.815
46.69000 204.734
46.86000 192.428
47.03000 198.953
47.20000 200.028
47.37000 186.345
47.54000 183.876
47.71000 197.065
47.88000 189.868
48.05000 190.571
48.22000 185.926
48.39000 182.572
48.56000 177.630
48.73000 186.309
48.90000 180.196
49.07000 165.959
49.24000 172.428
49.41000 169.083
49.58000 185.130
49.75000 182.633
49.92000 181.954
50.09000 185.242
50.26000 192.228
50.43000 234.259
50.60000 298.886
50.77000 271.195
50.94000 189.575
51.11000 175.603
51.28000 170.459
51.45000 164.235
51.62000 151.573
51.79000 170.012
51.96000 168.707
52.13000 145.174
52.30000 153.068
52.47000 161.123
52.64000 158.855
52.81000 159.681
52.98000 158.416
53.15000 153.908
53.32000 163.541
53.49000 159.815
53.66000 158.366
53.83000 152.286
54.00000 156.196
54.17000 166.527
54.34000 157.965
54.51000 169.502
54.68000 149.032
54.85000 161.583
55.02000 162.202
55.19000 161.127
55.36000 176.790
55.53000 227.227
55.70000 450.879
55.87000 640.429
56.04000 471.236
56.21000 255.911
56.38000 180.014
56.55000 162.888
56.72000 148.472
56.89000 155.506
57.06000 141.251
57.23000 154.167
57.40000 148.612
57.57000 140.453
57.74000 143.374
57.91000 149.446
58.08000 145.036
58.25000 139.858
58.42000 145.703
58.59000 143.876
58.76000 137.791
58.93000 136.135
59.10000 141.731
59.27000 133.406
59.44000 134.240
59.61000 126.900
59.78000 136.304
59.95000 124.383
60.12000 131.901
60.29000 126.524
60.46000 138.858
60.63000 131.917
60.80000 138.393
60.97000 137.016
61.14000 137.651
61.31000 140.727
61.48000 155.619
61.65000 333.370
61.82000 204.126
61.99000 144.146
62.16000 140.954
62.33000 140.977
62.50000 140.447
62.67000 147.124
62.84000 141.462
63.01000 151.353
63.18000 138.461
63.35000 156.209
63.52000 155.859
63.69000 155.910
63.86000 147.074
64.03000 151.712
64.20000 163.741
64.37000 160.723
64.54000 173.885
64.71000 184.748
64.88000 192.535
65.05000 207.843
65.22000 281.231
65.39000 415.581
65.56000 452.660
65.73000 841.094
65.90000 1340.689
66.07000 415.326
66.24000 341.042
66.41000 529.784
66.58000 365.712
66.75000 350.578
66.92000 367.045
67.09000 385.581
67.26000 435.820
67.43000 442.527
67.60000 487.871
67.77000 515.936
67.94000 575.967
68.11000 620.505
68.28000 691.576
68.45000 834.057
68.62000 1284.150
68.79000 2465.136
68.96000 22093.719
69.13000 83669.633
69.30000 48456.098
69.47000 10674.592
69.64000 1545.785
69.81000 980.573
69.98000 793.878
70.00000 776.271