File: XRD/17-09-2025/XY Data/BTO_Mapping_Theta2Theta_09-17-2025_001_36_0-000_45-000.xy
20.00000 546.251
20.17000 546.161
20.34000 548.199
20.51000 537.874
20.68000 545.949
20.85000 560.036
21.02000 546.566
21.19000 551.307
21.36000 541.242
21.53000 555.411
21.70000 530.024
21.87000 587.954
22.04000 618.170
22.21000 578.446
22.38000 540.429
22.55000 552.597
22.72000 513.124
22.89000 521.353
23.06000 498.121
23.23000 509.585
23.40000 494.320
23.57000 500.646
23.74000 503.824
23.91000 517.487
24.08000 507.423
24.25000 493.183
24.42000 468.074
24.59000 480.730
24.76000 472.039
24.93000 465.701
25.10000 473.479
25.27000 466.826
25.44000 470.224
25.61000 456.735
25.78000 459.793
25.95000 465.947
26.12000 450.517
26.29000 451.150
26.46000 460.901
26.63000 429.896
26.80000 444.829
26.97000 444.923
27.14000 439.009
27.31000 421.363
27.48000 435.767
27.65000 428.773
27.82000 429.841
27.99000 435.463
28.16000 422.459
28.33000 414.284
28.50000 440.623
28.67000 417.812
28.84000 408.217
29.01000 417.606
29.18000 423.716
29.35000 399.193
29.52000 402.458
29.69000 410.757
29.86000 422.642
30.03000 401.546
30.20000 410.868
30.37000 399.091
30.54000 414.691
30.71000 420.326
30.88000 449.534
31.05000 545.841
31.22000 956.348
31.39000 1132.432
31.56000 780.142
31.73000 485.444
31.90000 414.893
32.07000 379.419
32.24000 369.875
32.41000 373.340
32.58000 356.155
32.75000 355.277
32.92000 359.333
33.09000 348.624
33.26000 331.400
33.43000 332.666
33.60000 325.710
33.77000 336.036
33.94000 317.634
34.11000 319.576
34.28000 333.165
34.45000 339.419
34.62000 327.064
34.79000 318.835
34.96000 304.689
35.13000 309.887
35.30000 298.345
35.47000 308.162
35.64000 296.830
35.81000 296.490
35.98000 302.490
36.15000 298.188
36.32000 300.359
36.49000 296.107
36.66000 278.633
36.83000 289.450
37.00000 294.111
37.17000 285.380
37.34000 283.275
37.51000 277.797
37.68000 280.791
37.85000 277.741
38.02000 288.287
38.19000 290.605
38.36000 332.541
38.53000 380.339
38.70000 453.882
38.87000 392.845
39.04000 293.571
39.21000 259.314
39.38000 247.057
39.55000 255.286
39.72000 259.758
39.89000 251.699
40.06000 260.498
40.23000 257.508
40.40000 243.736
40.57000 250.799
40.74000 258.819
40.91000 257.449
41.08000 238.789
41.25000 238.720
41.42000 240.879
41.59000 239.245
41.76000 228.750
41.93000 231.983
42.10000 240.269
42.27000 228.148
42.44000 236.536
42.61000 237.382
42.78000 223.605
42.95000 221.617
43.12000 224.369
43.29000 233.542
43.46000 223.723
43.63000 231.298
43.80000 225.168
43.97000 217.484
44.14000 228.462
44.31000 228.413
44.48000 234.770
44.65000 235.857
44.82000 252.749
44.99000 277.812
45.16000 258.331
45.33000 245.006
45.50000 237.311
45.67000 226.369
45.84000 201.373
46.01000 202.669
46.18000 197.367
46.35000 199.462
46.52000 190.279
46.69000 193.182
46.86000 188.741
47.03000 187.427
47.20000 199.481
47.37000 183.334
47.54000 187.153
47.71000 176.219
47.88000 185.565
48.05000 182.959
48.22000 179.383
48.39000 176.823
48.56000 184.910
48.73000 183.878
48.90000 178.680
49.07000 166.641
49.24000 181.270
49.41000 183.756
49.58000 172.705
49.75000 178.169
49.92000 166.763
50.09000 175.450
50.26000 173.735
50.43000 187.694
50.60000 198.790
50.77000 197.623
50.94000 176.856
51.11000 171.744
51.28000 158.455
51.45000 155.693
51.62000 161.139
51.79000 170.655
51.96000 149.167
52.13000 158.373
52.30000 165.328
52.47000 155.090
52.64000 157.500
52.81000 152.530
52.98000 157.984
53.15000 153.196
53.32000 149.977
53.49000 159.641
53.66000 160.717
53.83000 160.224
54.00000 152.415
54.17000 152.181
54.34000 148.876
54.51000 144.972
54.68000 154.994
54.85000 156.929
55.02000 158.335
55.19000 166.582
55.36000 175.943
55.53000 196.447
55.70000 236.135
55.87000 277.474
56.04000 237.625
56.21000 187.833
56.38000 165.184
56.55000 151.395
56.72000 144.265
56.89000 143.672
57.06000 140.895
57.23000 148.398
57.40000 145.408
57.57000 139.640
57.74000 153.552
57.91000 124.422
58.08000 136.884
58.25000 135.475
58.42000 136.835
58.59000 136.824
58.76000 138.336
58.93000 132.489
59.10000 132.227
59.27000 130.079
59.44000 130.455
59.61000 126.292
59.78000 126.980
59.95000 137.988
60.12000 133.130
60.29000 129.072
60.46000 141.528
60.63000 135.504
60.80000 120.488
60.97000 134.680
61.14000 133.956
61.31000 132.985
61.48000 151.117
61.65000 247.058
61.82000 207.947
61.99000 144.912
62.16000 143.274
62.33000 135.698
62.50000 135.202
62.67000 141.321
62.84000 139.138
63.01000 147.516
63.18000 144.416
63.35000 152.285
63.52000 157.094
63.69000 156.861
63.86000 161.661
64.03000 160.834
64.20000 162.705
64.37000 173.247
64.54000 164.017
64.71000 169.622
64.88000 186.763
65.05000 190.098
65.22000 211.597
65.39000 231.339
65.56000 254.451
65.73000 486.606
65.90000 919.484
66.07000 355.033
66.24000 307.626
66.41000 407.728
66.58000 342.050
66.75000 328.816
66.92000 336.441
67.09000 352.147
67.26000 377.021
67.43000 406.274
67.60000 447.301
67.77000 475.240
67.94000 512.922
68.11000 569.904
68.28000 653.956
68.45000 727.761
68.62000 1017.861
68.79000 1799.325
68.96000 10743.050
69.13000 54669.039
69.30000 33129.668
69.47000 8269.211
69.64000 1278.144
69.81000 875.325
69.98000 687.140
70.00000 664.975