File: XRD/17-09-2025/XY Data/BTO_Mapping_Theta2Theta_09-17-2025_001_29_45-000_15-000.xy
20.00000 576.894
20.17000 570.258
20.34000 553.788
20.51000 579.548
20.68000 556.565
20.85000 578.769
21.02000 555.921
21.19000 559.393
21.36000 533.501
21.53000 555.328
21.70000 525.909
21.87000 547.287
22.04000 563.371
22.21000 540.829
22.38000 536.758
22.55000 492.374
22.72000 509.277
22.89000 508.271
23.06000 515.764
23.23000 518.594
23.40000 520.523
23.57000 491.825
23.74000 494.358
23.91000 500.495
24.08000 486.161
24.25000 496.285
24.42000 487.225
24.59000 468.734
24.76000 469.228
24.93000 477.984
25.10000 462.251
25.27000 460.828
25.44000 456.581
25.61000 460.891
25.78000 451.793
25.95000 436.181
26.12000 463.165
26.29000 460.729
26.46000 443.092
26.63000 432.954
26.80000 441.741
26.97000 445.687
27.14000 406.295
27.31000 430.876
27.48000 438.067
27.65000 408.542
27.82000 410.310
27.99000 420.764
28.16000 399.499
28.33000 417.721
28.50000 399.221
28.67000 407.530
28.84000 388.634
29.01000 386.599
29.18000 400.008
29.35000 403.597
29.52000 394.899
29.69000 385.004
29.86000 375.823
30.03000 389.904
30.20000 387.138
30.37000 370.325
30.54000 375.259
30.71000 368.839
30.88000 379.478
31.05000 403.374
31.22000 432.955
31.39000 431.520
31.56000 391.863
31.73000 383.010
31.90000 368.427
32.07000 342.648
32.24000 348.271
32.41000 345.621
32.58000 340.397
32.75000 332.746
32.92000 333.114
33.09000 326.410
33.26000 330.735
33.43000 334.731
33.60000 331.465
33.77000 317.156
33.94000 326.870
34.11000 315.196
34.28000 307.313
34.45000 313.884
34.62000 300.469
34.79000 304.271
34.96000 323.056
35.13000 306.657
35.30000 307.248
35.47000 309.230
35.64000 312.087
35.81000 294.521
35.98000 283.999
36.15000 301.540
36.32000 289.652
36.49000 287.489
36.66000 279.856
36.83000 292.692
37.00000 276.462
37.17000 285.036
37.34000 276.830
37.51000 271.511
37.68000 272.913
37.85000 275.100
38.02000 278.712
38.19000 258.953
38.36000 271.458
38.53000 279.319
38.70000 277.938
38.87000 270.243
39.04000 249.614
39.21000 253.510
39.38000 239.263
39.55000 241.897
39.72000 250.796
39.89000 250.448
40.06000 250.657
40.23000 248.971
40.40000 235.191
40.57000 237.103
40.74000 239.911
40.91000 236.564
41.08000 243.154
41.25000 234.409
41.42000 236.591
41.59000 233.558
41.76000 222.568
41.93000 236.331
42.10000 225.029
42.27000 225.025
42.44000 211.316
42.61000 224.932
42.78000 218.014
42.95000 225.416
43.12000 221.264
43.29000 206.882
43.46000 212.672
43.63000 211.393
43.80000 219.215
43.97000 199.336
44.14000 221.318
44.31000 221.282
44.48000 204.907
44.65000 199.210
44.82000 203.562
44.99000 209.432
45.16000 204.516
45.33000 203.145
45.50000 192.624
45.67000 198.266
45.84000 189.447
46.01000 187.541
46.18000 189.612
46.35000 184.384
46.52000 181.672
46.69000 184.389
46.86000 186.291
47.03000 181.279
47.20000 176.793
47.37000 185.275
47.54000 179.262
47.71000 190.286
47.88000 183.469
48.05000 179.386
48.22000 182.592
48.39000 175.652
48.56000 173.390
48.73000 171.120
48.90000 187.665
49.07000 167.717
49.24000 168.402
49.41000 169.089
49.58000 170.720
49.75000 172.017
49.92000 175.046
50.09000 169.439
50.26000 161.103
50.43000 172.101
50.60000 155.731
50.77000 164.099
50.94000 161.034
51.11000 158.024
51.28000 162.842
51.45000 162.948
51.62000 153.654
51.79000 159.562
51.96000 169.769
52.13000 154.938
52.30000 158.682
52.47000 160.157
52.64000 148.246
52.81000 151.748
52.98000 144.066
53.15000 163.081
53.32000 152.051
53.49000 150.198
53.66000 150.532
53.83000 156.221
54.00000 152.035
54.17000 133.588
54.34000 143.012
54.51000 142.225
54.68000 150.734
54.85000 154.881
55.02000 145.773
55.19000 141.862
55.36000 141.321
55.53000 138.171
55.70000 140.101
55.87000 140.389
56.04000 145.987
56.21000 134.019
56.38000 145.379
56.55000 132.733
56.72000 143.140
56.89000 148.520
57.06000 124.882
57.23000 129.376
57.40000 135.537
57.57000 136.817
57.74000 140.420
57.91000 132.196
58.08000 135.278
58.25000 132.335
58.42000 119.793
58.59000 128.298
58.76000 139.684
58.93000 119.523
59.10000 133.758
59.27000 129.608
59.44000 129.192
59.61000 125.743
59.78000 132.606
59.95000 125.845
60.12000 139.388
60.29000 137.237
60.46000 121.734
60.63000 137.902
60.80000 120.725
60.97000 132.807
61.14000 145.343
61.31000 128.221
61.48000 141.388
61.65000 238.552
61.82000 213.313
61.99000 143.187
62.16000 133.101
62.33000 128.162
62.50000 144.728
62.67000 138.257
62.84000 140.833
63.01000 145.591
63.18000 154.021
63.35000 141.548
63.52000 149.764
63.69000 156.215
63.86000 158.419
64.03000 156.957
64.20000 159.640
64.37000 163.659
64.54000 170.287
64.71000 162.721
64.88000 170.336
65.05000 188.277
65.22000 191.552
65.39000 201.055
65.56000 226.044
65.73000 456.615
65.90000 896.695
66.07000 363.871
66.24000 288.099
66.41000 434.830
66.58000 349.436
66.75000 316.292
66.92000 316.325
67.09000 353.789
67.26000 398.262
67.43000 421.515
67.60000 437.926
67.77000 475.731
67.94000 529.145
68.11000 595.468
68.28000 658.110
68.45000 749.120
68.62000 993.008
68.79000 1820.475
68.96000 9357.770
69.13000 55298.320
69.30000 34455.898
69.47000 9237.529
69.64000 1341.052
69.81000 881.291
69.98000 703.074
70.00000 682.120