File: XRD/17-09-2025/XY Data/BTO_Mapping_Theta2Theta_09-17-2025_001_11_-15-000_-15-000.xy
20.00000 539.649
20.17000 570.426
20.34000 549.515
20.51000 545.778
20.68000 542.895
20.85000 543.733
21.02000 552.754
21.19000 521.525
21.36000 549.128
21.53000 557.108
21.70000 583.722
21.87000 737.870
22.04000 891.806
22.21000 664.614
22.38000 554.441
22.55000 529.163
22.72000 540.490
22.89000 518.391
23.06000 494.086
23.23000 495.403
23.40000 513.883
23.57000 473.623
23.74000 496.095
23.91000 489.078
24.08000 483.687
24.25000 492.723
24.42000 503.483
24.59000 483.963
24.76000 463.109
24.93000 467.480
25.10000 483.036
25.27000 472.773
25.44000 470.572
25.61000 468.232
25.78000 456.359
25.95000 455.095
26.12000 441.694
26.29000 462.369
26.46000 473.595
26.63000 434.901
26.80000 459.307
26.97000 434.304
27.14000 449.458
27.31000 440.809
27.48000 440.309
27.65000 431.976
27.82000 460.668
27.99000 433.612
28.16000 434.128
28.33000 434.504
28.50000 440.775
28.67000 441.658
28.84000 424.292
29.01000 424.891
29.18000 421.741
29.35000 428.601
29.52000 419.019
29.69000 433.201
29.86000 428.755
30.03000 449.737
30.20000 441.354
30.37000 449.114
30.54000 445.385
30.71000 448.450
30.88000 504.917
31.05000 801.188
31.22000 2599.646
31.39000 3897.290
31.56000 1386.531
31.73000 552.977
31.90000 453.781
32.07000 431.888
32.24000 402.631
32.41000 387.622
32.58000 374.786
32.75000 375.158
32.92000 361.030
33.09000 355.810
33.26000 352.944
33.43000 358.751
33.60000 357.148
33.77000 343.480
33.94000 332.123
34.11000 331.968
34.28000 339.897
34.45000 314.067
34.62000 326.931
34.79000 321.749
34.96000 311.642
35.13000 311.483
35.30000 306.593
35.47000 322.395
35.64000 317.681
35.81000 332.990
35.98000 300.570
36.15000 312.617
36.32000 298.973
36.49000 296.366
36.66000 296.766
36.83000 287.721
37.00000 288.499
37.17000 303.153
37.34000 282.825
37.51000 283.240
37.68000 298.820
37.85000 290.594
38.02000 290.151
38.19000 298.284
38.36000 328.612
38.53000 504.944
38.70000 611.063
38.87000 429.254
39.04000 299.862
39.21000 274.996
39.38000 281.571
39.55000 266.793
39.72000 260.376
39.89000 262.521
40.06000 249.345
40.23000 251.467
40.40000 261.770
40.57000 241.810
40.74000 255.158
40.91000 241.495
41.08000 245.700
41.25000 232.807
41.42000 233.724
41.59000 251.130
41.76000 239.788
41.93000 250.779
42.10000 234.317
42.27000 228.036
42.44000 230.352
42.61000 244.312
42.78000 225.941
42.95000 233.226
43.12000 228.591
43.29000 233.608
43.46000 230.104
43.63000 229.121
43.80000 228.228
43.97000 230.519
44.14000 221.997
44.31000 230.290
44.48000 242.612
44.65000 261.172
44.82000 393.943
44.99000 545.298
45.16000 433.586
45.33000 298.807
45.50000 234.360
45.67000 217.145
45.84000 211.961
46.01000 221.107
46.18000 207.995
46.35000 199.177
46.52000 187.805
46.69000 190.593
46.86000 198.603
47.03000 189.617
47.20000 198.697
47.37000 191.015
47.54000 185.154
47.71000 186.304
47.88000 192.040
48.05000 183.308
48.22000 192.106
48.39000 180.689
48.56000 182.583
48.73000 186.744
48.90000 170.772
49.07000 180.226
49.24000 175.039
49.41000 177.713
49.58000 186.680
49.75000 184.334
49.92000 163.875
50.09000 181.562
50.26000 178.447
50.43000 237.272
50.60000 298.381
50.77000 277.716
50.94000 216.489
51.11000 178.768
51.28000 165.180
51.45000 166.700
51.62000 157.764
51.79000 175.395
51.96000 154.139
52.13000 159.610
52.30000 161.739
52.47000 156.223
52.64000 162.538
52.81000 164.108
52.98000 154.931
53.15000 164.941
53.32000 160.033
53.49000 161.871
53.66000 156.372
53.83000 150.892
54.00000 161.882
54.17000 164.418
54.34000 158.479
54.51000 149.206
54.68000 152.500
54.85000 153.979
55.02000 168.143
55.19000 166.047
55.36000 175.892
55.53000 247.362
55.70000 468.785
55.87000 675.247
56.04000 497.757
56.21000 257.821
56.38000 185.870
56.55000 155.112
56.72000 157.854
56.89000 164.311
57.06000 142.805
57.23000 146.110
57.40000 151.934
57.57000 141.265
57.74000 141.425
57.91000 152.436
58.08000 145.972
58.25000 143.627
58.42000 132.718
58.59000 144.636
58.76000 129.642
58.93000 138.514
59.10000 125.172
59.27000 144.456
59.44000 136.220
59.61000 138.419
59.78000 135.690
59.95000 129.124
60.12000 133.624
60.29000 135.783
60.46000 125.197
60.63000 130.097
60.80000 128.700
60.97000 138.274
61.14000 141.811
61.31000 135.461
61.48000 155.313
61.65000 322.670
61.82000 218.977
61.99000 153.245
62.16000 136.031
62.33000 146.443
62.50000 143.780
62.67000 148.478
62.84000 139.463
63.01000 146.487
63.18000 145.334
63.35000 154.747
63.52000 156.498
63.69000 147.791
63.86000 156.624
64.03000 159.511
64.20000 170.340
64.37000 162.221
64.54000 174.998
64.71000 176.688
64.88000 178.478
65.05000 210.809
65.22000 294.994
65.39000 408.056
65.56000 477.330
65.73000 849.515
65.90000 1397.492
66.07000 418.300
66.24000 351.548
66.41000 503.341
66.58000 377.209
66.75000 355.922
66.92000 380.257
67.09000 379.492
67.26000 423.325
67.43000 451.585
67.60000 492.673
67.77000 520.644
67.94000 576.059
68.11000 643.791
68.28000 731.635
68.45000 830.935
68.62000 1326.203
68.79000 2494.869
68.96000 23151.316
69.13000 85981.094
69.30000 49073.633
69.47000 10842.341
69.64000 1541.168
69.81000 988.025
69.98000 818.774
70.00000 800.437