File: XRD/24-09-2025 Dep 3/XY Data/BTO_Mapping_Theta2Theta_24-09-2025_001_55_13-383_-14-863.xy
20.00000 558.117
20.17000 563.953
20.34000 567.733
20.51000 564.935
20.68000 552.743
20.85000 552.136
21.02000 539.056
21.19000 547.975
21.36000 547.253
21.53000 558.300
21.70000 556.998
21.87000 557.880
22.04000 599.109
22.21000 577.502
22.38000 568.512
22.55000 533.966
22.72000 528.003
22.89000 504.668
23.06000 513.782
23.23000 518.998
23.40000 497.096
23.57000 498.542
23.74000 504.856
23.91000 499.446
24.08000 513.777
24.25000 505.289
24.42000 489.035
24.59000 489.238
24.76000 499.384
24.93000 476.164
25.10000 474.861
25.27000 463.361
25.44000 471.817
25.61000 470.048
25.78000 467.946
25.95000 462.172
26.12000 460.447
26.29000 446.042
26.46000 458.238
26.63000 468.835
26.80000 448.797
26.97000 460.234
27.14000 444.374
27.31000 424.318
27.48000 435.852
27.65000 424.635
27.82000 435.963
27.99000 424.911
28.16000 421.943
28.33000 450.547
28.50000 427.253
28.67000 423.782
28.84000 418.996
29.01000 415.292
29.18000 426.151
29.35000 394.326
29.52000 402.337
29.69000 408.759
29.86000 408.941
30.03000 412.729
30.20000 410.633
30.37000 404.027
30.54000 427.018
30.71000 416.237
30.88000 441.496
31.05000 550.755
31.22000 1030.257
31.39000 1673.804
31.56000 1221.089
31.73000 591.556
31.90000 454.740
32.07000 400.422
32.24000 395.207
32.41000 396.118
32.58000 363.132
32.75000 369.903
32.92000 450.000
33.09000 391.294
33.26000 348.613
33.43000 348.698
33.60000 340.007
33.77000 339.165
33.94000 329.215
34.11000 330.864
34.28000 333.754
34.45000 327.979
34.62000 323.882
34.79000 303.746
34.96000 328.732
35.13000 312.391
35.30000 314.366
35.47000 303.792
35.64000 310.439
35.81000 304.635
35.98000 304.466
36.15000 294.869
36.32000 304.150
36.49000 291.638
36.66000 296.419
36.83000 298.020
37.00000 311.562
37.17000 308.555
37.34000 288.950
37.51000 306.593
37.68000 302.811
37.85000 298.040
38.02000 295.365
38.19000 310.811
38.36000 359.856
38.53000 687.628
38.70000 1522.891
38.87000 1159.538
39.04000 429.740
39.21000 308.004
39.38000 296.562
39.55000 274.435
39.72000 273.320
39.89000 254.488
40.06000 263.276
40.23000 267.257
40.40000 256.528
40.57000 254.962
40.74000 252.325
40.91000 247.210
41.08000 222.139
41.25000 262.347
41.42000 237.982
41.59000 244.361
41.76000 241.216
41.93000 234.138
42.10000 242.539
42.27000 231.352
42.44000 231.814
42.61000 230.953
42.78000 222.375
42.95000 245.057
43.12000 236.267
43.29000 239.137
43.46000 235.308
43.63000 221.681
43.80000 212.186
43.97000 210.143
44.14000 230.027
44.31000 223.732
44.48000 218.717
44.65000 226.488
44.82000 214.951
44.99000 261.069
45.16000 269.267
45.33000 250.803
45.50000 236.132
45.67000 220.067
45.84000 223.661
46.01000 219.326
46.18000 204.070
46.35000 200.773
46.52000 204.658
46.69000 200.701
46.86000 194.387
47.03000 192.586
47.20000 185.871
47.37000 183.274
47.54000 186.920
47.71000 191.734
47.88000 166.574
48.05000 174.324
48.22000 183.001
48.39000 190.317
48.56000 179.707
48.73000 176.702
48.90000 180.740
49.07000 187.699
49.24000 168.344
49.41000 170.147
49.58000 172.573
49.75000 179.220
49.92000 170.543
50.09000 169.106
50.26000 161.856
50.43000 183.016
50.60000 183.169
50.77000 182.228
50.94000 196.334
51.11000 177.475
51.28000 184.232
51.45000 169.646
51.62000 162.356
51.79000 151.269
51.96000 168.409
52.13000 155.150
52.30000 163.051
52.47000 164.442
52.64000 157.320
52.81000 166.684
52.98000 162.888
53.15000 164.650
53.32000 153.060
53.49000 171.961
53.66000 152.291
53.83000 158.717
54.00000 161.056
54.17000 154.782
54.34000 158.969
54.51000 159.789
54.68000 152.772
54.85000 149.571
55.02000 152.220
55.19000 163.487
55.36000 176.816
55.53000 222.824
55.70000 395.597
55.87000 756.248
56.04000 877.640
56.21000 572.733
56.38000 271.203
56.55000 188.703
56.72000 161.764
56.89000 154.884
57.06000 153.313
57.23000 144.224
57.40000 145.007
57.57000 148.706
57.74000 142.359
57.91000 148.633
58.08000 130.423
58.25000 137.741
58.42000 152.043
58.59000 136.003
58.76000 136.150
58.93000 133.161
59.10000 135.234
59.27000 133.781
59.44000 134.857
59.61000 128.823
59.78000 129.326
59.95000 126.778
60.12000 128.017
60.29000 125.708
60.46000 140.691
60.63000 129.113
60.80000 130.714
60.97000 139.460
61.14000 131.365
61.31000 135.311
61.48000 165.032
61.65000 260.937
61.82000 191.369
61.99000 143.405
62.16000 142.543
62.33000 145.027
62.50000 140.608
62.67000 139.299
62.84000 134.363
63.01000 140.825
63.18000 142.226
63.35000 145.648
63.52000 150.666
63.69000 139.311
63.86000 146.529
64.03000 156.350
64.20000 163.236
64.37000 162.754
64.54000 149.558
64.71000 160.745
64.88000 176.113
65.05000 185.601
65.22000 208.023
65.39000 242.113
65.56000 287.785
65.73000 602.225
65.90000 988.812
66.07000 380.500
66.24000 295.422
66.41000 420.157
66.58000 331.921
66.75000 301.296
66.92000 313.252
67.09000 336.934
67.26000 355.324
67.43000 383.801
67.60000 404.665
67.77000 453.944
67.94000 502.953
68.11000 535.965
68.28000 573.564
68.45000 683.564
68.62000 935.519
68.79000 1714.801
68.96000 11181.738
69.13000 49790.223
69.30000 29014.199
69.47000 6645.985
69.64000 1121.502
69.81000 790.757
69.98000 633.937
70.00000 612.788