File: XRD/24-09-2025 Dep 3/XY Data/BTO_Mapping_Theta2Theta_24-09-2025_001_33_-39-126_8-316.xy
20.00000 602.611
20.17000 537.384
20.34000 574.338
20.51000 555.923
20.68000 562.424
20.85000 552.328
21.02000 568.180
21.19000 549.717
21.36000 553.571
21.53000 551.676
21.70000 674.235
21.87000 928.885
22.04000 961.748
22.21000 654.373
22.38000 571.434
22.55000 541.705
22.72000 528.392
22.89000 530.683
23.06000 521.395
23.23000 521.163
23.40000 518.890
23.57000 501.471
23.74000 482.890
23.91000 516.024
24.08000 507.176
24.25000 488.493
24.42000 486.774
24.59000 491.717
24.76000 501.155
24.93000 489.523
25.10000 485.859
25.27000 476.192
25.44000 484.928
25.61000 481.509
25.78000 468.043
25.95000 464.827
26.12000 485.411
26.29000 469.672
26.46000 468.490
26.63000 458.354
26.80000 459.922
26.97000 446.962
27.14000 460.725
27.31000 464.575
27.48000 441.034
27.65000 434.836
27.82000 436.799
27.99000 443.664
28.16000 463.172
28.33000 440.115
28.50000 442.610
28.67000 422.251
28.84000 419.574
29.01000 430.396
29.18000 412.507
29.35000 417.506
29.52000 423.669
29.69000 448.718
29.86000 467.733
30.03000 465.740
30.20000 425.467
30.37000 460.116
30.54000 468.124
30.71000 467.115
30.88000 647.689
31.05000 1651.203
31.22000 4329.766
31.39000 3466.934
31.56000 1107.828
31.73000 555.128
31.90000 448.121
32.07000 407.326
32.24000 416.000
32.41000 396.775
32.58000 389.474
32.75000 399.496
32.92000 670.309
33.09000 504.982
33.26000 349.485
33.43000 352.385
33.60000 354.790
33.77000 357.412
33.94000 350.858
34.11000 334.048
34.28000 332.172
34.45000 339.340
34.62000 323.537
34.79000 333.350
34.96000 330.002
35.13000 326.892
35.30000 332.698
35.47000 305.540
35.64000 314.781
35.81000 315.032
35.98000 303.256
36.15000 308.259
36.32000 318.963
36.49000 310.614
36.66000 309.513
36.83000 298.075
37.00000 313.403
37.17000 304.126
37.34000 297.856
37.51000 294.730
37.68000 308.849
37.85000 306.257
38.02000 324.003
38.19000 358.760
38.36000 452.123
38.53000 636.131
38.70000 591.036
38.87000 378.785
39.04000 300.659
39.21000 282.480
39.38000 271.165
39.55000 263.212
39.72000 278.577
39.89000 272.622
40.06000 267.373
40.23000 255.966
40.40000 251.931
40.57000 238.301
40.74000 254.827
40.91000 254.665
41.08000 256.759
41.25000 247.255
41.42000 254.412
41.59000 254.372
41.76000 222.467
41.93000 231.095
42.10000 253.391
42.27000 236.783
42.44000 235.934
42.61000 233.796
42.78000 232.340
42.95000 240.292
43.12000 242.096
43.29000 227.443
43.46000 224.420
43.63000 240.197
43.80000 245.964
43.97000 239.927
44.14000 237.716
44.31000 254.668
44.48000 312.459
44.65000 453.974
44.82000 609.141
44.99000 573.000
45.16000 377.952
45.33000 307.697
45.50000 255.933
45.67000 238.706
45.84000 223.649
46.01000 215.347
46.18000 228.062
46.35000 197.349
46.52000 208.834
46.69000 211.647
46.86000 200.485
47.03000 202.664
47.20000 194.322
47.37000 198.611
47.54000 191.496
47.71000 192.299
47.88000 192.608
48.05000 178.854
48.22000 185.000
48.39000 186.105
48.56000 190.076
48.73000 193.753
48.90000 184.147
49.07000 176.031
49.24000 178.301
49.41000 192.125
49.58000 184.684
49.75000 185.048
49.92000 193.881
50.09000 201.001
50.26000 246.362
50.43000 283.077
50.60000 307.129
50.77000 237.516
50.94000 198.226
51.11000 189.532
51.28000 169.961
51.45000 177.116
51.62000 177.017
51.79000 170.873
51.96000 160.708
52.13000 166.234
52.30000 173.971
52.47000 173.463
52.64000 166.226
52.81000 162.777
52.98000 170.750
53.15000 176.503
53.32000 161.868
53.49000 160.157
53.66000 154.477
53.83000 162.240
54.00000 158.867
54.17000 167.678
54.34000 169.157
54.51000 172.449
54.68000 167.689
54.85000 167.423
55.02000 186.836
55.19000 188.766
55.36000 257.789
55.53000 471.824
55.70000 769.049
55.87000 690.310
56.04000 407.527
56.21000 233.514
56.38000 178.982
56.55000 180.398
56.72000 155.487
56.89000 150.187
57.06000 147.825
57.23000 149.846
57.40000 154.744
57.57000 155.447
57.74000 140.982
57.91000 144.008
58.08000 145.804
58.25000 139.029
58.42000 146.128
58.59000 128.349
58.76000 137.809
58.93000 142.291
59.10000 146.838
59.27000 133.955
59.44000 138.177
59.61000 130.746
59.78000 133.215
59.95000 137.004
60.12000 136.422
60.29000 130.579
60.46000 138.446
60.63000 137.284
60.80000 132.688
60.97000 137.450
61.14000 141.801
61.31000 135.176
61.48000 153.681
61.65000 414.123
61.82000 257.940
61.99000 153.041
62.16000 143.754
62.33000 145.783
62.50000 154.044
62.67000 142.706
62.84000 157.532
63.01000 145.112
63.18000 148.555
63.35000 150.341
63.52000 150.710
63.69000 152.814
63.86000 159.006
64.03000 166.100
64.20000 169.021
64.37000 179.867
64.54000 182.457
64.71000 195.452
64.88000 237.967
65.05000 330.586
65.22000 440.797
65.39000 457.351
65.56000 420.575
65.73000 1016.347
65.90000 1905.870
66.07000 561.496
66.24000 412.325
66.41000 651.398
66.58000 446.326
66.75000 393.952
66.92000 431.387
67.09000 444.772
67.26000 482.949
67.43000 501.574
67.60000 546.728
67.77000 610.311
67.94000 641.757
68.11000 676.151
68.28000 817.621
68.45000 937.882
68.62000 1449.354
68.79000 2941.533
68.96000 24226.338
69.13000 106162.594
69.30000 62080.301
69.47000 14464.527
69.64000 1847.077
69.81000 1097.464
69.98000 865.645
70.00000 856.129