File: XRD/24-09-2025 Dep 3/XY Data/BTO_Mapping_Theta2Theta_24-09-2025_001_20_-3-136_29-836.xy
20.00000 555.183
20.17000 553.761
20.34000 551.332
20.51000 563.194
20.68000 557.944
20.85000 554.371
21.02000 549.059
21.19000 561.098
21.36000 544.829
21.53000 548.415
21.70000 565.822
21.87000 594.393
22.04000 676.101
22.21000 659.451
22.38000 595.969
22.55000 546.895
22.72000 523.767
22.89000 498.432
23.06000 493.007
23.23000 523.493
23.40000 516.872
23.57000 490.215
23.74000 505.959
23.91000 480.677
24.08000 476.154
24.25000 504.784
24.42000 476.824
24.59000 493.828
24.76000 474.977
24.93000 471.509
25.10000 488.172
25.27000 486.935
25.44000 469.276
25.61000 462.147
25.78000 453.493
25.95000 472.219
26.12000 451.662
26.29000 439.410
26.46000 452.239
26.63000 464.664
26.80000 444.404
26.97000 439.633
27.14000 455.256
27.31000 434.259
27.48000 431.311
27.65000 427.834
27.82000 436.314
27.99000 418.755
28.16000 428.457
28.33000 425.765
28.50000 405.084
28.67000 436.361
28.84000 415.879
29.01000 416.735
29.18000 414.388
29.35000 411.486
29.52000 414.774
29.69000 398.265
29.86000 424.034
30.03000 446.516
30.20000 445.760
30.37000 428.774
30.54000 411.993
30.71000 412.119
30.88000 461.433
31.05000 578.104
31.22000 1378.645
31.39000 2669.328
31.56000 1842.765
31.73000 726.951
31.90000 488.392
32.07000 429.063
32.24000 408.624
32.41000 382.352
32.58000 388.040
32.75000 371.427
32.92000 483.971
33.09000 398.227
33.26000 339.861
33.43000 343.192
33.60000 344.103
33.77000 332.788
33.94000 328.551
34.11000 331.548
34.28000 316.069
34.45000 335.181
34.62000 320.398
34.79000 326.321
34.96000 316.779
35.13000 313.501
35.30000 320.553
35.47000 318.779
35.64000 305.754
35.81000 316.646
35.98000 298.442
36.15000 313.478
36.32000 301.967
36.49000 301.898
36.66000 305.496
36.83000 283.660
37.00000 312.508
37.17000 325.457
37.34000 301.238
37.51000 303.261
37.68000 293.168
37.85000 275.421
38.02000 307.670
38.19000 309.117
38.36000 358.977
38.53000 701.461
38.70000 1537.709
38.87000 1164.481
39.04000 443.601
39.21000 322.310
39.38000 286.464
39.55000 283.111
39.72000 268.139
39.89000 265.668
40.06000 267.693
40.23000 263.321
40.40000 260.572
40.57000 247.179
40.74000 258.536
40.91000 248.348
41.08000 230.709
41.25000 245.627
41.42000 240.988
41.59000 232.205
41.76000 244.631
41.93000 225.753
42.10000 244.440
42.27000 239.968
42.44000 238.950
42.61000 231.594
42.78000 234.310
42.95000 239.280
43.12000 216.178
43.29000 239.263
43.46000 217.505
43.63000 217.451
43.80000 215.382
43.97000 211.906
44.14000 225.514
44.31000 226.926
44.48000 230.199
44.65000 228.582
44.82000 241.485
44.99000 295.132
45.16000 320.279
45.33000 298.296
45.50000 271.122
45.67000 262.943
45.84000 236.772
46.01000 217.880
46.18000 216.269
46.35000 202.401
46.52000 209.627
46.69000 201.824
46.86000 191.453
47.03000 199.668
47.20000 192.588
47.37000 198.919
47.54000 176.089
47.71000 193.633
47.88000 189.436
48.05000 192.396
48.22000 183.064
48.39000 188.441
48.56000 186.446
48.73000 180.581
48.90000 182.333
49.07000 174.731
49.24000 174.915
49.41000 182.850
49.58000 172.428
49.75000 170.153
49.92000 165.744
50.09000 179.735
50.26000 176.867
50.43000 207.174
50.60000 228.084
50.77000 227.717
50.94000 212.869
51.11000 182.595
51.28000 169.449
51.45000 174.422
51.62000 163.266
51.79000 159.709
51.96000 161.176
52.13000 159.224
52.30000 161.485
52.47000 159.546
52.64000 161.331
52.81000 160.889
52.98000 144.790
53.15000 155.250
53.32000 168.207
53.49000 160.408
53.66000 154.150
53.83000 156.159
54.00000 149.827
54.17000 146.048
54.34000 153.193
54.51000 153.212
54.68000 157.285
54.85000 167.234
55.02000 164.599
55.19000 176.607
55.36000 171.516
55.53000 196.961
55.70000 349.410
55.87000 724.525
56.04000 860.010
56.21000 500.883
56.38000 268.600
56.55000 196.976
56.72000 163.745
56.89000 165.341
57.06000 156.526
57.23000 143.153
57.40000 156.111
57.57000 149.423
57.74000 140.988
57.91000 150.611
58.08000 135.722
58.25000 131.464
58.42000 133.369
58.59000 135.888
58.76000 135.020
58.93000 130.810
59.10000 135.425
59.27000 136.193
59.44000 131.654
59.61000 130.721
59.78000 138.166
59.95000 131.096
60.12000 128.053
60.29000 126.205
60.46000 132.576
60.63000 127.642
60.80000 130.797
60.97000 128.773
61.14000 140.322
61.31000 134.172
61.48000 132.483
61.65000 271.603
61.82000 199.033
61.99000 150.677
62.16000 133.596
62.33000 133.341
62.50000 132.990
62.67000 153.298
62.84000 146.692
63.01000 140.918
63.18000 161.214
63.35000 147.595
63.52000 146.650
63.69000 146.048
63.86000 151.484
64.03000 147.430
64.20000 153.518
64.37000 160.288
64.54000 169.369
64.71000 165.439
64.88000 168.012
65.05000 188.429
65.22000 223.988
65.39000 281.342
65.56000 359.938
65.73000 671.790
65.90000 1139.321
66.07000 416.820
66.24000 331.729
66.41000 462.385
66.58000 338.110
66.75000 309.637
66.92000 337.617
67.09000 356.679
67.26000 367.672
67.43000 405.578
67.60000 434.144
67.77000 469.281
67.94000 493.957
68.11000 537.733
68.28000 610.827
68.45000 700.064
68.62000 983.195
68.79000 1856.484
68.96000 11627.416
69.13000 56069.230
69.30000 33323.281
69.47000 8387.074
69.64000 1209.464
69.81000 816.401
69.98000 655.281
70.00000 636.675