File: XRD/24-09-2025 Dep 3/XY Data/BTO_Mapping_Theta2Theta_24-09-2025_001_22_-5-000_8-660.xy
20.00000 543.762
20.17000 574.358
20.34000 542.620
20.51000 543.143
20.68000 558.232
20.85000 555.319
21.02000 541.142
21.19000 554.067
21.36000 546.477
21.53000 544.976
21.70000 578.746
21.87000 620.782
22.04000 719.073
22.21000 670.167
22.38000 596.205
22.55000 552.113
22.72000 492.955
22.89000 507.345
23.06000 502.917
23.23000 510.340
23.40000 517.320
23.57000 477.734
23.74000 496.109
23.91000 497.648
24.08000 478.765
24.25000 485.714
24.42000 477.620
24.59000 486.083
24.76000 485.294
24.93000 499.631
25.10000 446.414
25.27000 465.203
25.44000 489.146
25.61000 472.669
25.78000 464.897
25.95000 466.873
26.12000 451.882
26.29000 465.984
26.46000 449.760
26.63000 455.031
26.80000 434.000
26.97000 439.602
27.14000 445.237
27.31000 433.639
27.48000 443.623
27.65000 437.892
27.82000 437.228
27.99000 418.717
28.16000 457.785
28.33000 432.615
28.50000 427.727
28.67000 423.954
28.84000 404.713
29.01000 418.861
29.18000 419.673
29.35000 415.053
29.52000 411.852
29.69000 406.054
29.86000 432.871
30.03000 458.609
30.20000 442.457
30.37000 429.827
30.54000 425.678
30.71000 432.091
30.88000 490.049
31.05000 698.930
31.22000 1907.799
31.39000 3510.225
31.56000 2054.446
31.73000 737.684
31.90000 479.325
32.07000 435.650
32.24000 416.771
32.41000 391.486
32.58000 378.456
32.75000 378.270
32.92000 506.982
33.09000 412.640
33.26000 358.567
33.43000 368.472
33.60000 328.046
33.77000 337.088
33.94000 336.269
34.11000 342.406
34.28000 336.423
34.45000 336.389
34.62000 337.231
34.79000 316.523
34.96000 312.154
35.13000 310.797
35.30000 306.088
35.47000 321.170
35.64000 308.121
35.81000 311.313
35.98000 295.300
36.15000 304.456
36.32000 286.011
36.49000 294.763
36.66000 293.848
36.83000 300.478
37.00000 310.375
37.17000 309.523
37.34000 297.949
37.51000 310.730
37.68000 304.763
37.85000 308.841
38.02000 304.323
38.19000 325.488
38.36000 382.737
38.53000 772.911
38.70000 1474.158
38.87000 968.285
39.04000 397.487
39.21000 299.167
39.38000 282.948
39.55000 270.255
39.72000 267.877
39.89000 262.643
40.06000 248.692
40.23000 265.692
40.40000 251.658
40.57000 257.333
40.74000 250.911
40.91000 246.548
41.08000 247.121
41.25000 231.567
41.42000 259.439
41.59000 235.179
41.76000 239.715
41.93000 256.832
42.10000 245.740
42.27000 230.182
42.44000 229.252
42.61000 237.215
42.78000 228.349
42.95000 235.854
43.12000 230.439
43.29000 232.633
43.46000 233.580
43.63000 218.613
43.80000 228.785
43.97000 215.357
44.14000 215.772
44.31000 225.376
44.48000 213.071
44.65000 219.442
44.82000 278.268
44.99000 358.572
45.16000 347.512
45.33000 300.374
45.50000 258.513
45.67000 246.509
45.84000 230.835
46.01000 216.458
46.18000 211.748
46.35000 209.906
46.52000 196.025
46.69000 195.468
46.86000 201.035
47.03000 193.408
47.20000 193.213
47.37000 189.183
47.54000 186.564
47.71000 187.115
47.88000 201.273
48.05000 191.479
48.22000 180.824
48.39000 189.562
48.56000 192.406
48.73000 182.878
48.90000 184.459
49.07000 166.788
49.24000 176.414
49.41000 168.504
49.58000 175.749
49.75000 184.239
49.92000 185.032
50.09000 173.480
50.26000 190.757
50.43000 206.576
50.60000 259.110
50.77000 260.438
50.94000 227.246
51.11000 196.766
51.28000 181.530
51.45000 172.335
51.62000 180.926
51.79000 168.510
51.96000 165.064
52.13000 156.017
52.30000 165.291
52.47000 163.966
52.64000 162.258
52.81000 163.382
52.98000 154.281
53.15000 160.332
53.32000 166.392
53.49000 169.282
53.66000 157.921
53.83000 164.186
54.00000 162.145
54.17000 151.664
54.34000 155.561
54.51000 146.476
54.68000 158.957
54.85000 157.769
55.02000 164.571
55.19000 172.007
55.36000 180.079
55.53000 219.282
55.70000 405.790
55.87000 753.404
56.04000 760.398
56.21000 403.314
56.38000 239.482
56.55000 193.332
56.72000 161.752
56.89000 152.088
57.06000 154.073
57.23000 148.698
57.40000 146.100
57.57000 148.768
57.74000 143.833
57.91000 153.542
58.08000 133.293
58.25000 138.782
58.42000 134.389
58.59000 127.911
58.76000 130.129
58.93000 129.703
59.10000 132.106
59.27000 126.347
59.44000 135.207
59.61000 128.385
59.78000 131.441
59.95000 128.751
60.12000 136.385
60.29000 129.006
60.46000 131.055
60.63000 125.729
60.80000 127.355
60.97000 141.405
61.14000 136.240
61.31000 139.496
61.48000 141.155
61.65000 279.661
61.82000 213.554
61.99000 143.415
62.16000 143.899
62.33000 150.559
62.50000 130.385
62.67000 147.216
62.84000 137.491
63.01000 149.953
63.18000 149.451
63.35000 139.964
63.52000 138.487
63.69000 151.875
63.86000 146.659
64.03000 150.410
64.20000 152.049
64.37000 166.466
64.54000 159.944
64.71000 170.226
64.88000 182.575
65.05000 200.121
65.22000 246.787
65.39000 327.947
65.56000 413.460
65.73000 768.543
65.90000 1221.245
66.07000 413.681
66.24000 345.090
66.41000 455.762
66.58000 333.774
66.75000 311.805
66.92000 333.002
67.09000 361.569
67.26000 372.673
67.43000 397.551
67.60000 430.792
67.77000 443.407
67.94000 486.690
68.11000 553.017
68.28000 618.173
68.45000 694.031
68.62000 1030.064
68.79000 1973.356
68.96000 13527.475
69.13000 59377.410
69.30000 34669.137
69.47000 8029.658
69.64000 1219.701
69.81000 823.333
69.98000 664.410
70.00000 648.370