File: XRD/24-09-2025 Dep 3/XY Data/BTO_Mapping_Theta2Theta_24-09-2025_001_24_-15-000_25-981.xy
20.00000 574.315
20.17000 556.196
20.34000 543.491
20.51000 562.468
20.68000 548.532
20.85000 551.498
21.02000 558.460
21.19000 561.737
21.36000 554.297
21.53000 527.237
21.70000 577.902
21.87000 647.212
22.04000 812.185
22.21000 719.828
22.38000 607.868
22.55000 533.532
22.72000 523.888
22.89000 527.072
23.06000 527.777
23.23000 524.433
23.40000 482.497
23.57000 489.347
23.74000 512.438
23.91000 500.809
24.08000 486.253
24.25000 494.632
24.42000 492.262
24.59000 486.297
24.76000 466.210
24.93000 495.186
25.10000 486.113
25.27000 481.319
25.44000 480.471
25.61000 470.364
25.78000 467.732
25.95000 471.173
26.12000 454.832
26.29000 462.016
26.46000 446.506
26.63000 453.730
26.80000 461.065
26.97000 457.200
27.14000 435.902
27.31000 445.622
27.48000 444.249
27.65000 425.974
27.82000 421.164
27.99000 413.097
28.16000 445.326
28.33000 449.107
28.50000 411.917
28.67000 427.148
28.84000 408.358
29.01000 413.168
29.18000 423.088
29.35000 427.706
29.52000 433.299
29.69000 404.665
29.86000 446.937
30.03000 472.040
30.20000 443.839
30.37000 444.634
30.54000 446.044
30.71000 445.110
30.88000 490.787
31.05000 716.675
31.22000 1932.309
31.39000 3594.170
31.56000 2098.661
31.73000 752.792
31.90000 498.714
32.07000 439.820
32.24000 400.357
32.41000 386.448
32.58000 376.605
32.75000 371.652
32.92000 546.845
33.09000 446.290
33.26000 361.970
33.43000 338.300
33.60000 339.407
33.77000 333.893
33.94000 343.379
34.11000 324.239
34.28000 333.813
34.45000 333.939
34.62000 318.279
34.79000 336.833
34.96000 317.360
35.13000 316.714
35.30000 300.766
35.47000 314.880
35.64000 307.327
35.81000 309.304
35.98000 302.824
36.15000 292.707
36.32000 297.414
36.49000 289.206
36.66000 309.219
36.83000 309.438
37.00000 318.022
37.17000 308.459
37.34000 293.617
37.51000 294.716
37.68000 301.042
37.85000 286.724
38.02000 305.068
38.19000 311.102
38.36000 386.725
38.53000 743.104
38.70000 1309.747
38.87000 828.334
39.04000 362.749
39.21000 288.487
39.38000 275.892
39.55000 276.088
39.72000 274.033
39.89000 258.983
40.06000 265.706
40.23000 269.184
40.40000 250.726
40.57000 247.232
40.74000 248.496
40.91000 249.670
41.08000 259.706
41.25000 244.736
41.42000 243.928
41.59000 241.359
41.76000 238.853
41.93000 262.291
42.10000 236.824
42.27000 242.391
42.44000 240.715
42.61000 231.711
42.78000 232.970
42.95000 241.727
43.12000 223.780
43.29000 223.158
43.46000 218.115
43.63000 217.471
43.80000 222.479
43.97000 212.905
44.14000 228.985
44.31000 217.798
44.48000 237.578
44.65000 237.910
44.82000 305.801
44.99000 413.886
45.16000 412.685
45.33000 332.118
45.50000 278.943
45.67000 251.609
45.84000 239.753
46.01000 209.700
46.18000 203.445
46.35000 220.321
46.52000 195.257
46.69000 183.442
46.86000 198.750
47.03000 196.213
47.20000 197.295
47.37000 192.690
47.54000 188.824
47.71000 195.715
47.88000 187.087
48.05000 175.135
48.22000 190.246
48.39000 172.613
48.56000 181.046
48.73000 178.974
48.90000 176.578
49.07000 167.745
49.24000 176.975
49.41000 178.377
49.58000 184.617
49.75000 184.089
49.92000 187.636
50.09000 179.495
50.26000 178.646
50.43000 216.899
50.60000 260.271
50.77000 275.697
50.94000 216.625
51.11000 196.248
51.28000 167.080
51.45000 179.274
51.62000 174.380
51.79000 162.481
51.96000 159.660
52.13000 164.012
52.30000 156.061
52.47000 156.779
52.64000 155.951
52.81000 157.113
52.98000 167.193
53.15000 161.485
53.32000 169.578
53.49000 164.967
53.66000 166.122
53.83000 151.913
54.00000 170.565
54.17000 166.666
54.34000 155.162
54.51000 150.771
54.68000 148.964
54.85000 149.434
55.02000 164.097
55.19000 181.042
55.36000 178.342
55.53000 209.930
55.70000 389.147
55.87000 757.611
56.04000 743.013
56.21000 399.563
56.38000 229.536
56.55000 177.618
56.72000 168.932
56.89000 158.898
57.06000 145.700
57.23000 155.612
57.40000 143.414
57.57000 144.662
57.74000 151.154
57.91000 149.780
58.08000 140.540
58.25000 136.429
58.42000 137.254
58.59000 144.127
58.76000 140.823
58.93000 138.911
59.10000 133.048
59.27000 137.135
59.44000 126.199
59.61000 142.948
59.78000 150.310
59.95000 125.503
60.12000 127.792
60.29000 124.525
60.46000 129.553
60.63000 132.729
60.80000 123.103
60.97000 128.646
61.14000 128.983
61.31000 139.195
61.48000 168.328
61.65000 297.001
61.82000 201.471
61.99000 151.575
62.16000 148.063
62.33000 139.327
62.50000 144.546
62.67000 147.275
62.84000 151.576
63.01000 138.716
63.18000 142.721
63.35000 145.466
63.52000 147.679
63.69000 148.392
63.86000 156.354
64.03000 167.035
64.20000 162.655
64.37000 165.325
64.54000 177.105
64.71000 182.027
64.88000 186.259
65.05000 208.582
65.22000 241.205
65.39000 321.728
65.56000 431.186
65.73000 859.402
65.90000 1369.538
66.07000 439.384
66.24000 332.836
66.41000 501.437
66.58000 381.458
66.75000 329.035
66.92000 360.962
67.09000 377.867
67.26000 401.294
67.43000 413.813
67.60000 463.040
67.77000 502.305
67.94000 520.591
68.11000 587.798
68.28000 651.570
68.45000 755.827
68.62000 1120.747
68.79000 2199.360
68.96000 15958.384
69.13000 68041.844
69.30000 39809.254
69.47000 9434.244
69.64000 1340.795
69.81000 888.628
69.98000 702.236
70.00000 695.162