File: XRD/24-09-2025 Dep 3/XY Data/BTO_Mapping_Theta2Theta_24-09-2025_001_06_9-135_4-067.xy
20.00000 559.074
20.17000 596.363
20.34000 556.212
20.51000 568.702
20.68000 575.203
20.85000 556.395
21.02000 547.037
21.19000 547.939
21.36000 558.743
21.53000 529.772
21.70000 560.275
21.87000 570.311
22.04000 608.761
22.21000 623.353
22.38000 570.827
22.55000 543.932
22.72000 515.520
22.89000 503.866
23.06000 505.572
23.23000 492.104
23.40000 492.101
23.57000 497.802
23.74000 499.117
23.91000 486.238
24.08000 490.898
24.25000 479.226
24.42000 495.008
24.59000 492.371
24.76000 479.154
24.93000 479.472
25.10000 467.725
25.27000 463.092
25.44000 464.511
25.61000 474.286
25.78000 467.805
25.95000 457.566
26.12000 457.285
26.29000 450.222
26.46000 448.253
26.63000 461.962
26.80000 428.000
26.97000 439.633
27.14000 441.690
27.31000 441.973
27.48000 449.077
27.65000 425.694
27.82000 430.582
27.99000 446.294
28.16000 427.683
28.33000 411.259
28.50000 434.924
28.67000 415.259
28.84000 423.229
29.01000 415.587
29.18000 406.359
29.35000 394.253
29.52000 405.413
29.69000 404.464
29.86000 424.279
30.03000 414.680
30.20000 425.080
30.37000 408.858
30.54000 419.850
30.71000 421.378
30.88000 442.969
31.05000 573.535
31.22000 1162.459
31.39000 2042.623
31.56000 1453.084
31.73000 646.124
31.90000 456.271
32.07000 421.729
32.24000 392.504
32.41000 383.483
32.58000 386.553
32.75000 374.165
32.92000 444.909
33.09000 402.968
33.26000 354.817
33.43000 349.440
33.60000 341.955
33.77000 348.757
33.94000 344.744
34.11000 338.862
34.28000 333.494
34.45000 337.364
34.62000 324.358
34.79000 328.170
34.96000 318.317
35.13000 312.698
35.30000 320.229
35.47000 305.454
35.64000 299.971
35.81000 319.347
35.98000 315.409
36.15000 294.004
36.32000 299.683
36.49000 306.083
36.66000 276.518
36.83000 307.235
37.00000 303.708
37.17000 319.090
37.34000 291.164
37.51000 285.458
37.68000 302.572
37.85000 282.419
38.02000 305.481
38.19000 308.232
38.36000 359.147
38.53000 688.360
38.70000 1515.742
38.87000 1138.363
39.04000 438.530
39.21000 306.798
39.38000 288.571
39.55000 277.082
39.72000 270.655
39.89000 268.809
40.06000 271.927
40.23000 262.846
40.40000 247.855
40.57000 251.301
40.74000 252.693
40.91000 247.887
41.08000 234.725
41.25000 238.833
41.42000 233.467
41.59000 238.574
41.76000 235.840
41.93000 245.734
42.10000 233.163
42.27000 243.344
42.44000 224.506
42.61000 234.476
42.78000 240.271
42.95000 235.641
43.12000 229.697
43.29000 233.615
43.46000 224.551
43.63000 225.935
43.80000 227.671
43.97000 215.659
44.14000 210.810
44.31000 229.248
44.48000 206.731
44.65000 224.445
44.82000 229.834
44.99000 258.501
45.16000 283.297
45.33000 258.374
45.50000 246.735
45.67000 231.418
45.84000 240.809
46.01000 215.770
46.18000 212.318
46.35000 200.102
46.52000 200.124
46.69000 199.928
46.86000 195.912
47.03000 200.037
47.20000 196.404
47.37000 174.178
47.54000 188.018
47.71000 181.379
47.88000 191.164
48.05000 180.573
48.22000 182.763
48.39000 192.270
48.56000 186.356
48.73000 174.228
48.90000 185.967
49.07000 179.273
49.24000 180.404
49.41000 167.915
49.58000 174.898
49.75000 169.843
49.92000 176.600
50.09000 172.395
50.26000 188.004
50.43000 186.798
50.60000 193.819
50.77000 216.503
50.94000 196.741
51.11000 190.160
51.28000 170.282
51.45000 164.073
51.62000 168.963
51.79000 156.233
51.96000 163.246
52.13000 167.411
52.30000 162.356
52.47000 161.006
52.64000 158.761
52.81000 158.880
52.98000 159.379
53.15000 168.012
53.32000 160.509
53.49000 157.200
53.66000 166.736
53.83000 153.246
54.00000 150.796
54.17000 150.647
54.34000 154.394
54.51000 151.681
54.68000 152.406
54.85000 155.189
55.02000 168.193
55.19000 163.476
55.36000 175.394
55.53000 216.418
55.70000 378.860
55.87000 744.488
56.04000 893.232
56.21000 560.433
56.38000 288.619
56.55000 190.712
56.72000 174.849
56.89000 150.211
57.06000 152.243
57.23000 146.187
57.40000 151.212
57.57000 135.191
57.74000 143.169
57.91000 145.307
58.08000 140.101
58.25000 137.599
58.42000 152.519
58.59000 137.288
58.76000 135.575
58.93000 135.393
59.10000 126.091
59.27000 133.208
59.44000 132.672
59.61000 130.875
59.78000 135.358
59.95000 127.367
60.12000 142.584
60.29000 125.592
60.46000 134.598
60.63000 130.899
60.80000 130.164
60.97000 122.328
61.14000 140.029
61.31000 134.815
61.48000 144.897
61.65000 244.517
61.82000 190.108
61.99000 138.542
62.16000 128.262
62.33000 135.099
62.50000 124.431
62.67000 131.673
62.84000 140.476
63.01000 142.570
63.18000 149.937
63.35000 143.672
63.52000 135.898
63.69000 156.519
63.86000 152.528
64.03000 155.359
64.20000 153.269
64.37000 152.713
64.54000 165.737
64.71000 180.101
64.88000 158.267
65.05000 184.030
65.22000 212.770
65.39000 252.052
65.56000 316.260
65.73000 610.430
65.90000 1033.609
66.07000 373.926
66.24000 308.028
66.41000 408.008
66.58000 334.719
66.75000 299.547
66.92000 314.105
67.09000 349.071
67.26000 361.651
67.43000 387.507
67.60000 414.505
67.77000 444.682
67.94000 482.163
68.11000 529.602
68.28000 578.565
68.45000 672.789
68.62000 947.409
68.79000 1727.438
68.96000 10985.656
69.13000 51261.863
69.30000 30079.104
69.47000 7244.658
69.64000 1146.026
69.81000 755.205
69.98000 646.360
70.00000 632.593