File: XRD/24-09-2025 Dep 3/XY Data/BTO_Mapping_Theta2Theta_24-09-2025_001_11_13-383_14-863.xy
20.00000 572.341
20.17000 547.486
20.34000 553.073
20.51000 566.233
20.68000 555.539
20.85000 561.175
21.02000 532.185
21.19000 535.692
21.36000 555.595
21.53000 557.862
21.70000 527.407
21.87000 549.995
22.04000 611.257
22.21000 605.450
22.38000 579.670
22.55000 548.090
22.72000 519.915
22.89000 505.620
23.06000 526.194
23.23000 496.952
23.40000 503.524
23.57000 499.395
23.74000 498.920
23.91000 498.056
24.08000 501.587
24.25000 480.292
24.42000 481.722
24.59000 476.183
24.76000 452.355
24.93000 443.693
25.10000 472.292
25.27000 474.290
25.44000 459.786
25.61000 465.360
25.78000 463.149
25.95000 449.484
26.12000 456.574
26.29000 465.688
26.46000 459.181
26.63000 443.425
26.80000 456.264
26.97000 440.478
27.14000 454.963
27.31000 448.498
27.48000 434.786
27.65000 423.166
27.82000 435.046
27.99000 447.181
28.16000 431.727
28.33000 431.593
28.50000 429.531
28.67000 422.980
28.84000 402.563
29.01000 417.189
29.18000 407.072
29.35000 405.537
29.52000 421.505
29.69000 413.934
29.86000 411.192
30.03000 422.483
30.20000 417.351
30.37000 414.485
30.54000 420.394
30.71000 421.272
30.88000 441.310
31.05000 522.569
31.22000 976.719
31.39000 1720.722
31.56000 1277.639
31.73000 620.110
31.90000 446.890
32.07000 412.952
32.24000 387.314
32.41000 377.358
32.58000 385.122
32.75000 361.424
32.92000 463.431
33.09000 407.202
33.26000 335.189
33.43000 339.850
33.60000 322.335
33.77000 345.431
33.94000 319.859
34.11000 336.717
34.28000 327.660
34.45000 326.645
34.62000 321.158
34.79000 323.207
34.96000 324.061
35.13000 313.001
35.30000 308.990
35.47000 300.808
35.64000 301.397
35.81000 303.852
35.98000 296.731
36.15000 298.862
36.32000 296.210
36.49000 306.706
36.66000 296.493
36.83000 301.186
37.00000 306.767
37.17000 302.909
37.34000 295.613
37.51000 303.928
37.68000 286.487
37.85000 297.677
38.02000 312.533
38.19000 308.948
38.36000 330.731
38.53000 637.012
38.70000 1427.643
38.87000 1174.169
39.04000 441.529
39.21000 298.023
39.38000 277.575
39.55000 272.386
39.72000 259.995
39.89000 278.891
40.06000 272.828
40.23000 255.586
40.40000 263.188
40.57000 254.555
40.74000 255.148
40.91000 254.781
41.08000 253.495
41.25000 245.143
41.42000 238.976
41.59000 235.899
41.76000 236.400
41.93000 233.458
42.10000 235.291
42.27000 242.827
42.44000 236.705
42.61000 234.010
42.78000 227.306
42.95000 224.370
43.12000 221.267
43.29000 230.094
43.46000 231.893
43.63000 225.675
43.80000 219.335
43.97000 214.482
44.14000 214.644
44.31000 232.291
44.48000 216.914
44.65000 230.415
44.82000 236.654
44.99000 244.025
45.16000 255.292
45.33000 263.912
45.50000 250.283
45.67000 241.713
45.84000 216.614
46.01000 212.260
46.18000 198.411
46.35000 201.972
46.52000 201.149
46.69000 200.363
46.86000 188.201
47.03000 194.032
47.20000 192.755
47.37000 189.835
47.54000 198.463
47.71000 188.512
47.88000 175.434
48.05000 183.893
48.22000 183.582
48.39000 169.763
48.56000 177.895
48.73000 172.205
48.90000 180.499
49.07000 181.398
49.24000 177.424
49.41000 177.849
49.58000 169.431
49.75000 187.045
49.92000 172.045
50.09000 162.252
50.26000 172.860
50.43000 181.579
50.60000 195.269
50.77000 186.145
50.94000 189.141
51.11000 180.098
51.28000 176.666
51.45000 169.513
51.62000 162.077
51.79000 166.323
51.96000 161.717
52.13000 168.357
52.30000 157.977
52.47000 161.367
52.64000 152.847
52.81000 161.071
52.98000 162.067
53.15000 155.722
53.32000 151.323
53.49000 176.257
53.66000 159.457
53.83000 151.536
54.00000 150.763
54.17000 152.300
54.34000 150.733
54.51000 154.172
54.68000 160.665
54.85000 167.658
55.02000 162.474
55.19000 168.468
55.36000 172.167
55.53000 206.567
55.70000 346.197
55.87000 713.659
56.04000 862.916
56.21000 601.936
56.38000 288.488
56.55000 199.798
56.72000 162.539
56.89000 144.088
57.06000 150.466
57.23000 149.410
57.40000 156.863
57.57000 142.764
57.74000 138.927
57.91000 139.924
58.08000 139.662
58.25000 148.037
58.42000 141.642
58.59000 141.975
58.76000 136.725
58.93000 135.578
59.10000 130.557
59.27000 124.680
59.44000 131.747
59.61000 124.894
59.78000 137.612
59.95000 141.282
60.12000 138.235
60.29000 131.238
60.46000 143.558
60.63000 122.368
60.80000 123.748
60.97000 128.824
61.14000 123.804
61.31000 141.385
61.48000 152.703
61.65000 248.927
61.82000 183.565
61.99000 144.784
62.16000 139.854
62.33000 143.026
62.50000 136.684
62.67000 145.510
62.84000 141.701
63.01000 136.263
63.18000 140.821
63.35000 144.500
63.52000 145.082
63.69000 150.018
63.86000 149.082
64.03000 147.897
64.20000 157.546
64.37000 156.955
64.54000 158.459
64.71000 178.732
64.88000 173.244
65.05000 193.073
65.22000 213.185
65.39000 239.042
65.56000 299.180
65.73000 566.149
65.90000 1011.756
66.07000 407.181
66.24000 311.030
66.41000 418.499
66.58000 334.754
66.75000 301.337
66.92000 315.892
67.09000 335.936
67.26000 357.558
67.43000 390.026
67.60000 416.044
67.77000 444.592
67.94000 473.964
68.11000 523.456
68.28000 581.128
68.45000 672.292
68.62000 928.859
68.79000 1717.352
68.96000 10082.977
69.13000 49915.727
69.30000 29925.156
69.47000 7497.369
69.64000 1165.541
69.81000 758.604
69.98000 645.342
70.00000 649.500