File: XRD/24-09-2025 Dep 3/XY Data/BTO_Mapping_Theta2Theta_24-09-2025_001_14_3-090_9-511.xy
20.00000 556.836
20.17000 573.625
20.34000 544.098
20.51000 540.283
20.68000 549.454
20.85000 563.185
21.02000 558.746
21.19000 557.647
21.36000 536.905
21.53000 521.137
21.70000 549.117
21.87000 564.708
22.04000 650.005
22.21000 647.810
22.38000 589.264
22.55000 561.672
22.72000 516.609
22.89000 515.310
23.06000 523.480
23.23000 503.967
23.40000 501.051
23.57000 511.654
23.74000 494.189
23.91000 489.932
24.08000 485.178
24.25000 500.272
24.42000 474.010
24.59000 494.710
24.76000 469.958
24.93000 491.585
25.10000 477.464
25.27000 479.832
25.44000 462.253
25.61000 454.996
25.78000 474.150
25.95000 477.732
26.12000 448.416
26.29000 467.401
26.46000 472.917
26.63000 435.323
26.80000 429.200
26.97000 420.763
27.14000 433.705
27.31000 424.797
27.48000 454.850
27.65000 433.317
27.82000 432.476
27.99000 427.251
28.16000 424.951
28.33000 443.451
28.50000 425.364
28.67000 418.369
28.84000 419.626
29.01000 412.557
29.18000 419.512
29.35000 421.449
29.52000 396.250
29.69000 402.455
29.86000 413.993
30.03000 445.488
30.20000 419.600
30.37000 432.229
30.54000 422.353
30.71000 434.017
30.88000 452.446
31.05000 592.633
31.22000 1425.380
31.39000 2669.455
31.56000 1704.354
31.73000 719.994
31.90000 465.579
32.07000 406.728
32.24000 395.585
32.41000 390.365
32.58000 384.308
32.75000 367.951
32.92000 475.074
33.09000 406.599
33.26000 360.788
33.43000 332.401
33.60000 335.245
33.77000 347.705
33.94000 339.823
34.11000 336.876
34.28000 347.827
34.45000 348.485
34.62000 313.689
34.79000 316.315
34.96000 311.699
35.13000 330.947
35.30000 313.087
35.47000 311.745
35.64000 309.529
35.81000 299.971
35.98000 308.429
36.15000 305.681
36.32000 284.417
36.49000 278.992
36.66000 301.245
36.83000 301.785
37.00000 329.367
37.17000 313.188
37.34000 299.337
37.51000 287.156
37.68000 298.856
37.85000 274.897
38.02000 304.451
38.19000 303.746
38.36000 358.760
38.53000 724.191
38.70000 1524.738
38.87000 1128.743
39.04000 433.085
39.21000 298.225
39.38000 277.441
39.55000 275.859
39.72000 281.101
39.89000 278.043
40.06000 269.881
40.23000 250.820
40.40000 251.035
40.57000 244.697
40.74000 251.307
40.91000 248.542
41.08000 240.145
41.25000 254.655
41.42000 252.284
41.59000 246.152
41.76000 239.930
41.93000 239.602
42.10000 227.334
42.27000 232.712
42.44000 220.384
42.61000 229.136
42.78000 230.854
42.95000 223.265
43.12000 223.329
43.29000 232.358
43.46000 224.088
43.63000 230.784
43.80000 217.516
43.97000 220.221
44.14000 213.119
44.31000 225.884
44.48000 219.297
44.65000 215.534
44.82000 247.921
44.99000 303.026
45.16000 311.116
45.33000 274.981
45.50000 250.062
45.67000 248.125
45.84000 235.348
46.01000 214.231
46.18000 210.670
46.35000 194.805
46.52000 218.141
46.69000 210.517
46.86000 205.119
47.03000 187.461
47.20000 200.027
47.37000 187.915
47.54000 186.050
47.71000 192.391
47.88000 181.942
48.05000 190.546
48.22000 180.620
48.39000 182.039
48.56000 181.173
48.73000 174.694
48.90000 175.388
49.07000 175.888
49.24000 184.849
49.41000 174.325
49.58000 174.618
49.75000 189.614
49.92000 174.710
50.09000 169.911
50.26000 179.544
50.43000 191.746
50.60000 214.791
50.77000 221.040
50.94000 207.844
51.11000 188.830
51.28000 177.665
51.45000 177.677
51.62000 172.126
51.79000 171.185
51.96000 170.365
52.13000 166.729
52.30000 159.370
52.47000 161.790
52.64000 168.517
52.81000 163.067
52.98000 157.777
53.15000 160.732
53.32000 155.707
53.49000 150.913
53.66000 168.027
53.83000 149.679
54.00000 147.474
54.17000 166.065
54.34000 159.475
54.51000 146.612
54.68000 154.754
54.85000 136.885
55.02000 154.366
55.19000 162.214
55.36000 166.328
55.53000 231.563
55.70000 385.841
55.87000 774.873
56.04000 850.137
56.21000 507.511
56.38000 262.432
56.55000 192.962
56.72000 175.261
56.89000 157.617
57.06000 147.143
57.23000 143.814
57.40000 155.810
57.57000 146.789
57.74000 145.682
57.91000 130.692
58.08000 140.984
58.25000 141.701
58.42000 140.486
58.59000 128.477
58.76000 138.861
58.93000 143.977
59.10000 131.758
59.27000 130.844
59.44000 132.423
59.61000 123.565
59.78000 139.106
59.95000 132.643
60.12000 143.844
60.29000 132.712
60.46000 130.756
60.63000 134.655
60.80000 128.847
60.97000 142.712
61.14000 132.129
61.31000 136.254
61.48000 147.657
61.65000 267.079
61.82000 194.567
61.99000 144.021
62.16000 142.455
62.33000 133.601
62.50000 139.203
62.67000 148.166
62.84000 143.351
63.01000 142.947
63.18000 135.787
63.35000 147.311
63.52000 144.592
63.69000 152.066
63.86000 148.182
64.03000 145.295
64.20000 159.082
64.37000 169.369
64.54000 151.856
64.71000 171.243
64.88000 183.839
65.05000 190.108
65.22000 230.375
65.39000 274.165
65.56000 358.495
65.73000 661.716
65.90000 1102.017
66.07000 382.516
66.24000 293.480
66.41000 427.410
66.58000 322.703
66.75000 313.195
66.92000 335.922
67.09000 342.886
67.26000 370.798
67.43000 379.814
67.60000 429.928
67.77000 468.656
67.94000 487.933
68.11000 536.869
68.28000 561.681
68.45000 680.854
68.62000 953.311
68.79000 1825.144
68.96000 11687.186
69.13000 53812.766
69.30000 31743.131
69.47000 7682.946
69.64000 1159.231
69.81000 780.952
69.98000 643.187
70.00000 639.095