File: XRD/24-09-2025 Dep 3/XY Data/BTO_Mapping_Theta2Theta_24-09-2025_001_42_-5-000_-8-660.xy
20.00000 573.678
20.17000 538.096
20.34000 556.276
20.51000 550.756
20.68000 538.513
20.85000 549.613
21.02000 536.249
21.19000 558.095
21.36000 546.239
21.53000 568.390
21.70000 569.645
21.87000 622.060
22.04000 723.261
22.21000 664.098
22.38000 577.794
22.55000 546.894
22.72000 518.320
22.89000 539.835
23.06000 505.917
23.23000 509.793
23.40000 519.556
23.57000 499.469
23.74000 494.709
23.91000 493.383
24.08000 491.578
24.25000 501.391
24.42000 461.628
24.59000 488.076
24.76000 490.315
24.93000 489.202
25.10000 490.924
25.27000 491.134
25.44000 461.342
25.61000 464.952
25.78000 457.316
25.95000 456.034
26.12000 452.957
26.29000 450.616
26.46000 440.931
26.63000 449.883
26.80000 450.175
26.97000 432.179
27.14000 447.307
27.31000 432.832
27.48000 442.715
27.65000 439.266
27.82000 425.191
27.99000 438.878
28.16000 450.067
28.33000 444.836
28.50000 432.111
28.67000 424.697
28.84000 422.665
29.01000 417.502
29.18000 419.473
29.35000 414.874
29.52000 404.327
29.69000 428.319
29.86000 453.357
30.03000 450.251
30.20000 439.111
30.37000 433.647
30.54000 446.559
30.71000 453.286
30.88000 490.116
31.05000 740.591
31.22000 2003.587
31.39000 3504.261
31.56000 2013.008
31.73000 727.603
31.90000 481.114
32.07000 437.320
32.24000 419.646
32.41000 394.367
32.58000 388.242
32.75000 383.527
32.92000 458.444
33.09000 390.014
33.26000 346.198
33.43000 346.111
33.60000 343.872
33.77000 333.843
33.94000 337.938
34.11000 330.931
34.28000 330.762
34.45000 340.624
34.62000 329.421
34.79000 343.327
34.96000 318.313
35.13000 322.519
35.30000 297.149
35.47000 323.911
35.64000 317.524
35.81000 311.118
35.98000 310.125
36.15000 294.431
36.32000 288.826
36.49000 289.271
36.66000 303.030
36.83000 304.285
37.00000 313.073
37.17000 292.882
37.34000 301.525
37.51000 308.226
37.68000 298.249
37.85000 286.788
38.02000 297.298
38.19000 328.982
38.36000 402.081
38.53000 807.320
38.70000 1490.372
38.87000 947.577
39.04000 396.293
39.21000 312.568
39.38000 284.464
39.55000 271.160
39.72000 288.850
39.89000 266.422
40.06000 264.888
40.23000 258.292
40.40000 255.770
40.57000 254.129
40.74000 257.271
40.91000 255.255
41.08000 247.235
41.25000 240.863
41.42000 253.439
41.59000 237.374
41.76000 232.396
41.93000 240.478
42.10000 236.489
42.27000 231.550
42.44000 221.520
42.61000 238.456
42.78000 229.981
42.95000 222.533
43.12000 207.313
43.29000 238.938
43.46000 219.288
43.63000 212.378
43.80000 218.505
43.97000 219.204
44.14000 221.767
44.31000 225.260
44.48000 226.184
44.65000 228.348
44.82000 275.201
44.99000 351.345
45.16000 361.008
45.33000 293.300
45.50000 260.388
45.67000 254.423
45.84000 233.360
46.01000 218.478
46.18000 218.183
46.35000 216.149
46.52000 199.384
46.69000 211.757
46.86000 204.797
47.03000 189.958
47.20000 193.124
47.37000 192.301
47.54000 179.946
47.71000 175.474
47.88000 183.773
48.05000 188.764
48.22000 189.561
48.39000 178.146
48.56000 183.289
48.73000 176.235
48.90000 178.746
49.07000 181.816
49.24000 189.055
49.41000 167.080
49.58000 163.926
49.75000 182.965
49.92000 190.805
50.09000 176.544
50.26000 180.057
50.43000 201.840
50.60000 254.569
50.77000 250.680
50.94000 209.637
51.11000 182.664
51.28000 189.138
51.45000 173.595
51.62000 175.133
51.79000 176.543
51.96000 164.316
52.13000 155.722
52.30000 157.278
52.47000 155.009
52.64000 163.958
52.81000 153.792
52.98000 159.117
53.15000 165.406
53.32000 166.866
53.49000 164.315
53.66000 162.445
53.83000 159.295
54.00000 152.826
54.17000 159.261
54.34000 165.471
54.51000 163.591
54.68000 164.456
54.85000 160.562
55.02000 163.475
55.19000 164.030
55.36000 183.099
55.53000 236.505
55.70000 408.831
55.87000 800.833
56.04000 746.482
56.21000 412.169
56.38000 233.244
56.55000 181.953
56.72000 170.411
56.89000 146.772
57.06000 150.317
57.23000 146.211
57.40000 142.406
57.57000 140.771
57.74000 136.349
57.91000 143.514
58.08000 144.347
58.25000 142.446
58.42000 140.754
58.59000 132.394
58.76000 145.157
58.93000 138.738
59.10000 127.830
59.27000 132.698
59.44000 128.601
59.61000 134.523
59.78000 140.693
59.95000 137.474
60.12000 123.773
60.29000 131.789
60.46000 135.996
60.63000 133.442
60.80000 127.665
60.97000 134.527
61.14000 129.354
61.31000 128.278
61.48000 135.085
61.65000 270.940
61.82000 199.944
61.99000 142.458
62.16000 141.194
62.33000 144.462
62.50000 142.380
62.67000 127.618
62.84000 134.238
63.01000 150.219
63.18000 143.511
63.35000 144.207
63.52000 153.467
63.69000 150.093
63.86000 152.590
64.03000 150.308
64.20000 160.142
64.37000 154.118
64.54000 159.987
64.71000 170.031
64.88000 171.486
65.05000 195.799
65.22000 254.496
65.39000 329.064
65.56000 420.589
65.73000 766.124
65.90000 1184.789
66.07000 396.658
66.24000 314.267
66.41000 460.388
66.58000 354.797
66.75000 315.409
66.92000 315.611
67.09000 352.061
67.26000 363.051
67.43000 395.826
67.60000 413.502
67.77000 462.271
67.94000 507.199
68.11000 569.234
68.28000 620.638
68.45000 710.679
68.62000 1044.293
68.79000 1986.040
68.96000 13773.424
69.13000 58942.074
69.30000 33992.613
69.47000 7877.059
69.64000 1198.271
69.81000 814.521
69.98000 658.799
70.00000 655.782