File: XRD/24-09-2025 Dep 3/XY Data/BTO_Mapping_Theta2Theta_24-09-2025_001_39_-16-180_-11-756.xy
20.00000 590.070
20.17000 565.383
20.34000 563.348
20.51000 553.719
20.68000 542.213
20.85000 554.808
21.02000 555.760
21.19000 553.408
21.36000 543.205
21.53000 574.356
21.70000 583.387
21.87000 709.430
22.04000 902.829
22.21000 709.945
22.38000 594.944
22.55000 535.446
22.72000 536.101
22.89000 522.822
23.06000 489.137
23.23000 499.851
23.40000 519.057
23.57000 498.748
23.74000 502.310
23.91000 516.423
24.08000 488.083
24.25000 479.222
24.42000 485.700
24.59000 482.683
24.76000 482.523
24.93000 498.821
25.10000 453.991
25.27000 450.054
25.44000 471.492
25.61000 455.040
25.78000 470.635
25.95000 468.359
26.12000 443.342
26.29000 456.144
26.46000 451.213
26.63000 429.249
26.80000 467.516
26.97000 424.125
27.14000 436.604
27.31000 431.548
27.48000 448.290
27.65000 437.385
27.82000 458.592
27.99000 456.530
28.16000 411.330
28.33000 432.349
28.50000 417.761
28.67000 440.934
28.84000 414.181
29.01000 417.525
29.18000 395.838
29.35000 421.819
29.52000 401.439
29.69000 430.440
29.86000 444.149
30.03000 453.318
30.20000 441.843
30.37000 425.106
30.54000 436.084
30.71000 460.110
30.88000 499.583
31.05000 822.811
31.22000 2219.027
31.39000 3595.046
31.56000 1807.203
31.73000 672.742
31.90000 483.249
32.07000 406.630
32.24000 406.177
32.41000 390.096
32.58000 377.312
32.75000 369.915
32.92000 576.962
33.09000 436.802
33.26000 372.257
33.43000 348.275
33.60000 343.747
33.77000 329.601
33.94000 333.099
34.11000 355.856
34.28000 341.401
34.45000 327.150
34.62000 334.681
34.79000 337.308
34.96000 324.598
35.13000 311.411
35.30000 313.416
35.47000 310.200
35.64000 313.931
35.81000 311.979
35.98000 301.080
36.15000 297.208
36.32000 291.822
36.49000 302.568
36.66000 289.839
36.83000 302.198
37.00000 304.613
37.17000 293.480
37.34000 301.473
37.51000 293.708
37.68000 294.717
37.85000 301.862
38.02000 291.274
38.19000 318.169
38.36000 414.085
38.53000 822.137
38.70000 1246.799
38.87000 731.578
39.04000 341.296
39.21000 289.089
39.38000 276.962
39.55000 274.433
39.72000 277.951
39.89000 265.547
40.06000 259.609
40.23000 245.423
40.40000 263.438
40.57000 273.568
40.74000 263.772
40.91000 247.237
41.08000 231.427
41.25000 242.427
41.42000 243.653
41.59000 231.577
41.76000 242.827
41.93000 258.501
42.10000 229.431
42.27000 233.898
42.44000 228.603
42.61000 233.852
42.78000 227.453
42.95000 233.528
43.12000 238.773
43.29000 226.061
43.46000 217.576
43.63000 233.044
43.80000 219.661
43.97000 222.685
44.14000 219.934
44.31000 236.415
44.48000 239.169
44.65000 263.406
44.82000 353.929
44.99000 506.793
45.16000 431.999
45.33000 328.967
45.50000 286.860
45.67000 252.809
45.84000 226.486
46.01000 228.474
46.18000 215.031
46.35000 202.825
46.52000 207.406
46.69000 217.325
46.86000 186.657
47.03000 194.641
47.20000 187.532
47.37000 191.288
47.54000 184.216
47.71000 190.463
47.88000 191.834
48.05000 186.276
48.22000 184.355
48.39000 190.963
48.56000 174.282
48.73000 189.988
48.90000 179.886
49.07000 177.521
49.24000 175.904
49.41000 183.437
49.58000 187.300
49.75000 186.815
49.92000 181.891
50.09000 189.907
50.26000 187.724
50.43000 215.284
50.60000 275.291
50.77000 275.263
50.94000 220.676
51.11000 197.913
51.28000 172.816
51.45000 167.785
51.62000 163.609
51.79000 153.172
51.96000 163.722
52.13000 163.540
52.30000 165.019
52.47000 163.749
52.64000 157.747
52.81000 168.105
52.98000 170.139
53.15000 157.512
53.32000 178.504
53.49000 160.057
53.66000 169.865
53.83000 155.973
54.00000 155.000
54.17000 149.218
54.34000 163.634
54.51000 157.804
54.68000 157.436
54.85000 143.854
55.02000 160.297
55.19000 161.214
55.36000 193.686
55.53000 253.829
55.70000 479.478
55.87000 823.178
56.04000 714.446
56.21000 376.745
56.38000 232.914
56.55000 174.704
56.72000 157.074
56.89000 152.089
57.06000 153.407
57.23000 150.170
57.40000 151.865
57.57000 148.158
57.74000 144.649
57.91000 139.779
58.08000 142.333
58.25000 144.800
58.42000 139.720
58.59000 140.615
58.76000 135.098
58.93000 129.217
59.10000 129.390
59.27000 139.907
59.44000 137.559
59.61000 124.321
59.78000 135.565
59.95000 133.847
60.12000 130.912
60.29000 135.994
60.46000 136.387
60.63000 144.971
60.80000 137.946
60.97000 132.513
61.14000 150.591
61.31000 127.496
61.48000 147.772
61.65000 291.924
61.82000 211.284
61.99000 144.964
62.16000 134.069
62.33000 148.073
62.50000 142.521
62.67000 142.462
62.84000 131.644
63.01000 144.327
63.18000 145.744
63.35000 147.722
63.52000 144.186
63.69000 154.033
63.86000 154.099
64.03000 162.067
64.20000 161.177
64.37000 157.640
64.54000 165.910
64.71000 167.237
64.88000 192.316
65.05000 207.122
65.22000 264.263
65.39000 357.782
65.56000 438.054
65.73000 821.027
65.90000 1359.010
66.07000 436.243
66.24000 340.192
66.41000 534.770
66.58000 380.631
66.75000 338.724
66.92000 345.165
67.09000 377.987
67.26000 394.449
67.43000 416.129
67.60000 482.451
67.77000 495.163
67.94000 548.932
68.11000 604.775
68.28000 662.170
68.45000 772.475
68.62000 1182.921
68.79000 2278.332
68.96000 17935.359
69.13000 71617.734
69.30000 41527.859
69.47000 9392.229
69.64000 1357.762
69.81000 895.226
69.98000 695.851
70.00000 689.629