File: XRD/24-09-2025 Dep 3/XY Data/BTO_Mapping_Theta2Theta_24-09-2025_001_01_0-000_0-000.xy
20.00000 548.890
20.17000 541.652
20.34000 541.904
20.51000 549.046
20.68000 546.126
20.85000 538.419
21.02000 531.022
21.19000 540.682
21.36000 544.624
21.53000 537.858
21.70000 541.722
21.87000 604.288
22.04000 662.447
22.21000 627.168
22.38000 588.146
22.55000 542.142
22.72000 502.136
22.89000 514.398
23.06000 505.094
23.23000 507.255
23.40000 493.813
23.57000 497.956
23.74000 494.494
23.91000 512.294
24.08000 489.300
24.25000 490.505
24.42000 490.505
24.59000 469.709
24.76000 466.294
24.93000 453.025
25.10000 495.237
25.27000 458.381
25.44000 456.458
25.61000 457.403
25.78000 462.658
25.95000 459.667
26.12000 456.439
26.29000 441.674
26.46000 454.229
26.63000 429.556
26.80000 453.178
26.97000 432.862
27.14000 447.162
27.31000 461.539
27.48000 435.331
27.65000 421.673
27.82000 429.725
27.99000 433.346
28.16000 443.919
28.33000 415.132
28.50000 420.027
28.67000 403.914
28.84000 435.150
29.01000 408.585
29.18000 403.664
29.35000 410.732
29.52000 398.339
29.69000 399.093
29.86000 403.961
30.03000 438.309
30.20000 438.161
30.37000 428.091
30.54000 431.080
30.71000 443.262
30.88000 469.472
31.05000 671.276
31.22000 1733.628
31.39000 3151.556
31.56000 1904.273
31.73000 711.099
31.90000 479.480
32.07000 425.384
32.24000 411.434
32.41000 385.861
32.58000 378.944
32.75000 368.444
32.92000 485.682
33.09000 412.252
33.26000 343.834
33.43000 354.751
33.60000 342.667
33.77000 331.456
33.94000 323.338
34.11000 342.753
34.28000 335.681
34.45000 337.740
34.62000 326.700
34.79000 340.308
34.96000 323.360
35.13000 315.627
35.30000 322.933
35.47000 317.834
35.64000 314.031
35.81000 312.654
35.98000 302.867
36.15000 290.148
36.32000 295.944
36.49000 287.381
36.66000 304.414
36.83000 311.713
37.00000 311.680
37.17000 312.952
37.34000 299.877
37.51000 307.119
37.68000 283.843
37.85000 298.198
38.02000 279.720
38.19000 314.006
38.36000 386.751
38.53000 781.004
38.70000 1519.917
38.87000 1015.624
39.04000 416.818
39.21000 304.335
39.38000 271.961
39.55000 271.662
39.72000 260.708
39.89000 284.761
40.06000 262.175
40.23000 253.452
40.40000 260.744
40.57000 260.817
40.74000 250.129
40.91000 246.151
41.08000 243.538
41.25000 234.897
41.42000 236.758
41.59000 233.507
41.76000 237.638
41.93000 241.543
42.10000 234.341
42.27000 233.607
42.44000 232.112
42.61000 223.010
42.78000 227.105
42.95000 228.246
43.12000 233.047
43.29000 222.305
43.46000 216.625
43.63000 220.066
43.80000 224.596
43.97000 213.456
44.14000 221.359
44.31000 221.344
44.48000 218.178
44.65000 227.201
44.82000 240.348
44.99000 321.374
45.16000 329.099
45.33000 291.563
45.50000 274.210
45.67000 252.410
45.84000 245.367
46.01000 232.344
46.18000 217.573
46.35000 221.886
46.52000 204.964
46.69000 200.797
46.86000 202.020
47.03000 198.166
47.20000 183.464
47.37000 191.517
47.54000 199.606
47.71000 187.755
47.88000 178.595
48.05000 183.359
48.22000 183.203
48.39000 173.899
48.56000 176.765
48.73000 179.261
48.90000 174.559
49.07000 175.774
49.24000 191.392
49.41000 171.741
49.58000 165.777
49.75000 181.952
49.92000 182.043
50.09000 171.934
50.26000 186.553
50.43000 191.958
50.60000 222.447
50.77000 240.309
50.94000 214.650
51.11000 181.018
51.28000 187.067
51.45000 167.113
51.62000 158.719
51.79000 167.703
51.96000 162.482
52.13000 161.992
52.30000 163.427
52.47000 162.925
52.64000 172.303
52.81000 158.827
52.98000 149.222
53.15000 154.473
53.32000 166.298
53.49000 177.000
53.66000 163.389
53.83000 151.172
54.00000 159.412
54.17000 148.341
54.34000 163.992
54.51000 154.844
54.68000 152.465
54.85000 160.956
55.02000 159.910
55.19000 165.421
55.36000 183.052
55.53000 226.965
55.70000 392.849
55.87000 774.983
56.04000 790.835
56.21000 485.302
56.38000 245.065
56.55000 185.946
56.72000 175.996
56.89000 161.117
57.06000 152.323
57.23000 151.896
57.40000 151.264
57.57000 138.350
57.74000 145.405
57.91000 149.553
58.08000 150.280
58.25000 143.668
58.42000 127.060
58.59000 131.242
58.76000 134.708
58.93000 131.804
59.10000 131.274
59.27000 137.168
59.44000 127.194
59.61000 133.731
59.78000 141.672
59.95000 127.483
60.12000 129.327
60.29000 132.993
60.46000 124.780
60.63000 129.414
60.80000 136.817
60.97000 141.572
61.14000 130.705
61.31000 142.618
61.48000 150.600
61.65000 245.569
61.82000 201.400
61.99000 139.381
62.16000 135.675
62.33000 142.439
62.50000 136.769
62.67000 140.143
62.84000 141.005
63.01000 147.283
63.18000 135.188
63.35000 155.307
63.52000 141.098
63.69000 143.878
63.86000 156.361
64.03000 156.017
64.20000 154.939
64.37000 162.442
64.54000 167.376
64.71000 176.443
64.88000 189.067
65.05000 196.370
65.22000 220.587
65.39000 306.789
65.56000 377.878
65.73000 705.982
65.90000 1128.607
66.07000 384.280
66.24000 331.398
66.41000 454.843
66.58000 343.313
66.75000 311.448
66.92000 330.134
67.09000 347.816
67.26000 380.699
67.43000 405.718
67.60000 424.765
67.77000 449.097
67.94000 477.563
68.11000 531.189
68.28000 605.590
68.45000 701.370
68.62000 1006.794
68.79000 1882.332
68.96000 13255.433
69.13000 55774.535
69.30000 32032.258
69.47000 7243.256
69.64000 1156.367
69.81000 804.659
69.98000 665.218
70.00000 644.619