File: XRD/24-09-2025 Dep 3/XY Data/BTO_Mapping_Theta2Theta_24-09-2025_001_43_-10-000_-17-321.xy
20.00000 581.157
20.17000 564.119
20.34000 556.802
20.51000 543.264
20.68000 579.968
20.85000 550.071
21.02000 545.716
21.19000 557.184
21.36000 534.517
21.53000 559.297
21.70000 563.826
21.87000 640.249
22.04000 761.030
22.21000 656.469
22.38000 585.381
22.55000 537.900
22.72000 520.083
22.89000 510.340
23.06000 515.066
23.23000 493.786
23.40000 516.029
23.57000 517.922
23.74000 510.156
23.91000 492.462
24.08000 493.091
24.25000 490.547
24.42000 476.661
24.59000 478.048
24.76000 475.048
24.93000 478.049
25.10000 481.125
25.27000 455.549
25.44000 463.688
25.61000 485.112
25.78000 473.740
25.95000 478.902
26.12000 467.143
26.29000 452.226
26.46000 461.528
26.63000 455.264
26.80000 439.331
26.97000 457.972
27.14000 452.345
27.31000 433.101
27.48000 439.516
27.65000 429.399
27.82000 426.092
27.99000 431.956
28.16000 433.440
28.33000 434.909
28.50000 426.702
28.67000 423.817
28.84000 410.404
29.01000 401.734
29.18000 424.942
29.35000 430.747
29.52000 407.009
29.69000 403.492
29.86000 429.494
30.03000 466.561
30.20000 464.726
30.37000 421.616
30.54000 434.684
30.71000 469.045
30.88000 492.863
31.05000 770.512
31.22000 2114.679
31.39000 3705.196
31.56000 1996.067
31.73000 735.438
31.90000 453.046
32.07000 412.993
32.24000 411.454
32.41000 394.030
32.58000 379.053
32.75000 368.314
32.92000 523.543
33.09000 418.031
33.26000 361.117
33.43000 349.180
33.60000 338.551
33.77000 337.870
33.94000 328.911
34.11000 329.504
34.28000 328.492
34.45000 327.954
34.62000 332.328
34.79000 310.306
34.96000 313.357
35.13000 319.541
35.30000 315.781
35.47000 316.706
35.64000 312.743
35.81000 304.180
35.98000 314.495
36.15000 307.151
36.32000 267.891
36.49000 318.999
36.66000 299.087
36.83000 288.540
37.00000 318.080
37.17000 299.831
37.34000 311.181
37.51000 303.159
37.68000 296.223
37.85000 288.251
38.02000 292.542
38.19000 308.508
38.36000 410.962
38.53000 847.318
38.70000 1424.658
38.87000 874.222
39.04000 392.676
39.21000 299.376
39.38000 281.249
39.55000 271.777
39.72000 266.046
39.89000 260.189
40.06000 247.650
40.23000 259.914
40.40000 271.121
40.57000 255.787
40.74000 251.549
40.91000 245.142
41.08000 258.008
41.25000 243.516
41.42000 257.074
41.59000 229.515
41.76000 234.515
41.93000 241.845
42.10000 231.014
42.27000 234.562
42.44000 228.678
42.61000 246.823
42.78000 233.797
42.95000 229.167
43.12000 239.835
43.29000 238.618
43.46000 233.190
43.63000 233.628
43.80000 231.730
43.97000 222.092
44.14000 214.550
44.31000 232.208
44.48000 226.642
44.65000 234.273
44.82000 298.008
44.99000 389.362
45.16000 386.222
45.33000 298.562
45.50000 267.088
45.67000 252.481
45.84000 237.646
46.01000 219.684
46.18000 197.149
46.35000 197.277
46.52000 207.669
46.69000 199.328
46.86000 193.062
47.03000 204.094
47.20000 186.041
47.37000 190.929
47.54000 193.705
47.71000 186.416
47.88000 187.392
48.05000 189.613
48.22000 183.307
48.39000 182.155
48.56000 172.840
48.73000 180.805
48.90000 179.087
49.07000 175.675
49.24000 182.726
49.41000 178.074
49.58000 181.741
49.75000 169.413
49.92000 187.745
50.09000 181.300
50.26000 171.825
50.43000 201.690
50.60000 270.651
50.77000 271.894
50.94000 217.115
51.11000 185.864
51.28000 166.474
51.45000 172.578
51.62000 163.173
51.79000 159.903
51.96000 163.896
52.13000 155.710
52.30000 163.974
52.47000 169.743
52.64000 165.265
52.81000 157.213
52.98000 162.871
53.15000 160.674
53.32000 166.149
53.49000 168.872
53.66000 158.231
53.83000 156.802
54.00000 158.851
54.17000 153.431
54.34000 159.999
54.51000 167.242
54.68000 156.172
54.85000 149.464
55.02000 156.925
55.19000 170.087
55.36000 189.462
55.53000 234.413
55.70000 450.307
55.87000 769.666
56.04000 739.000
56.21000 394.240
56.38000 231.993
56.55000 199.906
56.72000 168.340
56.89000 162.200
57.06000 148.460
57.23000 151.686
57.40000 155.789
57.57000 139.443
57.74000 145.556
57.91000 144.679
58.08000 139.308
58.25000 158.571
58.42000 131.607
58.59000 133.306
58.76000 142.603
58.93000 143.882
59.10000 136.037
59.27000 130.449
59.44000 120.667
59.61000 135.375
59.78000 134.445
59.95000 133.788
60.12000 136.243
60.29000 125.877
60.46000 129.009
60.63000 127.523
60.80000 127.354
60.97000 125.206
61.14000 135.183
61.31000 136.598
61.48000 142.327
61.65000 281.217
61.82000 211.647
61.99000 148.137
62.16000 135.625
62.33000 128.403
62.50000 138.397
62.67000 144.333
62.84000 139.161
63.01000 141.772
63.18000 150.361
63.35000 143.729
63.52000 141.701
63.69000 151.427
63.86000 156.779
64.03000 160.068
64.20000 146.675
64.37000 156.082
64.54000 179.552
64.71000 170.655
64.88000 180.492
65.05000 209.112
65.22000 254.930
65.39000 331.261
65.56000 431.540
65.73000 771.393
65.90000 1235.831
66.07000 414.294
66.24000 331.739
66.41000 453.628
66.58000 361.104
66.75000 326.912
66.92000 342.243
67.09000 359.059
67.26000 382.017
67.43000 417.333
67.60000 437.141
67.77000 460.128
67.94000 517.879
68.11000 554.710
68.28000 613.558
68.45000 745.652
68.62000 1078.534
68.79000 2077.867
68.96000 15224.522
69.13000 62570.094
69.30000 36051.871
69.47000 8074.024
69.64000 1227.858
69.81000 828.148
69.98000 682.989
70.00000 671.411