File: XRD/24-09-2025 Dep 3/XY Data/BTO_Mapping_Theta2Theta_24-09-2025_001_49_-4-181_-39-781.xy
20.00000 575.078
20.17000 556.495
20.34000 561.207
20.51000 553.422
20.68000 533.121
20.85000 554.813
21.02000 544.469
21.19000 542.831
21.36000 532.854
21.53000 551.792
21.70000 550.448
21.87000 583.401
22.04000 626.784
22.21000 632.486
22.38000 583.508
22.55000 549.023
22.72000 521.144
22.89000 516.178
23.06000 519.638
23.23000 526.219
23.40000 489.671
23.57000 487.976
23.74000 495.553
23.91000 482.256
24.08000 492.243
24.25000 466.369
24.42000 487.743
24.59000 471.257
24.76000 481.225
24.93000 467.925
25.10000 464.722
25.27000 455.266
25.44000 455.171
25.61000 463.137
25.78000 456.808
25.95000 451.389
26.12000 471.371
26.29000 443.024
26.46000 452.848
26.63000 459.298
26.80000 434.681
26.97000 427.022
27.14000 441.055
27.31000 451.225
27.48000 439.522
27.65000 434.692
27.82000 424.230
27.99000 420.294
28.16000 417.621
28.33000 442.590
28.50000 402.417
28.67000 413.790
28.84000 411.619
29.01000 395.554
29.18000 417.534
29.35000 418.525
29.52000 402.917
29.69000 401.995
29.86000 422.877
30.03000 445.355
30.20000 448.444
30.37000 408.155
30.54000 407.260
30.71000 415.602
30.88000 466.373
31.05000 605.755
31.22000 1356.408
31.39000 2248.539
31.56000 1436.001
31.73000 652.827
31.90000 473.818
32.07000 417.498
32.24000 397.535
32.41000 382.410
32.58000 393.336
32.75000 364.932
32.92000 476.044
33.09000 400.251
33.26000 345.872
33.43000 334.710
33.60000 359.607
33.77000 340.010
33.94000 334.483
34.11000 331.406
34.28000 335.632
34.45000 335.545
34.62000 327.929
34.79000 297.796
34.96000 329.939
35.13000 321.629
35.30000 312.175
35.47000 306.624
35.64000 311.895
35.81000 309.863
35.98000 307.750
36.15000 303.318
36.32000 305.102
36.49000 296.305
36.66000 302.731
36.83000 310.960
37.00000 303.354
37.17000 300.610
37.34000 294.493
37.51000 284.769
37.68000 291.563
37.85000 300.118
38.02000 307.445
38.19000 311.911
38.36000 376.916
38.53000 801.076
38.70000 1732.645
38.87000 1241.755
39.04000 448.428
39.21000 312.326
39.38000 281.919
39.55000 286.382
39.72000 269.022
39.89000 276.410
40.06000 265.634
40.23000 268.761
40.40000 263.348
40.57000 254.082
40.74000 247.452
40.91000 245.867
41.08000 246.676
41.25000 231.884
41.42000 253.433
41.59000 238.536
41.76000 246.124
41.93000 239.831
42.10000 238.054
42.27000 227.148
42.44000 234.392
42.61000 226.227
42.78000 232.311
42.95000 239.009
43.12000 215.458
43.29000 237.903
43.46000 224.724
43.63000 218.610
43.80000 220.882
43.97000 221.736
44.14000 221.404
44.31000 228.114
44.48000 222.992
44.65000 225.956
44.82000 254.811
44.99000 302.039
45.16000 311.812
45.33000 286.733
45.50000 257.084
45.67000 237.446
45.84000 223.138
46.01000 213.290
46.18000 212.569
46.35000 207.833
46.52000 204.944
46.69000 206.403
46.86000 189.453
47.03000 183.056
47.20000 173.357
47.37000 200.298
47.54000 200.846
47.71000 209.360
47.88000 195.179
48.05000 189.954
48.22000 184.213
48.39000 178.924
48.56000 173.451
48.73000 180.210
48.90000 178.253
49.07000 181.717
49.24000 168.286
49.41000 172.778
49.58000 173.156
49.75000 174.331
49.92000 188.921
50.09000 171.101
50.26000 170.350
50.43000 188.159
50.60000 224.738
50.77000 226.292
50.94000 206.876
51.11000 188.358
51.28000 165.250
51.45000 171.241
51.62000 173.416
51.79000 159.759
51.96000 171.019
52.13000 176.757
52.30000 158.427
52.47000 163.375
52.64000 158.613
52.81000 159.795
52.98000 159.679
53.15000 166.145
53.32000 168.724
53.49000 166.178
53.66000 159.359
53.83000 157.199
54.00000 159.424
54.17000 155.792
54.34000 160.697
54.51000 161.644
54.68000 163.089
54.85000 166.884
55.02000 164.753
55.19000 176.171
55.36000 179.399
55.53000 223.234
55.70000 416.345
55.87000 836.133
56.04000 931.467
56.21000 561.119
56.38000 260.392
56.55000 192.408
56.72000 176.866
56.89000 156.510
57.06000 156.476
57.23000 155.183
57.40000 143.534
57.57000 149.839
57.74000 142.059
57.91000 137.348
58.08000 132.449
58.25000 147.676
58.42000 134.315
58.59000 135.916
58.76000 137.163
58.93000 136.420
59.10000 134.614
59.27000 130.859
59.44000 141.729
59.61000 124.190
59.78000 122.631
59.95000 138.413
60.12000 132.265
60.29000 131.134
60.46000 136.410
60.63000 132.189
60.80000 136.349
60.97000 134.292
61.14000 133.298
61.31000 127.128
61.48000 140.255
61.65000 266.409
61.82000 190.216
61.99000 140.073
62.16000 136.835
62.33000 140.861
62.50000 139.333
62.67000 142.773
62.84000 135.805
63.01000 128.861
63.18000 138.457
63.35000 151.707
63.52000 142.893
63.69000 149.032
63.86000 150.354
64.03000 150.385
64.20000 155.029
64.37000 166.623
64.54000 168.597
64.71000 183.316
64.88000 174.758
65.05000 200.204
65.22000 224.846
65.39000 275.182
65.56000 338.764
65.73000 640.510
65.90000 1097.586
66.07000 387.869
66.24000 304.703
66.41000 422.623
66.58000 342.502
66.75000 319.832
66.92000 326.704
67.09000 343.126
67.26000 364.276
67.43000 384.910
67.60000 412.487
67.77000 435.582
67.94000 469.262
68.11000 516.589
68.28000 575.116
68.45000 702.640
68.62000 984.739
68.79000 1844.476
68.96000 12434.746
69.13000 53918.605
69.30000 31187.309
69.47000 7158.252
69.64000 1159.651
69.81000 766.894
69.98000 629.244
70.00000 635.703