File: XRD/24-09-2025 Dep 3/XY Data/BTO_Mapping_Theta2Theta_24-09-2025_001_28_-24-271_17-634.xy
20.00000 566.838
20.17000 568.191
20.34000 558.465
20.51000 537.666
20.68000 564.865
20.85000 537.446
21.02000 573.869
21.19000 575.613
21.36000 552.655
21.53000 547.423
21.70000 592.623
21.87000 771.039
22.04000 980.356
22.21000 751.922
22.38000 571.562
22.55000 551.953
22.72000 528.348
22.89000 522.009
23.06000 525.842
23.23000 525.381
23.40000 518.772
23.57000 487.827
23.74000 491.406
23.91000 495.513
24.08000 482.779
24.25000 495.582
24.42000 482.040
24.59000 492.884
24.76000 468.821
24.93000 478.246
25.10000 475.994
25.27000 481.111
25.44000 479.636
25.61000 458.226
25.78000 452.317
25.95000 485.417
26.12000 460.834
26.29000 458.879
26.46000 447.896
26.63000 436.970
26.80000 454.162
26.97000 451.432
27.14000 445.459
27.31000 447.796
27.48000 453.985
27.65000 439.263
27.82000 433.722
27.99000 450.574
28.16000 431.225
28.33000 418.333
28.50000 433.691
28.67000 438.660
28.84000 415.481
29.01000 425.747
29.18000 409.305
29.35000 427.172
29.52000 425.699
29.69000 429.699
29.86000 439.239
30.03000 471.656
30.20000 439.769
30.37000 424.333
30.54000 442.226
30.71000 447.523
30.88000 526.071
31.05000 765.435
31.22000 2161.365
31.39000 3619.942
31.56000 1855.869
31.73000 707.717
31.90000 497.794
32.07000 435.654
32.24000 403.743
32.41000 391.042
32.58000 376.408
32.75000 394.560
32.92000 622.892
33.09000 469.362
33.26000 365.395
33.43000 334.956
33.60000 343.860
33.77000 367.166
33.94000 340.453
34.11000 333.706
34.28000 335.426
34.45000 325.319
34.62000 321.848
34.79000 344.095
34.96000 318.230
35.13000 310.953
35.30000 308.811
35.47000 310.303
35.64000 319.459
35.81000 310.474
35.98000 289.211
36.15000 284.812
36.32000 310.478
36.49000 296.810
36.66000 317.573
36.83000 314.570
37.00000 291.610
37.17000 304.858
37.34000 295.594
37.51000 288.739
37.68000 292.923
37.85000 297.383
38.02000 289.581
38.19000 294.326
38.36000 377.510
38.53000 716.811
38.70000 1046.439
38.87000 653.844
39.04000 330.315
39.21000 305.009
39.38000 286.175
39.55000 271.601
39.72000 270.117
39.89000 259.123
40.06000 256.165
40.23000 265.100
40.40000 264.671
40.57000 254.792
40.74000 256.979
40.91000 245.211
41.08000 253.249
41.25000 248.101
41.42000 237.353
41.59000 237.458
41.76000 251.829
41.93000 236.201
42.10000 236.295
42.27000 233.476
42.44000 244.473
42.61000 234.339
42.78000 226.477
42.95000 234.039
43.12000 227.117
43.29000 219.622
43.46000 234.217
43.63000 236.042
43.80000 240.179
43.97000 231.311
44.14000 230.029
44.31000 240.353
44.48000 243.614
44.65000 274.614
44.82000 443.746
44.99000 608.308
45.16000 489.718
45.33000 329.846
45.50000 277.827
45.67000 246.301
45.84000 227.428
46.01000 222.315
46.18000 223.303
46.35000 201.690
46.52000 193.902
46.69000 201.314
46.86000 204.765
47.03000 206.610
47.20000 192.901
47.37000 202.389
47.54000 190.941
47.71000 185.844
47.88000 189.963
48.05000 191.559
48.22000 184.485
48.39000 189.355
48.56000 183.042
48.73000 182.613
48.90000 181.237
49.07000 183.296
49.24000 184.982
49.41000 174.568
49.58000 174.478
49.75000 183.456
49.92000 173.118
50.09000 169.110
50.26000 191.473
50.43000 218.374
50.60000 283.106
50.77000 276.513
50.94000 221.646
51.11000 193.190
51.28000 178.878
51.45000 173.635
51.62000 162.289
51.79000 176.393
51.96000 164.314
52.13000 175.411
52.30000 160.392
52.47000 157.175
52.64000 152.148
52.81000 153.667
52.98000 153.420
53.15000 162.079
53.32000 167.899
53.49000 165.168
53.66000 168.291
53.83000 153.330
54.00000 150.147
54.17000 159.152
54.34000 154.606
54.51000 168.226
54.68000 160.243
54.85000 166.529
55.02000 157.523
55.19000 177.769
55.36000 188.591
55.53000 253.594
55.70000 505.978
55.87000 832.624
56.04000 708.780
56.21000 375.601
56.38000 225.326
56.55000 181.096
56.72000 177.031
56.89000 166.947
57.06000 157.878
57.23000 148.171
57.40000 143.248
57.57000 154.387
57.74000 141.132
57.91000 135.141
58.08000 149.373
58.25000 138.696
58.42000 140.952
58.59000 136.347
58.76000 143.019
58.93000 143.277
59.10000 133.181
59.27000 142.178
59.44000 131.490
59.61000 143.486
59.78000 138.539
59.95000 131.177
60.12000 137.525
60.29000 134.149
60.46000 142.692
60.63000 136.668
60.80000 136.776
60.97000 138.151
61.14000 150.053
61.31000 150.078
61.48000 151.184
61.65000 326.809
61.82000 233.539
61.99000 147.610
62.16000 142.123
62.33000 139.745
62.50000 145.788
62.67000 150.750
62.84000 151.023
63.01000 145.383
63.18000 167.268
63.35000 145.464
63.52000 142.915
63.69000 155.812
63.86000 153.498
64.03000 156.048
64.20000 158.105
64.37000 164.027
64.54000 159.992
64.71000 173.515
64.88000 190.547
65.05000 214.195
65.22000 273.402
65.39000 358.310
65.56000 448.268
65.73000 882.747
65.90000 1535.893
66.07000 494.929
66.24000 376.606
66.41000 544.796
66.58000 394.911
66.75000 350.289
66.92000 386.447
67.09000 381.368
67.26000 430.639
67.43000 456.779
67.60000 477.492
67.77000 532.873
67.94000 564.273
68.11000 619.167
68.28000 704.592
68.45000 818.124
68.62000 1273.591
68.79000 2506.737
68.96000 19386.814
69.13000 82513.344
69.30000 49486.570
69.47000 12083.490
69.64000 1558.692
69.81000 969.456
69.98000 767.450
70.00000 757.143