File: XRD/24-09-2025 Dep 3/XY Data/BTO_Mapping_Theta2Theta_24-09-2025_001_21_-4-181_39-781.xy
20.00000 564.938
20.17000 567.872
20.34000 544.180
20.51000 551.483
20.68000 556.989
20.85000 551.731
21.02000 555.122
21.19000 543.916
21.36000 550.218
21.53000 549.978
21.70000 545.170
21.87000 590.769
22.04000 659.662
22.21000 654.749
22.38000 607.331
22.55000 554.864
22.72000 535.469
22.89000 513.806
23.06000 504.213
23.23000 509.517
23.40000 523.485
23.57000 486.764
23.74000 505.914
23.91000 480.441
24.08000 490.028
24.25000 492.346
24.42000 494.298
24.59000 495.645
24.76000 491.492
24.93000 463.087
25.10000 434.936
25.27000 472.916
25.44000 468.490
25.61000 454.015
25.78000 458.272
25.95000 453.412
26.12000 462.018
26.29000 457.761
26.46000 449.931
26.63000 451.932
26.80000 445.802
26.97000 446.106
27.14000 455.474
27.31000 447.699
27.48000 429.864
27.65000 431.203
27.82000 429.863
27.99000 425.358
28.16000 433.183
28.33000 446.397
28.50000 411.659
28.67000 417.772
28.84000 414.701
29.01000 405.636
29.18000 407.389
29.35000 412.639
29.52000 422.318
29.69000 419.402
29.86000 421.846
30.03000 434.594
30.20000 421.657
30.37000 411.260
30.54000 425.771
30.71000 431.301
30.88000 462.864
31.05000 549.555
31.22000 1139.441
31.39000 2259.095
31.56000 1698.230
31.73000 734.074
31.90000 476.417
32.07000 411.346
32.24000 405.649
32.41000 383.694
32.58000 372.469
32.75000 378.014
32.92000 465.450
33.09000 416.998
33.26000 333.594
33.43000 329.893
33.60000 355.163
33.77000 324.527
33.94000 333.686
34.11000 332.070
34.28000 325.514
34.45000 345.209
34.62000 308.260
34.79000 320.984
34.96000 321.382
35.13000 317.788
35.30000 331.411
35.47000 311.399
35.64000 317.549
35.81000 297.577
35.98000 298.342
36.15000 305.359
36.32000 296.280
36.49000 299.658
36.66000 309.044
36.83000 308.544
37.00000 321.573
37.17000 307.357
37.34000 299.365
37.51000 288.912
37.68000 291.833
37.85000 291.225
38.02000 302.303
38.19000 301.328
38.36000 337.338
38.53000 646.980
38.70000 1500.259
38.87000 1264.927
39.04000 474.552
39.21000 304.623
39.38000 283.207
39.55000 276.334
39.72000 271.797
39.89000 249.894
40.06000 263.669
40.23000 253.313
40.40000 246.332
40.57000 248.861
40.74000 245.326
40.91000 240.378
41.08000 239.260
41.25000 235.068
41.42000 248.745
41.59000 232.443
41.76000 242.855
41.93000 249.271
42.10000 235.530
42.27000 237.529
42.44000 235.063
42.61000 233.854
42.78000 229.115
42.95000 225.348
43.12000 216.806
43.29000 212.479
43.46000 228.962
43.63000 212.730
43.80000 232.850
43.97000 225.747
44.14000 221.623
44.31000 229.720
44.48000 223.280
44.65000 233.956
44.82000 239.186
44.99000 292.345
45.16000 309.177
45.33000 300.785
45.50000 274.535
45.67000 255.111
45.84000 232.545
46.01000 218.645
46.18000 227.513
46.35000 197.544
46.52000 189.773
46.69000 183.962
46.86000 208.746
47.03000 195.446
47.20000 203.153
47.37000 185.527
47.54000 188.647
47.71000 179.687
47.88000 187.948
48.05000 197.227
48.22000 184.528
48.39000 174.784
48.56000 183.434
48.73000 183.539
48.90000 172.895
49.07000 177.628
49.24000 169.640
49.41000 183.073
49.58000 165.101
49.75000 166.384
49.92000 175.485
50.09000 180.994
50.26000 183.086
50.43000 180.901
50.60000 221.174
50.77000 236.852
50.94000 217.088
51.11000 191.814
51.28000 184.810
51.45000 166.112
51.62000 163.918
51.79000 154.693
51.96000 157.655
52.13000 159.700
52.30000 159.506
52.47000 154.295
52.64000 147.047
52.81000 147.665
52.98000 157.812
53.15000 157.611
53.32000 161.892
53.49000 159.429
53.66000 157.373
53.83000 160.848
54.00000 156.809
54.17000 155.318
54.34000 160.882
54.51000 154.015
54.68000 157.365
54.85000 152.536
55.02000 157.944
55.19000 165.023
55.36000 172.543
55.53000 208.706
55.70000 337.231
55.87000 696.987
56.04000 879.786
56.21000 578.219
56.38000 293.652
56.55000 206.457
56.72000 167.375
56.89000 157.480
57.06000 149.283
57.23000 143.140
57.40000 131.304
57.57000 146.456
57.74000 145.594
57.91000 139.469
58.08000 128.620
58.25000 135.923
58.42000 135.363
58.59000 136.757
58.76000 133.860
58.93000 138.018
59.10000 139.073
59.27000 121.829
59.44000 132.450
59.61000 129.020
59.78000 143.177
59.95000 129.564
60.12000 136.398
60.29000 136.265
60.46000 133.091
60.63000 139.141
60.80000 129.464
60.97000 133.665
61.14000 141.543
61.31000 137.496
61.48000 152.351
61.65000 263.579
61.82000 213.178
61.99000 142.185
62.16000 137.975
62.33000 146.684
62.50000 142.204
62.67000 155.228
62.84000 137.651
63.01000 144.408
63.18000 138.630
63.35000 131.730
63.52000 145.448
63.69000 151.648
63.86000 145.573
64.03000 149.840
64.20000 143.129
64.37000 162.786
64.54000 172.978
64.71000 169.485
64.88000 180.962
65.05000 173.507
65.22000 204.448
65.39000 250.865
65.56000 329.884
65.73000 617.323
65.90000 1137.212
66.07000 401.701
66.24000 303.200
66.41000 438.075
66.58000 340.531
66.75000 308.000
66.92000 330.587
67.09000 357.799
67.26000 363.445
67.43000 388.544
67.60000 430.539
67.77000 451.455
67.94000 489.419
68.11000 553.773
68.28000 583.469
68.45000 701.603
68.62000 1002.247
68.79000 1827.070
68.96000 10378.585
69.13000 54951.742
69.30000 33381.367
69.47000 8813.470
69.64000 1208.661
69.81000 810.171
69.98000 663.980
70.00000 663.271