File: XRD/24-09-2025 Dep 3/XY Data/BTO_Mapping_Theta2Theta_24-09-2025_001_15_6-180_19-021.xy
20.00000 558.772
20.17000 570.724
20.34000 546.336
20.51000 544.820
20.68000 551.851
20.85000 537.559
21.02000 548.280
21.19000 568.136
21.36000 541.585
21.53000 542.002
21.70000 564.585
21.87000 549.622
22.04000 631.684
22.21000 594.942
22.38000 586.745
22.55000 540.459
22.72000 508.933
22.89000 507.520
23.06000 516.799
23.23000 495.455
23.40000 514.554
23.57000 481.580
23.74000 496.395
23.91000 478.702
24.08000 494.440
24.25000 481.640
24.42000 489.571
24.59000 479.991
24.76000 503.534
24.93000 464.578
25.10000 496.201
25.27000 456.673
25.44000 447.850
25.61000 465.895
25.78000 449.651
25.95000 479.980
26.12000 443.526
26.29000 449.602
26.46000 432.123
26.63000 453.482
26.80000 451.863
26.97000 441.170
27.14000 426.015
27.31000 422.968
27.48000 446.043
27.65000 437.973
27.82000 431.920
27.99000 431.700
28.16000 434.466
28.33000 418.286
28.50000 408.350
28.67000 403.123
28.84000 414.941
29.01000 404.171
29.18000 418.278
29.35000 398.309
29.52000 407.148
29.69000 419.683
29.86000 428.772
30.03000 417.640
30.20000 429.110
30.37000 421.415
30.54000 413.315
30.71000 412.286
30.88000 449.948
31.05000 552.580
31.22000 1126.508
31.39000 2012.185
31.56000 1490.315
31.73000 667.990
31.90000 451.532
32.07000 401.221
32.24000 391.399
32.41000 386.604
32.58000 376.676
32.75000 368.268
32.92000 455.943
33.09000 424.493
33.26000 353.380
33.43000 335.763
33.60000 331.977
33.77000 332.806
33.94000 328.113
34.11000 329.357
34.28000 329.804
34.45000 328.778
34.62000 330.611
34.79000 305.596
34.96000 312.156
35.13000 314.747
35.30000 305.348
35.47000 312.733
35.64000 296.406
35.81000 305.830
35.98000 300.305
36.15000 296.691
36.32000 302.934
36.49000 298.154
36.66000 306.787
36.83000 306.394
37.00000 304.422
37.17000 317.680
37.34000 290.107
37.51000 291.337
37.68000 296.228
37.85000 286.403
38.02000 285.566
38.19000 308.673
38.36000 356.217
38.53000 665.244
38.70000 1514.224
38.87000 1170.914
39.04000 446.761
39.21000 300.018
39.38000 291.205
39.55000 276.459
39.72000 274.289
39.89000 274.307
40.06000 275.151
40.23000 260.215
40.40000 256.798
40.57000 257.840
40.74000 248.149
40.91000 243.444
41.08000 241.950
41.25000 243.871
41.42000 235.128
41.59000 239.969
41.76000 234.896
41.93000 246.266
42.10000 241.063
42.27000 227.929
42.44000 219.662
42.61000 223.516
42.78000 233.537
42.95000 235.735
43.12000 234.773
43.29000 223.177
43.46000 214.162
43.63000 231.164
43.80000 214.532
43.97000 234.156
44.14000 226.703
44.31000 221.545
44.48000 212.475
44.65000 222.053
44.82000 243.956
44.99000 271.394
45.16000 293.848
45.33000 271.488
45.50000 244.804
45.67000 246.612
45.84000 232.673
46.01000 229.262
46.18000 226.841
46.35000 208.512
46.52000 196.362
46.69000 208.320
46.86000 201.523
47.03000 199.432
47.20000 178.486
47.37000 187.032
47.54000 180.502
47.71000 189.653
47.88000 178.565
48.05000 197.024
48.22000 196.676
48.39000 183.206
48.56000 182.282
48.73000 186.390
48.90000 182.940
49.07000 180.388
49.24000 173.926
49.41000 172.406
49.58000 175.392
49.75000 177.202
49.92000 181.584
50.09000 178.733
50.26000 164.870
50.43000 193.437
50.60000 198.313
50.77000 202.712
50.94000 198.471
51.11000 186.583
51.28000 164.611
51.45000 160.737
51.62000 163.855
51.79000 170.647
51.96000 164.608
52.13000 159.299
52.30000 158.214
52.47000 155.578
52.64000 155.839
52.81000 161.603
52.98000 157.458
53.15000 154.300
53.32000 159.819
53.49000 159.932
53.66000 164.368
53.83000 157.952
54.00000 159.898
54.17000 157.852
54.34000 157.381
54.51000 156.902
54.68000 151.776
54.85000 159.401
55.02000 164.986
55.19000 156.400
55.36000 178.120
55.53000 217.240
55.70000 349.741
55.87000 742.993
56.04000 902.821
56.21000 588.985
56.38000 288.127
56.55000 181.532
56.72000 168.861
56.89000 157.805
57.06000 148.361
57.23000 150.874
57.40000 140.471
57.57000 142.937
57.74000 153.372
57.91000 144.812
58.08000 146.862
58.25000 139.906
58.42000 132.667
58.59000 132.225
58.76000 144.911
58.93000 139.578
59.10000 124.875
59.27000 141.154
59.44000 138.075
59.61000 136.241
59.78000 133.767
59.95000 127.460
60.12000 133.035
60.29000 126.873
60.46000 127.468
60.63000 128.908
60.80000 135.183
60.97000 134.268
61.14000 136.816
61.31000 132.006
61.48000 140.677
61.65000 249.582
61.82000 194.459
61.99000 148.933
62.16000 136.912
62.33000 135.953
62.50000 145.542
62.67000 137.505
62.84000 147.429
63.01000 150.116
63.18000 137.341
63.35000 147.295
63.52000 149.290
63.69000 143.934
63.86000 154.928
64.03000 156.685
64.20000 156.016
64.37000 160.704
64.54000 152.280
64.71000 168.128
64.88000 181.003
65.05000 182.045
65.22000 207.661
65.39000 263.595
65.56000 312.250
65.73000 587.684
65.90000 1057.482
66.07000 417.807
66.24000 295.705
66.41000 437.783
66.58000 336.923
66.75000 299.691
66.92000 338.894
67.09000 344.108
67.26000 365.734
67.43000 387.176
67.60000 410.521
67.77000 443.210
67.94000 454.370
68.11000 528.149
68.28000 590.055
68.45000 678.094
68.62000 929.437
68.79000 1716.742
68.96000 10444.515
69.13000 51762.578
69.30000 30996.967
69.47000 7730.963
69.64000 1168.871
69.81000 797.174
69.98000 667.865
70.00000 657.316