File: XRD/24-09-2025 Dep 3/XY Data/BTO_Mapping_Theta2Theta_24-09-2025_001_41_-32-361_-23-511.xy
20.00000 552.625
20.17000 540.383
20.34000 551.593
20.51000 552.072
20.68000 564.256
20.85000 551.214
21.02000 562.870
21.19000 548.796
21.36000 548.325
21.53000 563.981
21.70000 633.015
21.87000 862.180
22.04000 986.462
22.21000 663.880
22.38000 558.077
22.55000 536.671
22.72000 529.921
22.89000 523.891
23.06000 516.148
23.23000 500.972
23.40000 498.609
23.57000 494.456
23.74000 503.477
23.91000 490.345
24.08000 500.296
24.25000 496.823
24.42000 494.134
24.59000 494.872
24.76000 486.690
24.93000 502.529
25.10000 476.220
25.27000 475.384
25.44000 463.176
25.61000 469.172
25.78000 460.949
25.95000 459.499
26.12000 471.183
26.29000 462.200
26.46000 440.927
26.63000 448.388
26.80000 448.895
26.97000 453.190
27.14000 438.325
27.31000 429.340
27.48000 431.996
27.65000 431.490
27.82000 432.392
27.99000 429.654
28.16000 438.892
28.33000 448.022
28.50000 434.335
28.67000 429.394
28.84000 416.011
29.01000 432.354
29.18000 429.177
29.35000 424.263
29.52000 416.430
29.69000 442.760
29.86000 466.993
30.03000 467.941
30.20000 443.908
30.37000 452.535
30.54000 459.387
30.71000 473.430
30.88000 561.945
31.05000 1092.173
31.22000 3392.507
31.39000 4167.091
31.56000 1582.098
31.73000 622.716
31.90000 450.273
32.07000 436.454
32.24000 403.958
32.41000 390.487
32.58000 371.965
32.75000 392.293
32.92000 641.607
33.09000 482.989
33.26000 348.701
33.43000 353.386
33.60000 369.922
33.77000 340.272
33.94000 352.142
34.11000 340.297
34.28000 337.821
34.45000 344.426
34.62000 321.657
34.79000 339.303
34.96000 333.329
35.13000 314.266
35.30000 314.633
35.47000 309.116
35.64000 318.884
35.81000 306.535
35.98000 314.317
36.15000 320.747
36.32000 319.184
36.49000 299.148
36.66000 297.479
36.83000 304.490
37.00000 305.498
37.17000 295.176
37.34000 294.644
37.51000 304.257
37.68000 309.099
37.85000 287.135
38.02000 305.831
38.19000 319.536
38.36000 426.463
38.53000 725.018
38.70000 806.141
38.87000 476.045
39.04000 307.598
39.21000 287.850
39.38000 267.677
39.55000 255.424
39.72000 267.384
39.89000 265.680
40.06000 266.419
40.23000 278.609
40.40000 264.792
40.57000 246.510
40.74000 244.604
40.91000 246.165
41.08000 248.966
41.25000 247.856
41.42000 254.472
41.59000 258.165
41.76000 224.156
41.93000 249.151
42.10000 226.212
42.27000 235.482
42.44000 235.550
42.61000 240.473
42.78000 229.851
42.95000 238.181
43.12000 245.140
43.29000 225.722
43.46000 229.809
43.63000 223.530
43.80000 213.849
43.97000 229.560
44.14000 230.371
44.31000 245.062
44.48000 265.818
44.65000 349.270
44.82000 540.631
44.99000 578.721
45.16000 403.701
45.33000 305.748
45.50000 264.756
45.67000 235.284
45.84000 228.754
46.01000 218.594
46.18000 212.587
46.35000 199.582
46.52000 193.300
46.69000 205.302
46.86000 191.120
47.03000 197.623
47.20000 191.911
47.37000 186.053
47.54000 195.246
47.71000 186.545
47.88000 186.727
48.05000 181.201
48.22000 186.583
48.39000 180.164
48.56000 182.916
48.73000 192.290
48.90000 189.776
49.07000 189.553
49.24000 181.367
49.41000 168.144
49.58000 181.285
49.75000 180.611
49.92000 183.093
50.09000 193.532
50.26000 205.023
50.43000 264.283
50.60000 317.688
50.77000 260.318
50.94000 208.260
51.11000 193.437
51.28000 183.522
51.45000 176.434
51.62000 159.437
51.79000 165.059
51.96000 171.897
52.13000 163.160
52.30000 165.547
52.47000 163.718
52.64000 155.765
52.81000 167.141
52.98000 161.712
53.15000 168.564
53.32000 160.386
53.49000 167.827
53.66000 177.582
53.83000 152.610
54.00000 151.099
54.17000 165.997
54.34000 158.379
54.51000 154.497
54.68000 159.976
54.85000 159.281
55.02000 176.097
55.19000 172.797
55.36000 207.487
55.53000 351.533
55.70000 695.321
55.87000 880.790
56.04000 590.928
56.21000 311.609
56.38000 198.653
56.55000 172.451
56.72000 156.883
56.89000 151.285
57.06000 154.883
57.23000 150.616
57.40000 147.029
57.57000 139.767
57.74000 144.939
57.91000 127.915
58.08000 138.492
58.25000 139.292
58.42000 145.490
58.59000 140.726
58.76000 131.710
58.93000 139.151
59.10000 133.968
59.27000 143.188
59.44000 120.171
59.61000 138.404
59.78000 131.267
59.95000 138.527
60.12000 128.211
60.29000 137.671
60.46000 132.063
60.63000 125.828
60.80000 137.376
60.97000 135.941
61.14000 141.274
61.31000 133.855
61.48000 156.481
61.65000 397.943
61.82000 255.648
61.99000 147.888
62.16000 138.797
62.33000 147.811
62.50000 135.634
62.67000 142.641
62.84000 152.123
63.01000 136.288
63.18000 152.691
63.35000 146.174
63.52000 143.790
63.69000 154.937
63.86000 156.859
64.03000 160.422
64.20000 162.980
64.37000 172.919
64.54000 173.534
64.71000 178.327
64.88000 205.835
65.05000 241.825
65.22000 339.731
65.39000 470.849
65.56000 475.395
65.73000 1027.024
65.90000 1863.766
66.07000 522.024
66.24000 381.560
66.41000 671.236
66.58000 434.614
66.75000 374.260
66.92000 393.904
67.09000 431.297
67.26000 466.896
67.43000 486.650
67.60000 516.768
67.77000 594.205
67.94000 625.606
68.11000 722.295
68.28000 792.750
68.45000 921.031
68.62000 1413.844
68.79000 2868.307
68.96000 23796.320
69.13000 100194.250
69.30000 57735.434
69.47000 12958.594
69.64000 1645.861
69.81000 1069.902
69.98000 819.216
70.00000 803.400