File: XRD/24-09-2025 Dep 3/XY Data/BTO_Mapping_Theta2Theta_24-09-2025_001_23_-10-000_17-321.xy
20.00000 585.812
20.17000 580.937
20.34000 558.228
20.51000 568.561
20.68000 554.735
20.85000 551.822
21.02000 557.890
21.19000 539.364
21.36000 535.717
21.53000 527.161
21.70000 558.868
21.87000 649.611
22.04000 802.774
22.21000 685.244
22.38000 597.794
22.55000 537.472
22.72000 529.247
22.89000 507.245
23.06000 526.104
23.23000 532.416
23.40000 512.150
23.57000 489.074
23.74000 495.877
23.91000 497.988
24.08000 495.029
24.25000 502.864
24.42000 482.492
24.59000 473.062
24.76000 468.816
24.93000 452.685
25.10000 467.835
25.27000 449.106
25.44000 466.168
25.61000 451.141
25.78000 462.633
25.95000 460.402
26.12000 461.009
26.29000 462.402
26.46000 461.582
26.63000 447.554
26.80000 445.158
26.97000 426.987
27.14000 457.349
27.31000 434.244
27.48000 426.756
27.65000 447.059
27.82000 428.279
27.99000 452.255
28.16000 422.490
28.33000 445.114
28.50000 425.656
28.67000 428.179
28.84000 422.451
29.01000 435.454
29.18000 411.194
29.35000 398.658
29.52000 417.417
29.69000 413.106
29.86000 431.706
30.03000 448.251
30.20000 447.095
30.37000 419.598
30.54000 430.911
30.71000 441.003
30.88000 496.569
31.05000 702.161
31.22000 1941.383
31.39000 3682.178
31.56000 2098.910
31.73000 752.970
31.90000 497.568
32.07000 454.787
32.24000 400.930
32.41000 395.261
32.58000 384.418
32.75000 385.939
32.92000 514.321
33.09000 456.045
33.26000 350.204
33.43000 352.079
33.60000 359.650
33.77000 353.698
33.94000 338.268
34.11000 325.589
34.28000 330.357
34.45000 324.352
34.62000 328.252
34.79000 335.937
34.96000 314.107
35.13000 317.432
35.30000 319.369
35.47000 307.044
35.64000 312.283
35.81000 306.170
35.98000 305.889
36.15000 308.258
36.32000 317.836
36.49000 302.771
36.66000 306.331
36.83000 301.851
37.00000 312.081
37.17000 306.262
37.34000 290.026
37.51000 285.214
37.68000 301.901
37.85000 306.975
38.02000 292.805
38.19000 320.091
38.36000 388.485
38.53000 782.870
38.70000 1400.980
38.87000 911.375
39.04000 369.052
39.21000 313.556
39.38000 273.590
39.55000 273.063
39.72000 262.253
39.89000 261.594
40.06000 271.469
40.23000 240.818
40.40000 249.879
40.57000 246.549
40.74000 256.247
40.91000 244.903
41.08000 249.138
41.25000 260.027
41.42000 243.311
41.59000 230.774
41.76000 239.965
41.93000 245.298
42.10000 229.194
42.27000 237.408
42.44000 239.785
42.61000 230.138
42.78000 215.023
42.95000 222.301
43.12000 226.816
43.29000 220.883
43.46000 234.531
43.63000 218.310
43.80000 217.170
43.97000 209.464
44.14000 234.202
44.31000 216.260
44.48000 214.017
44.65000 242.781
44.82000 279.225
44.99000 375.460
45.16000 390.737
45.33000 325.611
45.50000 281.008
45.67000 250.811
45.84000 239.321
46.01000 222.057
46.18000 196.727
46.35000 225.058
46.52000 205.066
46.69000 204.169
46.86000 196.522
47.03000 192.131
47.20000 191.274
47.37000 194.530
47.54000 181.377
47.71000 187.636
47.88000 188.927
48.05000 179.538
48.22000 187.988
48.39000 189.749
48.56000 183.835
48.73000 181.757
48.90000 180.143
49.07000 182.203
49.24000 173.692
49.41000 198.605
49.58000 169.398
49.75000 173.348
49.92000 166.605
50.09000 172.302
50.26000 177.720
50.43000 199.204
50.60000 268.743
50.77000 270.377
50.94000 207.290
51.11000 188.612
51.28000 179.529
51.45000 163.651
51.62000 153.772
51.79000 159.445
51.96000 155.120
52.13000 162.223
52.30000 154.433
52.47000 154.958
52.64000 162.352
52.81000 161.637
52.98000 148.836
53.15000 151.483
53.32000 168.612
53.49000 159.834
53.66000 157.994
53.83000 156.898
54.00000 163.881
54.17000 159.628
54.34000 150.301
54.51000 153.449
54.68000 162.794
54.85000 155.734
55.02000 156.217
55.19000 171.459
55.36000 180.933
55.53000 220.111
55.70000 386.001
55.87000 758.750
56.04000 718.264
56.21000 430.625
56.38000 228.341
56.55000 186.672
56.72000 162.527
56.89000 149.239
57.06000 154.192
57.23000 152.078
57.40000 142.467
57.57000 152.970
57.74000 143.103
57.91000 140.383
58.08000 135.065
58.25000 143.656
58.42000 139.327
58.59000 135.410
58.76000 138.858
58.93000 135.298
59.10000 141.957
59.27000 126.545
59.44000 142.046
59.61000 131.661
59.78000 133.430
59.95000 150.466
60.12000 134.864
60.29000 132.968
60.46000 132.031
60.63000 131.208
60.80000 126.713
60.97000 138.563
61.14000 130.053
61.31000 127.144
61.48000 155.170
61.65000 285.820
61.82000 211.412
61.99000 143.597
62.16000 137.890
62.33000 141.109
62.50000 141.139
62.67000 152.818
62.84000 134.489
63.01000 150.709
63.18000 151.209
63.35000 138.510
63.52000 151.822
63.69000 142.092
63.86000 144.707
64.03000 151.460
64.20000 148.394
64.37000 156.234
64.54000 164.848
64.71000 168.458
64.88000 182.153
65.05000 192.486
65.22000 251.103
65.39000 347.081
65.56000 424.551
65.73000 773.470
65.90000 1305.263
66.07000 425.978
66.24000 351.477
66.41000 493.696
66.58000 362.529
66.75000 331.445
66.92000 347.361
67.09000 368.219
67.26000 382.424
67.43000 429.794
67.60000 435.626
67.77000 496.063
67.94000 528.894
68.11000 565.942
68.28000 634.507
68.45000 734.307
68.62000 1058.054
68.79000 2087.139
68.96000 14085.203
69.13000 63564.449
69.30000 37643.789
69.47000 9035.708
69.64000 1269.439
69.81000 824.479
69.98000 684.386
70.00000 685.683