File: XRD/24-09-2025 Dep 3/XY Data/BTO_Mapping_Theta2Theta_24-09-2025_001_60_27-406_-12-202.xy
20.00000 559.194
20.17000 569.967
20.34000 549.576
20.51000 567.571
20.68000 545.138
20.85000 549.278
21.02000 546.896
21.19000 561.054
21.36000 538.445
21.53000 538.167
21.70000 535.602
21.87000 592.161
22.04000 604.605
22.21000 621.140
22.38000 558.813
22.55000 546.270
22.72000 540.180
22.89000 501.712
23.06000 495.064
23.23000 499.458
23.40000 498.717
23.57000 532.566
23.74000 510.810
23.91000 534.163
24.08000 522.160
24.25000 507.530
24.42000 494.516
24.59000 490.047
24.76000 482.345
24.93000 471.066
25.10000 488.962
25.27000 464.625
25.44000 459.852
25.61000 469.165
25.78000 465.798
25.95000 472.104
26.12000 472.412
26.29000 458.935
26.46000 467.007
26.63000 455.250
26.80000 442.530
26.97000 449.745
27.14000 459.778
27.31000 443.212
27.48000 450.988
27.65000 442.429
27.82000 445.557
27.99000 445.893
28.16000 429.491
28.33000 421.025
28.50000 427.668
28.67000 400.847
28.84000 427.315
29.01000 422.138
29.18000 418.808
29.35000 401.100
29.52000 404.042
29.69000 429.924
29.86000 400.703
30.03000 397.172
30.20000 421.630
30.37000 406.387
30.54000 428.131
30.71000 449.359
30.88000 467.118
31.05000 560.752
31.22000 941.129
31.39000 1404.314
31.56000 997.504
31.73000 551.245
31.90000 457.004
32.07000 409.476
32.24000 394.784
32.41000 395.744
32.58000 392.504
32.75000 370.640
32.92000 463.514
33.09000 388.758
33.26000 337.857
33.43000 324.461
33.60000 362.443
33.77000 331.516
33.94000 353.648
34.11000 338.002
34.28000 360.652
34.45000 349.623
34.62000 338.648
34.79000 307.781
34.96000 329.066
35.13000 318.308
35.30000 321.863
35.47000 317.454
35.64000 311.082
35.81000 297.589
35.98000 298.995
36.15000 317.273
36.32000 304.907
36.49000 299.716
36.66000 301.264
36.83000 300.556
37.00000 305.212
37.17000 315.946
37.34000 303.748
37.51000 304.205
37.68000 278.286
37.85000 295.159
38.02000 304.975
38.19000 315.557
38.36000 343.198
38.53000 638.412
38.70000 1306.554
38.87000 1022.027
39.04000 414.677
39.21000 294.423
39.38000 283.277
39.55000 298.691
39.72000 256.301
39.89000 272.112
40.06000 260.524
40.23000 257.355
40.40000 256.605
40.57000 242.412
40.74000 258.616
40.91000 252.608
41.08000 241.544
41.25000 235.850
41.42000 230.104
41.59000 250.149
41.76000 241.811
41.93000 238.684
42.10000 245.890
42.27000 244.425
42.44000 238.852
42.61000 225.994
42.78000 240.180
42.95000 231.427
43.12000 243.745
43.29000 216.727
43.46000 226.984
43.63000 226.982
43.80000 218.596
43.97000 230.094
44.14000 228.109
44.31000 228.484
44.48000 217.410
44.65000 223.119
44.82000 241.020
44.99000 252.712
45.16000 273.176
45.33000 248.571
45.50000 244.978
45.67000 216.970
45.84000 205.008
46.01000 220.853
46.18000 215.170
46.35000 207.628
46.52000 189.006
46.69000 197.893
46.86000 195.676
47.03000 204.931
47.20000 196.750
47.37000 174.720
47.54000 191.403
47.71000 180.533
47.88000 191.431
48.05000 179.143
48.22000 194.099
48.39000 181.875
48.56000 185.070
48.73000 180.099
48.90000 178.642
49.07000 185.038
49.24000 180.766
49.41000 186.813
49.58000 175.119
49.75000 168.194
49.92000 201.882
50.09000 177.868
50.26000 185.898
50.43000 177.734
50.60000 193.593
50.77000 191.642
50.94000 177.482
51.11000 172.033
51.28000 172.875
51.45000 158.703
51.62000 157.973
51.79000 164.857
51.96000 156.652
52.13000 163.393
52.30000 169.968
52.47000 156.342
52.64000 150.788
52.81000 155.638
52.98000 164.374
53.15000 148.911
53.32000 173.968
53.49000 172.831
53.66000 163.301
53.83000 160.756
54.00000 155.938
54.17000 160.526
54.34000 161.388
54.51000 167.564
54.68000 160.909
54.85000 172.221
55.02000 163.158
55.19000 170.637
55.36000 179.449
55.53000 225.855
55.70000 367.338
55.87000 597.889
56.04000 645.184
56.21000 410.565
56.38000 244.918
56.55000 195.309
56.72000 165.070
56.89000 156.116
57.06000 150.972
57.23000 153.085
57.40000 142.825
57.57000 150.213
57.74000 151.126
57.91000 138.393
58.08000 147.914
58.25000 136.615
58.42000 139.799
58.59000 132.673
58.76000 131.239
58.93000 139.777
59.10000 145.100
59.27000 124.911
59.44000 134.825
59.61000 127.218
59.78000 133.564
59.95000 133.069
60.12000 135.799
60.29000 136.145
60.46000 136.962
60.63000 136.619
60.80000 138.183
60.97000 137.535
61.14000 146.145
61.31000 134.226
61.48000 146.652
61.65000 261.246
61.82000 191.440
61.99000 145.222
62.16000 135.173
62.33000 146.520
62.50000 136.815
62.67000 131.015
62.84000 141.544
63.01000 130.168
63.18000 143.044
63.35000 142.157
63.52000 141.139
63.69000 144.953
63.86000 156.331
64.03000 153.792
64.20000 155.330
64.37000 167.733
64.54000 165.154
64.71000 175.642
64.88000 178.893
65.05000 186.598
65.22000 219.366
65.39000 239.194
65.56000 269.768
65.73000 602.861
65.90000 1070.959
66.07000 352.216
66.24000 305.702
66.41000 447.105
66.58000 346.215
66.75000 315.661
66.92000 323.278
67.09000 350.962
67.26000 367.339
67.43000 388.297
67.60000 433.535
67.77000 457.313
67.94000 511.175
68.11000 547.181
68.28000 612.483
68.45000 719.661
68.62000 996.901
68.79000 1786.090
68.96000 11515.759
69.13000 54337.930
69.30000 31772.045
69.47000 7394.604
69.64000 1207.331
69.81000 814.811
69.98000 668.117
70.00000 668.444