File: XRD/24-09-2025 Dep 3/XY Data/BTO_Mapping_Theta2Theta_24-09-2025_001_25_-20-000_34-641.xy
20.00000 553.747
20.17000 547.469
20.34000 575.920
20.51000 566.952
20.68000 560.192
20.85000 544.407
21.02000 561.406
21.19000 559.871
21.36000 545.319
21.53000 563.838
21.70000 572.422
21.87000 649.899
22.04000 805.129
22.21000 743.877
22.38000 615.761
22.55000 537.637
22.72000 520.323
22.89000 531.441
23.06000 514.129
23.23000 499.096
23.40000 516.636
23.57000 497.493
23.74000 491.037
23.91000 492.978
24.08000 493.842
24.25000 488.217
24.42000 468.096
24.59000 477.248
24.76000 480.088
24.93000 472.481
25.10000 456.685
25.27000 472.341
25.44000 469.641
25.61000 465.039
25.78000 457.102
25.95000 462.157
26.12000 459.549
26.29000 459.276
26.46000 434.855
26.63000 443.382
26.80000 443.897
26.97000 436.488
27.14000 446.681
27.31000 438.069
27.48000 430.536
27.65000 438.877
27.82000 451.397
27.99000 429.955
28.16000 467.553
28.33000 453.374
28.50000 417.011
28.67000 458.571
28.84000 422.608
29.01000 417.929
29.18000 418.997
29.35000 411.018
29.52000 421.017
29.69000 417.649
29.86000 430.023
30.03000 448.923
30.20000 454.549
30.37000 437.697
30.54000 436.106
30.71000 449.969
30.88000 471.124
31.05000 682.814
31.22000 1787.586
31.39000 3572.494
31.56000 2265.777
31.73000 812.584
31.90000 499.240
32.07000 430.976
32.24000 411.808
32.41000 400.519
32.58000 393.825
32.75000 390.502
32.92000 582.322
33.09000 452.152
33.26000 355.669
33.43000 346.518
33.60000 360.657
33.77000 344.799
33.94000 338.078
34.11000 345.083
34.28000 328.185
34.45000 323.085
34.62000 319.826
34.79000 326.496
34.96000 328.095
35.13000 320.930
35.30000 313.697
35.47000 316.396
35.64000 317.751
35.81000 311.254
35.98000 309.721
36.15000 301.143
36.32000 312.223
36.49000 289.655
36.66000 294.164
36.83000 286.956
37.00000 323.542
37.17000 307.895
37.34000 300.274
37.51000 296.168
37.68000 283.260
37.85000 283.443
38.02000 291.113
38.19000 300.809
38.36000 358.049
38.53000 647.040
38.70000 1203.940
38.87000 875.118
39.04000 379.655
39.21000 308.336
39.38000 280.401
39.55000 278.724
39.72000 280.053
39.89000 275.170
40.06000 260.304
40.23000 263.137
40.40000 263.346
40.57000 262.265
40.74000 246.236
40.91000 255.674
41.08000 254.931
41.25000 252.492
41.42000 254.112
41.59000 230.632
41.76000 249.959
41.93000 237.206
42.10000 237.332
42.27000 241.694
42.44000 225.893
42.61000 234.029
42.78000 229.498
42.95000 246.484
43.12000 236.832
43.29000 229.159
43.46000 216.279
43.63000 216.294
43.80000 224.166
43.97000 225.045
44.14000 219.258
44.31000 233.548
44.48000 225.652
44.65000 226.798
44.82000 311.884
44.99000 421.640
45.16000 434.931
45.33000 332.752
45.50000 280.201
45.67000 240.364
45.84000 231.669
46.01000 221.419
46.18000 203.186
46.35000 208.268
46.52000 209.891
46.69000 195.816
46.86000 198.578
47.03000 194.684
47.20000 193.994
47.37000 182.360
47.54000 195.702
47.71000 195.160
47.88000 194.267
48.05000 173.896
48.22000 188.142
48.39000 181.216
48.56000 189.055
48.73000 189.179
48.90000 176.493
49.07000 171.296
49.24000 179.462
49.41000 173.918
49.58000 179.893
49.75000 172.958
49.92000 179.516
50.09000 181.203
50.26000 181.187
50.43000 205.019
50.60000 243.717
50.77000 293.723
50.94000 250.387
51.11000 191.600
51.28000 184.116
51.45000 180.060
51.62000 162.053
51.79000 157.340
51.96000 161.278
52.13000 156.687
52.30000 166.590
52.47000 155.653
52.64000 159.802
52.81000 163.300
52.98000 162.539
53.15000 173.416
53.32000 168.985
53.49000 173.400
53.66000 166.593
53.83000 169.745
54.00000 155.546
54.17000 159.961
54.34000 155.358
54.51000 144.886
54.68000 149.042
54.85000 151.327
55.02000 158.725
55.19000 171.219
55.36000 173.970
55.53000 214.055
55.70000 367.875
55.87000 718.720
56.04000 768.399
56.21000 447.200
56.38000 245.918
56.55000 189.428
56.72000 169.071
56.89000 149.752
57.06000 163.390
57.23000 148.277
57.40000 144.852
57.57000 141.263
57.74000 143.570
57.91000 138.366
58.08000 145.210
58.25000 139.135
58.42000 135.585
58.59000 138.633
58.76000 138.107
58.93000 135.661
59.10000 127.164
59.27000 140.096
59.44000 140.008
59.61000 132.254
59.78000 128.209
59.95000 136.210
60.12000 137.293
60.29000 142.906
60.46000 137.079
60.63000 135.100
60.80000 130.447
60.97000 132.783
61.14000 129.481
61.31000 133.760
61.48000 155.850
61.65000 304.885
61.82000 227.964
61.99000 144.428
62.16000 152.146
62.33000 131.230
62.50000 143.276
62.67000 137.106
62.84000 151.471
63.01000 149.582
63.18000 149.669
63.35000 140.187
63.52000 133.551
63.69000 157.235
63.86000 148.154
64.03000 149.084
64.20000 157.721
64.37000 171.785
64.54000 180.237
64.71000 177.235
64.88000 182.894
65.05000 190.939
65.22000 250.109
65.39000 353.894
65.56000 440.595
65.73000 821.761
65.90000 1439.044
66.07000 475.986
66.24000 361.362
66.41000 543.061
66.58000 389.797
66.75000 353.612
66.92000 343.922
67.09000 393.286
67.26000 410.327
67.43000 417.006
67.60000 477.232
67.77000 508.429
67.94000 546.179
68.11000 616.990
68.28000 648.921
68.45000 768.582
68.62000 1111.506
68.79000 2207.581
68.96000 14498.436
69.13000 72279.391
69.30000 44279.641
69.47000 11752.389
69.64000 1441.834
69.81000 901.477
69.98000 741.668
70.00000 720.777