File: XRD/24-09-2025 Dep 3/XY Data/BTO_Mapping_Theta2Theta_24-09-2025_001_02_10-000_0-000.xy
20.00000 557.131
20.17000 559.244
20.34000 563.953
20.51000 550.642
20.68000 565.665
20.85000 556.133
21.02000 545.012
21.19000 538.203
21.36000 540.711
21.53000 557.875
21.70000 534.321
21.87000 583.487
22.04000 597.873
22.21000 590.392
22.38000 576.747
22.55000 545.741
22.72000 521.192
22.89000 522.015
23.06000 515.409
23.23000 489.237
23.40000 518.344
23.57000 492.951
23.74000 517.813
23.91000 497.153
24.08000 489.954
24.25000 492.515
24.42000 501.675
24.59000 482.403
24.76000 491.972
24.93000 473.624
25.10000 470.470
25.27000 468.811
25.44000 464.939
25.61000 470.242
25.78000 465.324
25.95000 456.786
26.12000 442.458
26.29000 461.883
26.46000 444.904
26.63000 439.299
26.80000 442.394
26.97000 444.019
27.14000 435.841
27.31000 441.051
27.48000 440.753
27.65000 419.748
27.82000 436.775
27.99000 436.300
28.16000 426.201
28.33000 426.886
28.50000 410.652
28.67000 427.575
28.84000 407.537
29.01000 399.590
29.18000 418.125
29.35000 420.384
29.52000 409.802
29.69000 400.937
29.86000 423.536
30.03000 428.869
30.20000 421.639
30.37000 425.754
30.54000 410.088
30.71000 426.306
30.88000 458.245
31.05000 555.240
31.22000 1150.528
31.39000 1994.209
31.56000 1403.323
31.73000 644.740
31.90000 439.921
32.07000 408.553
32.24000 389.355
32.41000 392.471
32.58000 394.418
32.75000 359.860
32.92000 462.752
33.09000 384.153
33.26000 366.828
33.43000 350.650
33.60000 343.662
33.77000 337.066
33.94000 325.223
34.11000 333.779
34.28000 340.127
34.45000 327.007
34.62000 330.683
34.79000 319.498
34.96000 325.500
35.13000 299.587
35.30000 312.197
35.47000 296.802
35.64000 309.066
35.81000 303.245
35.98000 297.705
36.15000 293.992
36.32000 310.886
36.49000 309.853
36.66000 304.049
36.83000 304.590
37.00000 315.078
37.17000 297.503
37.34000 296.388
37.51000 300.013
37.68000 279.659
37.85000 293.847
38.02000 305.991
38.19000 317.309
38.36000 357.622
38.53000 706.539
38.70000 1523.755
38.87000 1138.809
39.04000 419.138
39.21000 303.443
39.38000 275.445
39.55000 264.782
39.72000 280.104
39.89000 268.996
40.06000 257.713
40.23000 247.975
40.40000 262.613
40.57000 258.115
40.74000 246.982
40.91000 247.675
41.08000 237.010
41.25000 239.066
41.42000 240.037
41.59000 240.518
41.76000 238.797
41.93000 246.645
42.10000 229.125
42.27000 221.983
42.44000 232.446
42.61000 226.240
42.78000 234.379
42.95000 232.340
43.12000 219.195
43.29000 219.696
43.46000 228.413
43.63000 202.252
43.80000 222.966
43.97000 218.934
44.14000 214.952
44.31000 220.598
44.48000 221.634
44.65000 207.728
44.82000 240.895
44.99000 270.137
45.16000 275.781
45.33000 261.081
45.50000 244.826
45.67000 251.419
45.84000 237.290
46.01000 210.772
46.18000 217.481
46.35000 203.993
46.52000 201.410
46.69000 198.749
46.86000 195.351
47.03000 193.862
47.20000 194.630
47.37000 181.913
47.54000 189.904
47.71000 187.363
47.88000 184.590
48.05000 183.152
48.22000 186.922
48.39000 180.443
48.56000 193.313
48.73000 187.172
48.90000 173.182
49.07000 173.486
49.24000 180.382
49.41000 172.524
49.58000 177.829
49.75000 183.025
49.92000 168.521
50.09000 167.819
50.26000 173.907
50.43000 172.602
50.60000 197.751
50.77000 202.481
50.94000 197.120
51.11000 177.302
51.28000 172.752
51.45000 167.561
51.62000 170.473
51.79000 168.188
51.96000 155.812
52.13000 171.404
52.30000 173.322
52.47000 161.701
52.64000 170.408
52.81000 161.383
52.98000 159.289
53.15000 150.878
53.32000 162.742
53.49000 167.591
53.66000 166.802
53.83000 159.934
54.00000 159.491
54.17000 160.346
54.34000 158.772
54.51000 161.392
54.68000 155.068
54.85000 158.399
55.02000 169.636
55.19000 165.283
55.36000 171.360
55.53000 206.383
55.70000 379.982
55.87000 758.835
56.04000 901.560
56.21000 558.194
56.38000 281.643
56.55000 186.205
56.72000 178.343
56.89000 160.960
57.06000 149.222
57.23000 146.231
57.40000 144.981
57.57000 138.650
57.74000 145.834
57.91000 136.237
58.08000 140.452
58.25000 143.642
58.42000 132.458
58.59000 136.326
58.76000 131.780
58.93000 134.105
59.10000 134.876
59.27000 138.441
59.44000 139.983
59.61000 126.238
59.78000 132.371
59.95000 125.257
60.12000 128.497
60.29000 133.325
60.46000 136.560
60.63000 123.346
60.80000 129.136
60.97000 130.640
61.14000 126.670
61.31000 144.512
61.48000 138.701
61.65000 259.842
61.82000 185.921
61.99000 143.635
62.16000 142.670
62.33000 138.889
62.50000 140.814
62.67000 139.791
62.84000 133.775
63.01000 140.351
63.18000 135.564
63.35000 149.685
63.52000 148.119
63.69000 153.342
63.86000 152.451
64.03000 151.448
64.20000 163.311
64.37000 162.436
64.54000 152.202
64.71000 171.284
64.88000 165.938
65.05000 191.108
65.22000 208.778
65.39000 251.682
65.56000 311.416
65.73000 608.645
65.90000 1006.238
66.07000 373.131
66.24000 298.684
66.41000 407.929
66.58000 332.280
66.75000 297.239
66.92000 304.389
67.09000 347.997
67.26000 358.060
67.43000 380.087
67.60000 409.910
67.77000 433.441
67.94000 464.497
68.11000 515.656
68.28000 587.535
68.45000 681.440
68.62000 952.159
68.79000 1728.914
68.96000 11474.804
69.13000 50532.762
69.30000 29750.080
69.47000 6883.118
69.64000 1144.854
69.81000 790.303
69.98000 651.373
70.00000 644.679