File: XRD/24-09-2025 Dep 3/XY Data/BTO_Mapping_Theta2Theta_24-09-2025_001_54_6-691_-7-431.xy
20.00000 590.397
20.17000 569.932
20.34000 543.221
20.51000 551.723
20.68000 558.373
20.85000 557.580
21.02000 532.731
21.19000 557.483
21.36000 533.306
21.53000 552.243
21.70000 555.325
21.87000 565.538
22.04000 630.469
22.21000 631.909
22.38000 596.423
22.55000 551.887
22.72000 508.598
22.89000 511.396
23.06000 515.885
23.23000 533.065
23.40000 521.778
23.57000 485.286
23.74000 493.380
23.91000 501.902
24.08000 502.113
24.25000 472.960
24.42000 492.589
24.59000 489.843
24.76000 490.031
24.93000 467.842
25.10000 475.456
25.27000 469.920
25.44000 484.039
25.61000 477.815
25.78000 471.961
25.95000 466.120
26.12000 437.061
26.29000 450.377
26.46000 443.130
26.63000 475.849
26.80000 434.375
26.97000 451.768
27.14000 428.940
27.31000 426.913
27.48000 442.116
27.65000 418.590
27.82000 421.873
27.99000 427.529
28.16000 434.434
28.33000 432.482
28.50000 430.346
28.67000 427.730
28.84000 412.788
29.01000 402.731
29.18000 408.612
29.35000 414.185
29.52000 410.714
29.69000 417.759
29.86000 425.768
30.03000 446.311
30.20000 404.710
30.37000 418.151
30.54000 413.572
30.71000 437.538
30.88000 450.216
31.05000 605.618
31.22000 1307.429
31.39000 2278.461
31.56000 1449.554
31.73000 654.980
31.90000 454.191
32.07000 416.505
32.24000 396.272
32.41000 381.984
32.58000 383.179
32.75000 368.399
32.92000 441.661
33.09000 375.352
33.26000 363.280
33.43000 316.011
33.60000 324.694
33.77000 336.091
33.94000 330.839
34.11000 320.413
34.28000 322.439
34.45000 334.186
34.62000 320.019
34.79000 323.660
34.96000 314.397
35.13000 330.223
35.30000 301.766
35.47000 313.124
35.64000 307.045
35.81000 310.977
35.98000 306.585
36.15000 311.467
36.32000 296.992
36.49000 315.062
36.66000 295.148
36.83000 303.521
37.00000 311.788
37.17000 316.962
37.34000 299.093
37.51000 301.131
37.68000 307.982
37.85000 295.462
38.02000 305.545
38.19000 311.915
38.36000 361.218
38.53000 746.062
38.70000 1552.280
38.87000 1104.880
39.04000 442.015
39.21000 302.195
39.38000 284.942
39.55000 285.202
39.72000 269.242
39.89000 281.743
40.06000 275.041
40.23000 257.518
40.40000 264.728
40.57000 241.193
40.74000 244.893
40.91000 246.538
41.08000 256.681
41.25000 254.564
41.42000 244.535
41.59000 236.936
41.76000 243.232
41.93000 229.306
42.10000 234.063
42.27000 226.839
42.44000 231.474
42.61000 227.966
42.78000 218.577
42.95000 218.255
43.12000 232.075
43.29000 220.879
43.46000 218.567
43.63000 221.581
43.80000 220.207
43.97000 223.131
44.14000 219.245
44.31000 212.749
44.48000 223.657
44.65000 213.643
44.82000 214.227
44.99000 276.672
45.16000 287.961
45.33000 261.252
45.50000 262.768
45.67000 237.923
45.84000 229.636
46.01000 213.656
46.18000 214.023
46.35000 201.131
46.52000 205.621
46.69000 209.227
46.86000 209.282
47.03000 195.082
47.20000 180.210
47.37000 193.156
47.54000 190.348
47.71000 186.493
47.88000 186.148
48.05000 192.256
48.22000 173.367
48.39000 188.914
48.56000 176.085
48.73000 184.000
48.90000 179.910
49.07000 183.192
49.24000 182.615
49.41000 168.124
49.58000 172.389
49.75000 185.122
49.92000 162.214
50.09000 180.821
50.26000 169.475
50.43000 176.749
50.60000 205.557
50.77000 212.136
50.94000 195.955
51.11000 180.808
51.28000 181.189
51.45000 166.574
51.62000 163.483
51.79000 161.326
51.96000 158.590
52.13000 158.383
52.30000 164.772
52.47000 167.695
52.64000 158.489
52.81000 161.106
52.98000 155.565
53.15000 167.423
53.32000 162.913
53.49000 159.656
53.66000 164.907
53.83000 156.170
54.00000 152.116
54.17000 165.241
54.34000 171.897
54.51000 151.169
54.68000 161.294
54.85000 157.803
55.02000 161.279
55.19000 165.963
55.36000 174.127
55.53000 220.674
55.70000 386.069
55.87000 780.311
56.04000 892.504
56.21000 530.921
56.38000 274.147
56.55000 203.456
56.72000 171.569
56.89000 163.863
57.06000 154.772
57.23000 149.360
57.40000 147.174
57.57000 157.246
57.74000 142.358
57.91000 140.694
58.08000 141.031
58.25000 131.564
58.42000 132.045
58.59000 134.909
58.76000 130.014
58.93000 142.808
59.10000 138.795
59.27000 128.905
59.44000 134.926
59.61000 126.869
59.78000 133.340
59.95000 133.878
60.12000 132.904
60.29000 141.919
60.46000 131.025
60.63000 126.084
60.80000 136.904
60.97000 134.878
61.14000 134.475
61.31000 131.735
61.48000 152.066
61.65000 241.610
61.82000 195.478
61.99000 144.198
62.16000 136.940
62.33000 136.680
62.50000 149.564
62.67000 145.540
62.84000 146.629
63.01000 140.441
63.18000 132.956
63.35000 144.834
63.52000 147.125
63.69000 147.815
63.86000 155.343
64.03000 152.382
64.20000 147.734
64.37000 156.034
64.54000 167.760
64.71000 161.652
64.88000 173.366
65.05000 188.425
65.22000 217.053
65.39000 263.945
65.56000 333.350
65.73000 613.199
65.90000 1045.613
66.07000 390.374
66.24000 325.745
66.41000 420.382
66.58000 343.438
66.75000 306.992
66.92000 333.575
67.09000 343.153
67.26000 366.647
67.43000 392.385
67.60000 409.326
67.77000 453.806
67.94000 488.032
68.11000 533.039
68.28000 598.522
68.45000 662.694
68.62000 931.494
68.79000 1714.623
68.96000 11403.346
69.13000 51606.160
69.30000 30230.418
69.47000 7067.201
69.64000 1137.455
69.81000 755.810
69.98000 646.650
70.00000 635.427