File: XRD/24-09-2025 Dep 3/XY Data/BTO_Mapping_Theta2Theta_24-09-2025_001_05_40-000_0-000.xy
20.00000 545.480
20.17000 570.123
20.34000 564.790
20.51000 576.922
20.68000 546.015
20.85000 544.672
21.02000 541.454
21.19000 562.677
21.36000 568.619
21.53000 548.672
21.70000 566.389
21.87000 598.224
22.04000 611.274
22.21000 595.735
22.38000 557.527
22.55000 524.243
22.72000 517.349
22.89000 524.728
23.06000 537.683
23.23000 527.387
23.40000 532.310
23.57000 516.840
23.74000 563.813
23.91000 555.958
24.08000 550.484
24.25000 529.843
24.42000 501.864
24.59000 482.196
24.76000 513.553
24.93000 492.376
25.10000 473.739
25.27000 501.396
25.44000 459.884
25.61000 463.599
25.78000 469.805
25.95000 455.852
26.12000 469.858
26.29000 445.910
26.46000 447.618
26.63000 440.462
26.80000 461.318
26.97000 439.615
27.14000 454.980
27.31000 427.647
27.48000 441.785
27.65000 461.916
27.82000 433.389
27.99000 443.371
28.16000 426.443
28.33000 453.960
28.50000 445.454
28.67000 437.563
28.84000 421.127
29.01000 410.354
29.18000 419.778
29.35000 412.164
29.52000 417.321
29.69000 422.678
29.86000 413.402
30.03000 427.079
30.20000 406.957
30.37000 406.485
30.54000 431.286
30.71000 450.629
30.88000 476.876
31.05000 536.165
31.22000 829.750
31.39000 1086.414
31.56000 877.622
31.73000 549.628
31.90000 458.768
32.07000 423.133
32.24000 405.760
32.41000 396.471
32.58000 379.514
32.75000 377.048
32.92000 482.958
33.09000 404.812
33.26000 359.538
33.43000 345.159
33.60000 342.421
33.77000 329.302
33.94000 359.115
34.11000 369.919
34.28000 384.685
34.45000 360.811
34.62000 351.034
34.79000 318.044
34.96000 330.252
35.13000 317.650
35.30000 320.435
35.47000 310.338
35.64000 318.102
35.81000 307.705
35.98000 315.238
36.15000 311.190
36.32000 302.238
36.49000 294.052
36.66000 319.587
36.83000 301.514
37.00000 309.821
37.17000 294.260
37.34000 298.777
37.51000 296.089
37.68000 293.376
37.85000 311.228
38.02000 304.269
38.19000 318.933
38.36000 389.081
38.53000 621.572
38.70000 948.722
38.87000 685.020
39.04000 361.500
39.21000 290.084
39.38000 292.441
39.55000 284.425
39.72000 267.088
39.89000 271.354
40.06000 268.141
40.23000 258.670
40.40000 264.581
40.57000 265.169
40.74000 248.984
40.91000 246.492
41.08000 234.051
41.25000 247.274
41.42000 246.151
41.59000 240.146
41.76000 249.176
41.93000 257.414
42.10000 239.046
42.27000 264.505
42.44000 248.796
42.61000 245.688
42.78000 234.156
42.95000 224.507
43.12000 230.000
43.29000 237.130
43.46000 238.311
43.63000 221.252
43.80000 240.277
43.97000 228.699
44.14000 236.071
44.31000 231.258
44.48000 234.283
44.65000 251.030
44.82000 257.614
44.99000 273.446
45.16000 273.677
45.33000 257.999
45.50000 229.452
45.67000 228.340
45.84000 212.023
46.01000 214.838
46.18000 201.838
46.35000 203.426
46.52000 199.851
46.69000 212.966
46.86000 196.859
47.03000 194.807
47.20000 195.661
47.37000 189.532
47.54000 198.552
47.71000 209.393
47.88000 185.290
48.05000 183.525
48.22000 172.938
48.39000 185.948
48.56000 193.440
48.73000 173.634
48.90000 183.707
49.07000 190.420
49.24000 176.440
49.41000 186.652
49.58000 182.191
49.75000 185.402
49.92000 168.661
50.09000 181.455
50.26000 185.781
50.43000 186.739
50.60000 192.723
50.77000 192.933
50.94000 182.349
51.11000 180.807
51.28000 163.745
51.45000 171.606
51.62000 175.144
51.79000 166.695
51.96000 170.191
52.13000 172.703
52.30000 162.243
52.47000 153.289
52.64000 161.753
52.81000 164.176
52.98000 161.480
53.15000 151.128
53.32000 167.037
53.49000 163.081
53.66000 156.605
53.83000 155.252
54.00000 161.296
54.17000 168.088
54.34000 158.813
54.51000 161.501
54.68000 158.421
54.85000 165.430
55.02000 173.445
55.19000 183.204
55.36000 189.793
55.53000 233.109
55.70000 329.779
55.87000 452.793
56.04000 441.076
56.21000 311.126
56.38000 230.628
56.55000 189.227
56.72000 172.090
56.89000 158.270
57.06000 162.712
57.23000 147.524
57.40000 143.015
57.57000 152.224
57.74000 144.459
57.91000 142.490
58.08000 138.070
58.25000 147.780
58.42000 142.611
58.59000 146.497
58.76000 129.992
58.93000 142.577
59.10000 131.979
59.27000 136.417
59.44000 141.034
59.61000 139.388
59.78000 134.136
59.95000 140.761
60.12000 134.128
60.29000 132.105
60.46000 132.266
60.63000 135.672
60.80000 133.134
60.97000 144.286
61.14000 138.567
61.31000 138.881
61.48000 140.320
61.65000 258.312
61.82000 197.871
61.99000 141.506
62.16000 140.941
62.33000 147.965
62.50000 144.399
62.67000 152.147
62.84000 146.045
63.01000 148.212
63.18000 140.257
63.35000 147.313
63.52000 149.556
63.69000 154.427
63.86000 150.913
64.03000 162.898
64.20000 160.867
64.37000 158.509
64.54000 157.065
64.71000 176.206
64.88000 176.344
65.05000 192.282
65.22000 200.186
65.39000 229.172
65.56000 251.152
65.73000 534.381
65.90000 1086.879
66.07000 366.702
66.24000 294.831
66.41000 433.412
66.58000 355.137
66.75000 324.563
66.92000 327.833
67.09000 343.477
67.26000 366.496
67.43000 399.188
67.60000 434.821
67.77000 457.669
67.94000 514.272
68.11000 538.302
68.28000 599.253
68.45000 687.607
68.62000 970.138
68.79000 1779.493
68.96000 10540.600
69.13000 53415.184
69.30000 31719.980
69.47000 7899.796
69.64000 1208.153
69.81000 795.127
69.98000 671.062
70.00000 649.667