File: XRD/24-09-2025 Dep 3/XY Data/BTO_Mapping_Theta2Theta_24-09-2025_001_18_-1-045_9-945.xy
20.00000 570.588
20.17000 555.040
20.34000 559.714
20.51000 562.874
20.68000 560.977
20.85000 536.010
21.02000 561.350
21.19000 554.451
21.36000 547.805
21.53000 548.940
21.70000 548.365
21.87000 583.770
22.04000 686.547
22.21000 662.290
22.38000 591.569
22.55000 541.709
22.72000 527.237
22.89000 516.000
23.06000 522.185
23.23000 512.199
23.40000 495.890
23.57000 502.457
23.74000 496.970
23.91000 490.660
24.08000 509.874
24.25000 489.122
24.42000 484.812
24.59000 485.162
24.76000 501.634
24.93000 487.812
25.10000 462.941
25.27000 487.741
25.44000 465.488
25.61000 461.399
25.78000 452.258
25.95000 457.776
26.12000 444.697
26.29000 429.668
26.46000 470.623
26.63000 435.179
26.80000 447.694
26.97000 437.648
27.14000 444.976
27.31000 440.158
27.48000 439.821
27.65000 441.640
27.82000 432.302
27.99000 425.311
28.16000 405.632
28.33000 435.426
28.50000 409.493
28.67000 416.241
28.84000 417.140
29.01000 434.220
29.18000 406.433
29.35000 416.255
29.52000 405.210
29.69000 416.053
29.86000 412.805
30.03000 451.396
30.20000 450.071
30.37000 432.185
30.54000 420.557
30.71000 448.358
30.88000 465.906
31.05000 661.271
31.22000 1693.240
31.39000 3143.179
31.56000 1942.002
31.73000 750.845
31.90000 475.047
32.07000 428.164
32.24000 401.783
32.41000 376.214
32.58000 378.981
32.75000 367.553
32.92000 475.985
33.09000 402.862
33.26000 344.122
33.43000 336.656
33.60000 352.699
33.77000 342.732
33.94000 336.772
34.11000 329.935
34.28000 317.575
34.45000 320.880
34.62000 320.907
34.79000 332.556
34.96000 313.209
35.13000 313.455
35.30000 315.703
35.47000 303.421
35.64000 313.401
35.81000 312.865
35.98000 315.642
36.15000 301.704
36.32000 298.075
36.49000 304.059
36.66000 304.947
36.83000 312.115
37.00000 312.587
37.17000 299.123
37.34000 288.027
37.51000 296.658
37.68000 292.341
37.85000 290.905
38.02000 304.979
38.19000 330.172
38.36000 388.331
38.53000 744.487
38.70000 1534.852
38.87000 1049.539
39.04000 416.500
39.21000 302.834
39.38000 280.702
39.55000 280.499
39.72000 267.253
39.89000 273.550
40.06000 253.972
40.23000 248.040
40.40000 258.294
40.57000 255.987
40.74000 251.450
40.91000 248.835
41.08000 235.553
41.25000 252.225
41.42000 257.286
41.59000 237.143
41.76000 247.705
41.93000 238.665
42.10000 240.263
42.27000 229.831
42.44000 231.070
42.61000 228.242
42.78000 208.952
42.95000 224.607
43.12000 221.576
43.29000 210.477
43.46000 229.453
43.63000 223.587
43.80000 231.213
43.97000 221.830
44.14000 218.458
44.31000 234.024
44.48000 234.417
44.65000 229.245
44.82000 249.907
44.99000 328.378
45.16000 331.939
45.33000 288.976
45.50000 256.402
45.67000 239.295
45.84000 246.826
46.01000 215.721
46.18000 193.787
46.35000 202.903
46.52000 201.593
46.69000 191.502
46.86000 216.157
47.03000 195.886
47.20000 199.199
47.37000 182.092
47.54000 192.971
47.71000 192.189
47.88000 181.790
48.05000 189.747
48.22000 186.422
48.39000 190.362
48.56000 175.952
48.73000 175.695
48.90000 186.008
49.07000 185.233
49.24000 182.858
49.41000 175.004
49.58000 181.801
49.75000 158.710
49.92000 163.890
50.09000 171.073
50.26000 177.243
50.43000 202.254
50.60000 227.396
50.77000 251.388
50.94000 221.286
51.11000 203.542
51.28000 161.841
51.45000 162.607
51.62000 167.687
51.79000 170.306
51.96000 167.812
52.13000 164.618
52.30000 157.958
52.47000 159.944
52.64000 158.587
52.81000 164.911
52.98000 159.010
53.15000 162.108
53.32000 159.326
53.49000 172.877
53.66000 162.153
53.83000 160.901
54.00000 157.703
54.17000 154.249
54.34000 157.691
54.51000 157.806
54.68000 156.530
54.85000 162.883
55.02000 156.461
55.19000 163.423
55.36000 167.262
55.53000 222.990
55.70000 370.947
55.87000 740.121
56.04000 806.359
56.21000 463.690
56.38000 240.860
56.55000 186.613
56.72000 165.703
56.89000 150.604
57.06000 157.860
57.23000 143.461
57.40000 144.927
57.57000 147.297
57.74000 142.314
57.91000 153.458
58.08000 136.228
58.25000 137.945
58.42000 140.817
58.59000 139.226
58.76000 131.972
58.93000 130.348
59.10000 131.489
59.27000 133.188
59.44000 129.340
59.61000 133.749
59.78000 139.688
59.95000 141.945
60.12000 136.970
60.29000 140.962
60.46000 131.764
60.63000 134.978
60.80000 123.427
60.97000 133.470
61.14000 140.189
61.31000 142.868
61.48000 137.387
61.65000 255.927
61.82000 207.027
61.99000 140.970
62.16000 150.756
62.33000 136.179
62.50000 141.742
62.67000 144.820
62.84000 139.364
63.01000 135.953
63.18000 150.793
63.35000 145.317
63.52000 138.140
63.69000 145.765
63.86000 149.187
64.03000 154.492
64.20000 155.287
64.37000 167.034
64.54000 166.851
64.71000 168.725
64.88000 191.179
65.05000 198.383
65.22000 234.525
65.39000 299.689
65.56000 382.787
65.73000 718.542
65.90000 1161.617
66.07000 407.278
66.24000 325.727
66.41000 455.150
66.58000 340.288
66.75000 319.950
66.92000 320.592
67.09000 339.605
67.26000 370.282
67.43000 387.263
67.60000 406.935
67.77000 445.599
67.94000 480.824
68.11000 547.114
68.28000 592.120
68.45000 686.204
68.62000 1019.969
68.79000 1879.672
68.96000 12377.883
69.13000 56202.109
69.30000 32958.887
69.47000 7835.834
69.64000 1209.903
69.81000 805.739
69.98000 663.011
70.00000 651.343