File: XRD/24-09-2025 Dep 3/XY Data/BTO_Mapping_Theta2Theta_24-09-2025_001_26_-8-090_5-878.xy
20.00000 585.284
20.17000 558.888
20.34000 568.818
20.51000 556.746
20.68000 562.631
20.85000 552.499
21.02000 557.203
21.19000 555.744
21.36000 554.109
21.53000 527.054
21.70000 582.569
21.87000 631.102
22.04000 756.122
22.21000 688.118
22.38000 585.656
22.55000 533.865
22.72000 529.668
22.89000 510.192
23.06000 520.782
23.23000 501.681
23.40000 505.751
23.57000 525.042
23.74000 510.945
23.91000 514.291
24.08000 497.223
24.25000 488.606
24.42000 488.792
24.59000 476.671
24.76000 483.763
24.93000 490.636
25.10000 491.315
25.27000 472.628
25.44000 462.117
25.61000 461.688
25.78000 469.202
25.95000 467.705
26.12000 438.428
26.29000 463.276
26.46000 445.110
26.63000 458.262
26.80000 444.993
26.97000 453.990
27.14000 442.472
27.31000 450.071
27.48000 431.999
27.65000 447.471
27.82000 416.744
27.99000 432.929
28.16000 435.324
28.33000 463.704
28.50000 421.319
28.67000 425.457
28.84000 419.824
29.01000 418.362
29.18000 416.081
29.35000 413.114
29.52000 399.310
29.69000 428.160
29.86000 441.971
30.03000 455.637
30.20000 441.085
30.37000 433.700
30.54000 443.313
30.71000 445.973
30.88000 485.179
31.05000 763.986
31.22000 2057.890
31.39000 3690.915
31.56000 2061.090
31.73000 728.433
31.90000 486.706
32.07000 417.510
32.24000 398.033
32.41000 387.390
32.58000 394.729
32.75000 387.015
32.92000 539.207
33.09000 420.880
33.26000 341.457
33.43000 341.784
33.60000 346.718
33.77000 351.583
33.94000 335.377
34.11000 344.149
34.28000 338.077
34.45000 327.201
34.62000 310.075
34.79000 325.122
34.96000 314.307
35.13000 328.834
35.30000 309.906
35.47000 319.910
35.64000 320.570
35.81000 319.758
35.98000 313.579
36.15000 300.216
36.32000 293.642
36.49000 306.057
36.66000 299.273
36.83000 313.169
37.00000 313.739
37.17000 303.269
37.34000 291.269
37.51000 300.552
37.68000 286.622
37.85000 305.911
38.02000 299.772
38.19000 317.281
38.36000 388.456
38.53000 823.989
38.70000 1407.760
38.87000 892.439
39.04000 387.874
39.21000 302.539
39.38000 291.842
39.55000 274.205
39.72000 278.244
39.89000 254.665
40.06000 261.141
40.23000 266.397
40.40000 262.281
40.57000 255.210
40.74000 255.507
40.91000 260.519
41.08000 251.029
41.25000 226.604
41.42000 242.203
41.59000 226.555
41.76000 240.129
41.93000 232.587
42.10000 234.959
42.27000 237.554
42.44000 233.620
42.61000 231.862
42.78000 225.021
42.95000 207.912
43.12000 240.358
43.29000 232.184
43.46000 227.225
43.63000 224.113
43.80000 229.016
43.97000 227.835
44.14000 231.116
44.31000 229.891
44.48000 215.181
44.65000 229.108
44.82000 283.140
44.99000 378.770
45.16000 392.280
45.33000 310.272
45.50000 255.262
45.67000 241.814
45.84000 232.777
46.01000 226.949
46.18000 204.843
46.35000 203.513
46.52000 213.088
46.69000 211.573
46.86000 201.321
47.03000 212.513
47.20000 195.648
47.37000 196.271
47.54000 189.799
47.71000 185.117
47.88000 185.770
48.05000 183.137
48.22000 170.291
48.39000 176.674
48.56000 180.970
48.73000 172.955
48.90000 175.896
49.07000 169.871
49.24000 192.874
49.41000 171.156
49.58000 187.671
49.75000 177.086
49.92000 176.631
50.09000 183.369
50.26000 186.632
50.43000 204.624
50.60000 264.968
50.77000 263.941
50.94000 218.697
51.11000 183.844
51.28000 174.405
51.45000 167.201
51.62000 149.464
51.79000 171.958
51.96000 163.383
52.13000 163.405
52.30000 166.791
52.47000 161.724
52.64000 147.242
52.81000 160.175
52.98000 154.429
53.15000 159.445
53.32000 167.115
53.49000 159.819
53.66000 157.590
53.83000 157.830
54.00000 168.828
54.17000 168.189
54.34000 162.782
54.51000 153.218
54.68000 166.164
54.85000 150.254
55.02000 162.883
55.19000 170.507
55.36000 177.531
55.53000 231.804
55.70000 422.163
55.87000 762.010
56.04000 724.766
56.21000 397.674
56.38000 237.576
56.55000 179.711
56.72000 168.103
56.89000 155.816
57.06000 147.361
57.23000 153.909
57.40000 147.885
57.57000 140.262
57.74000 138.962
57.91000 148.687
58.08000 139.705
58.25000 144.159
58.42000 139.668
58.59000 135.209
58.76000 139.894
58.93000 136.082
59.10000 138.945
59.27000 142.448
59.44000 134.249
59.61000 130.109
59.78000 140.822
59.95000 136.558
60.12000 129.215
60.29000 131.165
60.46000 139.222
60.63000 138.631
60.80000 135.283
60.97000 140.826
61.14000 132.270
61.31000 138.399
61.48000 145.861
61.65000 278.637
61.82000 204.370
61.99000 140.674
62.16000 142.057
62.33000 146.799
62.50000 147.988
62.67000 140.499
62.84000 147.893
63.01000 135.577
63.18000 142.393
63.35000 153.709
63.52000 145.248
63.69000 156.777
63.86000 138.183
64.03000 159.919
64.20000 150.595
64.37000 160.325
64.54000 178.311
64.71000 178.310
64.88000 179.321
65.05000 196.045
65.22000 280.755
65.39000 349.038
65.56000 448.237
65.73000 793.124
65.90000 1213.836
66.07000 440.708
66.24000 328.253
66.41000 470.268
66.58000 369.665
66.75000 309.657
66.92000 334.675
67.09000 353.940
67.26000 381.913
67.43000 408.161
67.60000 452.269
67.77000 461.700
67.94000 494.905
68.11000 553.896
68.28000 621.321
68.45000 707.828
68.62000 1064.358
68.79000 2087.319
68.96000 14575.794
69.13000 62276.219
69.30000 36190.766
69.47000 8451.619
69.64000 1243.723
69.81000 831.577
69.98000 684.041
70.00000 669.827