File: XRD/24-09-2025 Dep 3/XY Data/BTO_Mapping_Theta2Theta_24-09-2025_001_29_-32-361_23-511.xy
20.00000 570.227
20.17000 554.053
20.34000 560.098
20.51000 566.727
20.68000 576.711
20.85000 558.102
21.02000 559.058
21.19000 563.259
21.36000 560.239
21.53000 561.707
21.70000 592.553
21.87000 797.465
22.04000 1008.132
22.21000 717.234
22.38000 580.533
22.55000 537.121
22.72000 523.516
22.89000 519.055
23.06000 501.039
23.23000 495.016
23.40000 512.014
23.57000 505.022
23.74000 486.085
23.91000 495.445
24.08000 493.716
24.25000 489.284
24.42000 479.455
24.59000 477.518
24.76000 481.911
24.93000 482.415
25.10000 489.833
25.27000 459.828
25.44000 470.257
25.61000 451.307
25.78000 471.189
25.95000 473.809
26.12000 462.933
26.29000 490.302
26.46000 442.228
26.63000 443.587
26.80000 449.596
26.97000 453.490
27.14000 466.549
27.31000 440.283
27.48000 439.077
27.65000 432.746
27.82000 420.314
27.99000 441.950
28.16000 440.132
28.33000 454.589
28.50000 444.657
28.67000 441.879
28.84000 427.064
29.01000 424.209
29.18000 426.401
29.35000 414.572
29.52000 419.105
29.69000 424.545
29.86000 472.688
30.03000 462.158
30.20000 459.076
30.37000 449.433
30.54000 457.963
30.71000 475.900
30.88000 537.487
31.05000 880.840
31.22000 2808.083
31.39000 4382.504
31.56000 1965.934
31.73000 717.831
31.90000 471.868
32.07000 444.181
32.24000 417.248
32.41000 403.489
32.58000 383.409
32.75000 394.380
32.92000 661.290
33.09000 495.593
33.26000 383.389
33.43000 342.987
33.60000 340.198
33.77000 361.212
33.94000 339.859
34.11000 349.026
34.28000 330.649
34.45000 343.357
34.62000 333.563
34.79000 324.499
34.96000 327.603
35.13000 322.146
35.30000 307.303
35.47000 317.631
35.64000 319.000
35.81000 309.574
35.98000 311.855
36.15000 317.356
36.32000 317.678
36.49000 303.080
36.66000 295.647
36.83000 308.917
37.00000 313.559
37.17000 283.548
37.34000 297.312
37.51000 297.494
37.68000 293.882
37.85000 281.856
38.02000 289.954
38.19000 307.965
38.36000 362.358
38.53000 638.908
38.70000 866.979
38.87000 521.880
39.04000 345.535
39.21000 289.563
39.38000 280.275
39.55000 267.797
39.72000 272.934
39.89000 254.275
40.06000 263.444
40.23000 267.195
40.40000 259.826
40.57000 257.717
40.74000 265.803
40.91000 261.424
41.08000 239.142
41.25000 232.195
41.42000 255.407
41.59000 246.706
41.76000 245.539
41.93000 230.309
42.10000 241.546
42.27000 237.189
42.44000 234.977
42.61000 233.162
42.78000 236.495
42.95000 231.423
43.12000 218.033
43.29000 222.196
43.46000 230.111
43.63000 223.250
43.80000 208.705
43.97000 227.418
44.14000 223.224
44.31000 241.227
44.48000 251.370
44.65000 328.213
44.82000 515.550
44.99000 630.199
45.16000 463.963
45.33000 305.252
45.50000 271.064
45.67000 254.260
45.84000 228.410
46.01000 208.436
46.18000 213.070
46.35000 218.029
46.52000 209.961
46.69000 202.607
46.86000 187.125
47.03000 203.127
47.20000 199.962
47.37000 197.183
47.54000 186.783
47.71000 200.478
47.88000 177.756
48.05000 190.304
48.22000 188.467
48.39000 178.829
48.56000 195.021
48.73000 189.163
48.90000 186.276
49.07000 186.105
49.24000 183.589
49.41000 184.148
49.58000 186.034
49.75000 173.828
49.92000 180.793
50.09000 188.489
50.26000 196.551
50.43000 233.441
50.60000 301.733
50.77000 269.981
50.94000 221.277
51.11000 204.362
51.28000 182.721
51.45000 169.738
51.62000 172.800
51.79000 163.087
51.96000 167.029
52.13000 161.968
52.30000 157.250
52.47000 166.071
52.64000 165.401
52.81000 151.600
52.98000 150.856
53.15000 158.775
53.32000 177.335
53.49000 164.769
53.66000 161.088
53.83000 154.656
54.00000 167.420
54.17000 164.812
54.34000 158.076
54.51000 170.798
54.68000 170.438
54.85000 164.494
55.02000 170.954
55.19000 167.780
55.36000 184.569
55.53000 277.418
55.70000 557.311
55.87000 844.433
56.04000 648.836
56.21000 364.081
56.38000 210.365
56.55000 165.252
56.72000 154.275
56.89000 166.904
57.06000 150.354
57.23000 141.247
57.40000 146.782
57.57000 145.087
57.74000 144.574
57.91000 142.375
58.08000 147.066
58.25000 139.721
58.42000 146.751
58.59000 142.215
58.76000 132.786
58.93000 135.847
59.10000 134.037
59.27000 128.940
59.44000 131.845
59.61000 127.705
59.78000 145.010
59.95000 140.019
60.12000 138.970
60.29000 129.559
60.46000 133.838
60.63000 130.758
60.80000 133.965
60.97000 130.492
61.14000 132.771
61.31000 131.575
61.48000 148.011
61.65000 360.514
61.82000 260.452
61.99000 144.674
62.16000 145.611
62.33000 143.194
62.50000 143.991
62.67000 135.191
62.84000 145.038
63.01000 148.624
63.18000 147.694
63.35000 149.140
63.52000 157.963
63.69000 156.852
63.86000 160.697
64.03000 174.162
64.20000 166.692
64.37000 169.344
64.54000 169.198
64.71000 184.335
64.88000 182.433
65.05000 225.697
65.22000 310.325
65.39000 425.796
65.56000 501.376
65.73000 979.887
65.90000 1778.627
66.07000 537.599
66.24000 397.642
66.41000 623.118
66.58000 418.361
66.75000 355.746
66.92000 378.698
67.09000 403.010
67.26000 453.031
67.43000 473.896
67.60000 500.639
67.77000 542.987
67.94000 617.636
68.11000 656.308
68.28000 752.444
68.45000 891.065
68.62000 1367.405
68.79000 2722.347
68.96000 22247.535
69.13000 94207.789
69.30000 56745.098
69.47000 14003.481
69.64000 1653.713
69.81000 1073.276
69.98000 799.759
70.00000 796.042