File: XRD/24-09-2025 Dep 3/XY Data/BTO_Mapping_Theta2Theta_24-09-2025_001_40_-24-271_-17-634.xy
20.00000 557.815
20.17000 559.920
20.34000 535.814
20.51000 572.959
20.68000 564.247
20.85000 555.800
21.02000 550.331
21.19000 537.027
21.36000 542.109
21.53000 570.101
21.70000 580.084
21.87000 817.826
22.04000 953.175
22.21000 718.543
22.38000 564.875
22.55000 548.793
22.72000 528.080
22.89000 524.455
23.06000 529.762
23.23000 528.279
23.40000 494.351
23.57000 517.732
23.74000 493.051
23.91000 499.331
24.08000 493.266
24.25000 482.743
24.42000 494.109
24.59000 468.987
24.76000 476.944
24.93000 496.894
25.10000 478.023
25.27000 485.803
25.44000 463.562
25.61000 463.987
25.78000 465.692
25.95000 479.285
26.12000 463.680
26.29000 456.105
26.46000 463.026
26.63000 453.739
26.80000 460.584
26.97000 440.499
27.14000 447.508
27.31000 449.348
27.48000 455.445
27.65000 442.044
27.82000 444.222
27.99000 449.264
28.16000 442.175
28.33000 434.562
28.50000 427.300
28.67000 424.133
28.84000 408.208
29.01000 411.417
29.18000 430.193
29.35000 415.095
29.52000 409.279
29.69000 414.773
29.86000 435.512
30.03000 455.043
30.20000 431.814
30.37000 431.322
30.54000 436.009
30.71000 445.509
30.88000 521.419
31.05000 869.883
31.22000 2417.087
31.39000 3569.773
31.56000 1699.452
31.73000 677.323
31.90000 469.236
32.07000 414.079
32.24000 402.041
32.41000 399.519
32.58000 389.823
32.75000 398.745
32.92000 610.863
33.09000 465.929
33.26000 363.031
33.43000 361.428
33.60000 339.655
33.77000 343.617
33.94000 338.243
34.11000 346.586
34.28000 314.931
34.45000 323.138
34.62000 336.950
34.79000 321.545
34.96000 301.406
35.13000 315.926
35.30000 313.210
35.47000 317.825
35.64000 322.120
35.81000 305.607
35.98000 303.592
36.15000 301.837
36.32000 296.307
36.49000 289.872
36.66000 286.783
36.83000 311.831
37.00000 298.040
37.17000 306.526
37.34000 295.420
37.51000 312.142
37.68000 294.434
37.85000 307.009
38.02000 295.084
38.19000 312.061
38.36000 422.747
38.53000 816.506
38.70000 1056.791
38.87000 603.935
39.04000 339.455
39.21000 291.411
39.38000 280.387
39.55000 278.968
39.72000 265.306
39.89000 257.016
40.06000 253.601
40.23000 262.669
40.40000 254.512
40.57000 248.451
40.74000 254.591
40.91000 259.831
41.08000 240.808
41.25000 251.661
41.42000 248.900
41.59000 232.615
41.76000 238.284
41.93000 232.145
42.10000 233.656
42.27000 234.497
42.44000 242.883
42.61000 234.596
42.78000 228.355
42.95000 233.763
43.12000 216.992
43.29000 240.543
43.46000 226.804
43.63000 223.170
43.80000 228.564
43.97000 231.576
44.14000 221.712
44.31000 236.412
44.48000 240.183
44.65000 291.600
44.82000 445.860
44.99000 598.305
45.16000 466.972
45.33000 338.863
45.50000 281.894
45.67000 237.706
45.84000 232.033
46.01000 215.275
46.18000 213.145
46.35000 195.472
46.52000 208.178
46.69000 191.093
46.86000 189.022
47.03000 200.712
47.20000 200.108
47.37000 190.008
47.54000 190.606
47.71000 188.951
47.88000 181.471
48.05000 189.891
48.22000 191.707
48.39000 196.507
48.56000 182.679
48.73000 180.350
48.90000 173.366
49.07000 192.600
49.24000 185.021
49.41000 169.835
49.58000 174.502
49.75000 179.347
49.92000 178.920
50.09000 185.926
50.26000 189.597
50.43000 231.308
50.60000 292.141
50.77000 254.867
50.94000 213.451
51.11000 190.972
51.28000 180.427
51.45000 177.492
51.62000 162.529
51.79000 165.751
51.96000 169.593
52.13000 164.060
52.30000 166.549
52.47000 160.770
52.64000 163.724
52.81000 164.057
52.98000 160.249
53.15000 161.902
53.32000 169.710
53.49000 161.831
53.66000 153.800
53.83000 166.599
54.00000 161.910
54.17000 154.915
54.34000 156.795
54.51000 165.142
54.68000 163.884
54.85000 163.407
55.02000 168.303
55.19000 176.645
55.36000 197.383
55.53000 273.605
55.70000 566.776
55.87000 892.091
56.04000 694.285
56.21000 353.210
56.38000 212.793
56.55000 184.032
56.72000 161.222
56.89000 152.947
57.06000 158.102
57.23000 141.526
57.40000 156.550
57.57000 150.178
57.74000 140.555
57.91000 143.684
58.08000 131.765
58.25000 151.166
58.42000 139.994
58.59000 144.897
58.76000 144.450
58.93000 142.263
59.10000 146.407
59.27000 139.589
59.44000 137.673
59.61000 133.478
59.78000 129.026
59.95000 134.779
60.12000 138.677
60.29000 135.774
60.46000 127.044
60.63000 134.346
60.80000 134.411
60.97000 136.432
61.14000 130.595
61.31000 141.227
61.48000 165.316
61.65000 326.851
61.82000 219.982
61.99000 144.213
62.16000 155.012
62.33000 152.010
62.50000 137.040
62.67000 142.105
62.84000 155.256
63.01000 148.888
63.18000 145.870
63.35000 145.045
63.52000 150.194
63.69000 152.662
63.86000 153.445
64.03000 149.466
64.20000 167.469
64.37000 168.275
64.54000 178.278
64.71000 175.917
64.88000 197.812
65.05000 227.609
65.22000 292.067
65.39000 369.281
65.56000 451.790
65.73000 920.174
65.90000 1572.750
66.07000 462.573
66.24000 381.446
66.41000 540.335
66.58000 398.282
66.75000 345.675
66.92000 359.566
67.09000 410.210
67.26000 409.337
67.43000 449.319
67.60000 486.890
67.77000 542.225
67.94000 558.280
68.11000 619.738
68.28000 709.774
68.45000 816.481
68.62000 1258.411
68.79000 2477.137
68.96000 20903.086
69.13000 82778.422
69.30000 48436.309
69.47000 11327.593
69.64000 1490.289
69.81000 966.862
69.98000 749.183
70.00000 750.374