File: XRD/XRD/25-09-2025/XY Data/BTO_Mapping_Theta2Theta_25-09-2025_001_18_-1-045_9-945.xy
20.00000 555.833
20.17000 555.074
20.34000 568.391
20.51000 533.596
20.68000 544.464
20.85000 541.715
21.02000 532.858
21.19000 537.458
21.36000 568.449
21.53000 532.284
21.70000 535.901
21.87000 549.438
22.04000 601.801
22.21000 641.199
22.38000 577.647
22.55000 574.296
22.72000 530.881
22.89000 518.465
23.06000 514.197
23.23000 497.561
23.40000 504.195
23.57000 488.336
23.74000 501.408
23.91000 506.019
24.08000 490.298
24.25000 482.598
24.42000 469.209
24.59000 482.300
24.76000 480.097
24.93000 472.888
25.10000 482.072
25.27000 460.677
25.44000 453.065
25.61000 434.562
25.78000 455.405
25.95000 468.684
26.12000 455.802
26.29000 454.336
26.46000 455.389
26.63000 425.208
26.80000 445.607
26.97000 444.319
27.14000 441.966
27.31000 443.085
27.48000 441.926
27.65000 418.840
27.82000 419.916
27.99000 424.806
28.16000 416.363
28.33000 413.933
28.50000 413.239
28.67000 412.490
28.84000 402.726
29.01000 418.482
29.18000 412.530
29.35000 409.011
29.52000 387.815
29.69000 392.491
29.86000 418.979
30.03000 405.652
30.20000 407.639
30.37000 400.297
30.54000 401.032
30.71000 420.961
30.88000 434.822
31.05000 526.871
31.22000 945.540
31.39000 1463.911
31.56000 1041.266
31.73000 563.279
31.90000 431.067
32.07000 383.784
32.24000 379.643
32.41000 371.725
32.58000 372.393
32.75000 360.882
32.92000 359.799
33.09000 347.088
33.26000 348.098
33.43000 327.873
33.60000 322.525
33.77000 330.822
33.94000 335.768
34.11000 337.775
34.28000 327.344
34.45000 331.700
34.62000 324.736
34.79000 310.985
34.96000 302.917
35.13000 309.084
35.30000 309.914
35.47000 297.957
35.64000 300.146
35.81000 287.643
35.98000 306.185
36.15000 293.661
36.32000 296.208
36.49000 285.852
36.66000 292.790
36.83000 290.824
37.00000 303.603
37.17000 296.214
37.34000 275.287
37.51000 275.361
37.68000 298.268
37.85000 281.681
38.02000 291.266
38.19000 276.852
38.36000 331.495
38.53000 487.171
38.70000 818.481
38.87000 626.505
39.04000 344.849
39.21000 278.168
39.38000 284.413
39.55000 255.353
39.72000 238.765
39.89000 268.027
40.06000 277.969
40.23000 250.897
40.40000 253.910
40.57000 243.801
40.74000 244.985
40.91000 251.251
41.08000 246.548
41.25000 237.184
41.42000 249.109
41.59000 234.553
41.76000 227.578
41.93000 229.921
42.10000 224.435
42.27000 236.667
42.44000 233.023
42.61000 229.812
42.78000 227.922
42.95000 235.499
43.12000 211.999
43.29000 215.805
43.46000 228.949
43.63000 233.837
43.80000 212.814
43.97000 210.851
44.14000 218.020
44.31000 207.127
44.48000 220.988
44.65000 233.752
44.82000 242.365
44.99000 250.255
45.16000 252.466
45.33000 262.612
45.50000 262.623
45.67000 243.099
45.84000 241.118
46.01000 206.707
46.18000 214.430
46.35000 201.946
46.52000 211.942
46.69000 211.025
46.86000 196.014
47.03000 186.453
47.20000 187.782
47.37000 185.741
47.54000 180.135
47.71000 180.946
47.88000 179.637
48.05000 175.694
48.22000 180.653
48.39000 181.060
48.56000 175.679
48.73000 177.095
48.90000 177.624
49.07000 180.515
49.24000 167.177
49.41000 172.719
49.58000 173.503
49.75000 168.162
49.92000 184.214
50.09000 181.440
50.26000 169.985
50.43000 188.595
50.60000 189.308
50.77000 210.806
50.94000 187.574
51.11000 175.791
51.28000 172.740
51.45000 164.656
51.62000 158.772
51.79000 166.675
51.96000 159.695
52.13000 158.808
52.30000 161.186
52.47000 157.466
52.64000 169.888
52.81000 154.071
52.98000 146.958
53.15000 148.392
53.32000 160.459
53.49000 152.452
53.66000 147.834
53.83000 166.014
54.00000 163.021
54.17000 138.344
54.34000 154.837
54.51000 159.917
54.68000 162.636
54.85000 150.627
55.02000 149.234
55.19000 154.463
55.36000 172.533
55.53000 185.148
55.70000 284.140
55.87000 433.134
56.04000 465.447
56.21000 321.689
56.38000 220.858
56.55000 167.503
56.72000 153.389
56.89000 146.389
57.06000 149.287
57.23000 143.768
57.40000 145.605
57.57000 136.199
57.74000 134.060
57.91000 146.321
58.08000 144.030
58.25000 124.494
58.42000 140.686
58.59000 135.817
58.76000 135.181
58.93000 125.780
59.10000 134.456
59.27000 132.316
59.44000 122.129
59.61000 132.913
59.78000 136.221
59.95000 135.316
60.12000 136.097
60.29000 133.359
60.46000 129.128
60.63000 130.219
60.80000 129.735
60.97000 134.931
61.14000 131.690
61.31000 138.272
61.48000 140.339
61.65000 259.366
61.82000 196.255
61.99000 142.193
62.16000 128.758
62.33000 132.173
62.50000 132.478
62.67000 146.272
62.84000 146.704
63.01000 142.223
63.18000 151.283
63.35000 157.168
63.52000 146.512
63.69000 144.031
63.86000 150.911
64.03000 156.272
64.20000 155.493
64.37000 168.766
64.54000 160.551
64.71000 172.484
64.88000 181.251
65.05000 187.454
65.22000 215.985
65.39000 248.040
65.56000 295.260
65.73000 598.505
65.90000 1064.519
66.07000 374.489
66.24000 305.395
66.41000 438.985
66.58000 356.082
66.75000 327.542
66.92000 356.300
67.09000 368.658
67.26000 375.695
67.43000 390.705
67.60000 432.423
67.77000 488.130
67.94000 517.611
68.11000 538.639
68.28000 620.723
68.45000 729.082
68.62000 1036.474
68.79000 1932.744
68.96000 12163.573
69.13000 54868.340
69.30000 32144.766
69.47000 7592.082
69.64000 1265.041
69.81000 837.585
69.98000 672.152
70.00000 654.498