File: XRD/XRD/25-09-2025/XY Data/BTO_Mapping_Theta2Theta_25-09-2025_001_53_12-361_-38-042.xy
20.00000 582.406
20.17000 573.402
20.34000 562.679
20.51000 546.591
20.68000 563.846
20.85000 535.566
21.02000 563.416
21.19000 508.498
21.36000 544.517
21.53000 553.122
21.70000 556.915
21.87000 565.320
22.04000 595.340
22.21000 617.642
22.38000 589.654
22.55000 550.595
22.72000 521.666
22.89000 521.344
23.06000 486.935
23.23000 495.269
23.40000 499.585
23.57000 501.665
23.74000 505.233
23.91000 479.513
24.08000 494.441
24.25000 492.512
24.42000 472.638
24.59000 470.553
24.76000 457.357
24.93000 465.833
25.10000 469.585
25.27000 476.869
25.44000 463.172
25.61000 456.887
25.78000 476.637
25.95000 470.094
26.12000 450.256
26.29000 436.850
26.46000 450.353
26.63000 433.102
26.80000 443.000
26.97000 434.373
27.14000 433.487
27.31000 420.271
27.48000 407.581
27.65000 436.439
27.82000 439.221
27.99000 433.869
28.16000 425.438
28.33000 413.558
28.50000 425.608
28.67000 414.294
28.84000 413.820
29.01000 416.417
29.18000 388.786
29.35000 396.533
29.52000 397.523
29.69000 391.439
29.86000 406.044
30.03000 404.346
30.20000 394.651
30.37000 411.531
30.54000 403.110
30.71000 425.534
30.88000 425.699
31.05000 518.625
31.22000 903.418
31.39000 1404.247
31.56000 1000.520
31.73000 558.420
31.90000 443.014
32.07000 399.931
32.24000 387.896
32.41000 367.860
32.58000 385.846
32.75000 354.508
32.92000 376.783
33.09000 350.943
33.26000 342.878
33.43000 327.308
33.60000 332.330
33.77000 343.800
33.94000 328.789
34.11000 325.737
34.28000 321.289
34.45000 301.905
34.62000 322.375
34.79000 312.978
34.96000 308.663
35.13000 326.126
35.30000 308.416
35.47000 317.830
35.64000 305.379
35.81000 303.249
35.98000 297.259
36.15000 281.163
36.32000 284.805
36.49000 286.062
36.66000 287.149
36.83000 290.602
37.00000 293.344
37.17000 297.886
37.34000 285.985
37.51000 294.796
37.68000 286.184
37.85000 282.683
38.02000 289.022
38.19000 287.683
38.36000 319.527
38.53000 466.440
38.70000 789.085
38.87000 682.443
39.04000 356.120
39.21000 280.044
39.38000 270.984
39.55000 274.493
39.72000 253.416
39.89000 256.964
40.06000 254.414
40.23000 261.735
40.40000 264.794
40.57000 243.612
40.74000 256.257
40.91000 241.240
41.08000 247.854
41.25000 236.911
41.42000 235.269
41.59000 235.161
41.76000 232.613
41.93000 231.920
42.10000 242.991
42.27000 226.612
42.44000 230.673
42.61000 234.834
42.78000 213.322
42.95000 215.648
43.12000 235.833
43.29000 227.392
43.46000 235.481
43.63000 229.032
43.80000 219.898
43.97000 211.227
44.14000 225.027
44.31000 222.502
44.48000 208.161
44.65000 226.333
44.82000 240.295
44.99000 251.384
45.16000 263.357
45.33000 258.698
45.50000 258.859
45.67000 236.955
45.84000 239.030
46.01000 228.169
46.18000 203.790
46.35000 203.068
46.52000 202.540
46.69000 202.232
46.86000 199.825
47.03000 193.712
47.20000 193.729
47.37000 189.184
47.54000 187.748
47.71000 180.203
47.88000 182.654
48.05000 184.119
48.22000 172.987
48.39000 178.383
48.56000 172.846
48.73000 181.167
48.90000 177.338
49.07000 173.750
49.24000 181.342
49.41000 163.787
49.58000 178.509
49.75000 173.450
49.92000 178.059
50.09000 183.721
50.26000 175.492
50.43000 191.497
50.60000 197.627
50.77000 190.334
50.94000 196.255
51.11000 181.075
51.28000 168.832
51.45000 163.925
51.62000 145.643
51.79000 160.745
51.96000 161.639
52.13000 167.094
52.30000 153.016
52.47000 153.884
52.64000 154.761
52.81000 165.776
52.98000 159.186
53.15000 157.752
53.32000 153.640
53.49000 153.684
53.66000 160.176
53.83000 157.522
54.00000 146.981
54.17000 155.445
54.34000 156.231
54.51000 155.670
54.68000 142.246
54.85000 154.652
55.02000 150.618
55.19000 162.319
55.36000 152.429
55.53000 183.560
55.70000 272.020
55.87000 423.481
56.04000 423.351
56.21000 318.451
56.38000 222.675
56.55000 171.590
56.72000 158.557
56.89000 150.052
57.06000 145.337
57.23000 139.070
57.40000 143.765
57.57000 144.527
57.74000 143.499
57.91000 136.419
58.08000 136.590
58.25000 136.024
58.42000 144.317
58.59000 139.190
58.76000 149.038
58.93000 131.410
59.10000 138.891
59.27000 135.079
59.44000 129.519
59.61000 135.473
59.78000 136.018
59.95000 139.000
60.12000 147.402
60.29000 121.482
60.46000 128.905
60.63000 133.947
60.80000 138.481
60.97000 133.934
61.14000 139.673
61.31000 139.646
61.48000 132.979
61.65000 252.661
61.82000 197.393
61.99000 130.834
62.16000 142.879
62.33000 131.773
62.50000 135.674
62.67000 145.292
62.84000 145.807
63.01000 142.881
63.18000 144.214
63.35000 144.095
63.52000 148.642
63.69000 139.919
63.86000 150.463
64.03000 166.302
64.20000 162.600
64.37000 154.158
64.54000 163.853
64.71000 171.229
64.88000 182.440
65.05000 195.978
65.22000 213.289
65.39000 236.457
65.56000 284.045
65.73000 547.572
65.90000 1071.394
66.07000 385.991
66.24000 325.712
66.41000 433.811
66.58000 344.227
66.75000 327.807
66.92000 333.768
67.09000 356.062
67.26000 391.275
67.43000 416.503
67.60000 453.213
67.77000 466.375
67.94000 509.426
68.11000 579.578
68.28000 632.942
68.45000 720.640
68.62000 985.383
68.79000 1884.378
68.96000 10382.109
69.13000 54291.422
69.30000 32970.266
69.47000 8549.738
69.64000 1217.561
69.81000 814.552
69.98000 679.416
70.00000 666.407