File: XRD/XRD/25-09-2025/XY Data/BTO_fwhm_results.csv
X Coordinates,Y Coordinates,FWHM
-39.126,-8.316,0.339021
-39.126,8.316,0.372551
-32.361,-23.511,0.348345
-32.361,23.511,0.385989
-29.344,-6.237,0.375501
-29.344,6.237,0.389666
-24.271,-17.634,0.382802
-24.271,17.634,0.3865
-20.0,-34.641,0.388516
-20.0,34.641,0.364898
-19.563,-4.158,0.392009
-19.563,4.158,0.397063
-16.18,-11.756,0.388421
-16.18,11.756,0.387019
-15.0,-25.981,0.396867
-15.0,25.981,0.378102
-10.0,-17.321,0.392194
-10.0,17.321,0.380524
-9.781,-2.079,0.37431
-9.781,2.079,0.388462
-8.09,-5.878,0.389553
-8.09,5.878,0.382511
-5.0,-8.66,0.382584
-5.0,8.66,0.384687
-4.181,-39.781,0.391188
-4.181,39.781,0.375864
-3.136,-29.836,0.391357
-3.136,29.836,0.376718
-2.091,-19.89,0.37806
-2.091,19.89,0.376315
-1.045,-9.945,0.393567
-1.045,9.945,0.369249
0.0,0.0,0.374667
3.09,-9.511,0.388375
3.09,9.511,0.36157
6.18,-19.021,0.387998
6.18,19.021,0.389631
6.691,-7.431,0.389031
6.691,7.431,0.382753
9.135,-4.067,0.375878
9.135,4.067,0.385214
9.271,-28.532,0.385458
9.271,28.532,0.381024
10.0,0.0,0.365445
12.361,-38.042,0.373093
12.361,38.042,0.403956
13.383,-14.863,0.363071
13.383,14.863,0.387225
18.271,-8.135,0.378462
18.271,8.135,0.379778
20.0,0.0,0.390602
20.074,-22.294,0.38462
20.074,22.294,0.393572
26.765,-29.726,0.370338
26.765,29.726,0.381137
27.406,-12.202,0.395814
27.406,12.202,0.397534
30.0,0.0,0.395362
36.542,-16.269,0.398309
36.542,16.269,0.418207
40.0,0.0,0.403582