File: XRD/XRD/25-09-2025/XY Data/BTO_Mapping_Theta2Theta_25-09-2025_001_10_6-691_7-431.xy
20.00000 565.129
20.17000 572.606
20.34000 573.214
20.51000 537.062
20.68000 547.591
20.85000 536.490
21.02000 533.239
21.19000 571.128
21.36000 580.545
21.53000 569.676
21.70000 538.834
21.87000 566.969
22.04000 591.901
22.21000 602.169
22.38000 588.414
22.55000 545.533
22.72000 524.707
22.89000 493.767
23.06000 504.789
23.23000 518.455
23.40000 517.580
23.57000 497.781
23.74000 469.696
23.91000 489.993
24.08000 481.747
24.25000 483.192
24.42000 471.359
24.59000 475.734
24.76000 467.217
24.93000 466.134
25.10000 461.420
25.27000 479.292
25.44000 453.232
25.61000 457.436
25.78000 447.175
25.95000 451.988
26.12000 465.725
26.29000 439.702
26.46000 438.542
26.63000 445.732
26.80000 456.629
26.97000 446.511
27.14000 439.936
27.31000 429.703
27.48000 440.417
27.65000 428.130
27.82000 422.937
27.99000 404.083
28.16000 422.204
28.33000 416.754
28.50000 421.587
28.67000 395.545
28.84000 400.673
29.01000 406.924
29.18000 413.976
29.35000 422.378
29.52000 406.713
29.69000 398.236
29.86000 388.060
30.03000 410.018
30.20000 390.275
30.37000 405.212
30.54000 427.937
30.71000 418.284
30.88000 424.454
31.05000 505.704
31.22000 856.007
31.39000 1281.738
31.56000 949.889
31.73000 561.809
31.90000 441.440
32.07000 395.600
32.24000 391.492
32.41000 382.407
32.58000 370.849
32.75000 358.220
32.92000 362.338
33.09000 345.030
33.26000 326.690
33.43000 348.679
33.60000 330.704
33.77000 310.591
33.94000 337.611
34.11000 308.886
34.28000 320.900
34.45000 328.638
34.62000 325.001
34.79000 311.089
34.96000 317.447
35.13000 301.856
35.30000 320.859
35.47000 316.561
35.64000 307.599
35.81000 297.857
35.98000 295.800
36.15000 295.372
36.32000 290.642
36.49000 299.579
36.66000 294.064
36.83000 283.807
37.00000 286.949
37.17000 279.050
37.34000 292.977
37.51000 278.113
37.68000 298.973
37.85000 295.817
38.02000 284.573
38.19000 271.302
38.36000 315.158
38.53000 472.975
38.70000 784.184
38.87000 648.996
39.04000 346.367
39.21000 272.208
39.38000 268.161
39.55000 269.432
39.72000 255.009
39.89000 260.987
40.06000 231.003
40.23000 263.033
40.40000 252.385
40.57000 254.065
40.74000 249.187
40.91000 252.265
41.08000 232.344
41.25000 237.135
41.42000 240.500
41.59000 256.440
41.76000 240.787
41.93000 241.856
42.10000 232.489
42.27000 220.270
42.44000 228.377
42.61000 238.195
42.78000 229.247
42.95000 236.980
43.12000 222.097
43.29000 218.596
43.46000 214.473
43.63000 220.041
43.80000 221.916
43.97000 211.202
44.14000 214.369
44.31000 211.918
44.48000 209.975
44.65000 225.942
44.82000 230.885
44.99000 254.128
45.16000 248.406
45.33000 247.644
45.50000 250.379
45.67000 239.174
45.84000 233.805
46.01000 217.054
46.18000 218.330
46.35000 195.026
46.52000 202.647
46.69000 198.111
46.86000 193.194
47.03000 200.106
47.20000 195.882
47.37000 184.200
47.54000 189.084
47.71000 201.113
47.88000 155.244
48.05000 188.646
48.22000 187.409
48.39000 196.824
48.56000 179.151
48.73000 181.653
48.90000 177.502
49.07000 186.661
49.24000 169.926
49.41000 178.990
49.58000 170.392
49.75000 160.911
49.92000 161.691
50.09000 168.764
50.26000 174.858
50.43000 188.298
50.60000 183.515
50.77000 186.104
50.94000 185.494
51.11000 178.732
51.28000 180.230
51.45000 157.894
51.62000 169.160
51.79000 162.654
51.96000 154.359
52.13000 162.998
52.30000 155.151
52.47000 153.883
52.64000 160.682
52.81000 153.377
52.98000 164.784
53.15000 156.855
53.32000 157.528
53.49000 159.265
53.66000 156.798
53.83000 150.923
54.00000 141.025
54.17000 136.617
54.34000 168.882
54.51000 155.654
54.68000 144.322
54.85000 160.487
55.02000 156.189
55.19000 156.900
55.36000 165.414
55.53000 165.209
55.70000 272.142
55.87000 410.159
56.04000 455.458
56.21000 322.256
56.38000 214.751
56.55000 163.993
56.72000 146.402
56.89000 147.422
57.06000 152.938
57.23000 137.143
57.40000 131.996
57.57000 135.867
57.74000 146.497
57.91000 146.185
58.08000 138.348
58.25000 139.419
58.42000 135.569
58.59000 140.226
58.76000 134.956
58.93000 137.692
59.10000 139.831
59.27000 130.448
59.44000 131.697
59.61000 126.464
59.78000 134.860
59.95000 136.519
60.12000 131.668
60.29000 128.130
60.46000 120.432
60.63000 133.898
60.80000 129.382
60.97000 128.241
61.14000 133.497
61.31000 133.967
61.48000 146.550
61.65000 257.284
61.82000 195.004
61.99000 138.688
62.16000 140.359
62.33000 149.447
62.50000 144.226
62.67000 138.784
62.84000 145.967
63.01000 146.070
63.18000 138.713
63.35000 156.502
63.52000 145.052
63.69000 155.518
63.86000 160.105
64.03000 161.949
64.20000 161.568
64.37000 159.279
64.54000 166.132
64.71000 173.469
64.88000 172.939
65.05000 182.728
65.22000 205.999
65.39000 231.803
65.56000 278.521
65.73000 579.603
65.90000 1040.487
66.07000 380.974
66.24000 316.815
66.41000 455.922
66.58000 362.939
66.75000 323.574
66.92000 336.212
67.09000 350.683
67.26000 384.982
67.43000 391.068
67.60000 432.417
67.77000 472.241
67.94000 509.762
68.11000 561.544
68.28000 626.594
68.45000 729.194
68.62000 1011.456
68.79000 1895.264
68.96000 10989.010
69.13000 53822.801
69.30000 32168.865
69.47000 7942.750
69.64000 1250.150
69.81000 822.246
69.98000 686.387
70.00000 657.434