File: XRD/XRD/25-09-2025/XY Data/BTO_Mapping_Theta2Theta_25-09-2025_001_49_-4-181_-39-781.xy
20.00000 563.010
20.17000 559.631
20.34000 555.238
20.51000 550.496
20.68000 544.279
20.85000 544.415
21.02000 551.852
21.19000 532.168
21.36000 538.603
21.53000 552.581
21.70000 573.103
21.87000 643.437
22.04000 734.954
22.21000 712.855
22.38000 605.255
22.55000 547.224
22.72000 533.765
22.89000 517.458
23.06000 490.974
23.23000 478.935
23.40000 492.402
23.57000 489.700
23.74000 482.507
23.91000 502.623
24.08000 477.964
24.25000 501.419
24.42000 483.012
24.59000 497.105
24.76000 472.280
24.93000 478.267
25.10000 467.755
25.27000 481.947
25.44000 457.198
25.61000 436.034
25.78000 477.084
25.95000 464.167
26.12000 462.102
26.29000 421.088
26.46000 450.950
26.63000 447.566
26.80000 444.166
26.97000 430.175
27.14000 415.513
27.31000 433.884
27.48000 418.343
27.65000 436.895
27.82000 437.279
27.99000 427.168
28.16000 419.757
28.33000 427.462
28.50000 424.492
28.67000 420.588
28.84000 418.675
29.01000 414.548
29.18000 390.369
29.35000 399.366
29.52000 413.201
29.69000 398.333
29.86000 410.366
30.03000 422.448
30.20000 436.097
30.37000 393.724
30.54000 407.693
30.71000 403.132
30.88000 473.287
31.05000 620.094
31.22000 1407.823
31.39000 2171.724
31.56000 1460.331
31.73000 719.831
31.90000 471.558
32.07000 392.133
32.24000 380.356
32.41000 375.837
32.58000 363.134
32.75000 371.131
32.92000 381.075
33.09000 355.408
33.26000 352.645
33.43000 345.426
33.60000 333.912
33.77000 326.391
33.94000 317.414
34.11000 325.098
34.28000 323.601
34.45000 319.813
34.62000 319.522
34.79000 317.803
34.96000 323.258
35.13000 305.520
35.30000 299.407
35.47000 316.539
35.64000 298.890
35.81000 304.403
35.98000 296.888
36.15000 307.783
36.32000 300.107
36.49000 288.502
36.66000 291.590
36.83000 291.396
37.00000 295.516
37.17000 300.805
37.34000 289.079
37.51000 283.658
37.68000 283.383
37.85000 285.851
38.02000 282.190
38.19000 292.487
38.36000 317.821
38.53000 456.416
38.70000 596.005
38.87000 507.990
39.04000 343.017
39.21000 283.686
39.38000 266.895
39.55000 267.665
39.72000 261.410
39.89000 271.691
40.06000 249.874
40.23000 252.883
40.40000 246.717
40.57000 257.046
40.74000 245.669
40.91000 240.249
41.08000 247.093
41.25000 245.720
41.42000 246.329
41.59000 242.105
41.76000 241.023
41.93000 244.089
42.10000 240.341
42.27000 228.887
42.44000 242.536
42.61000 228.805
42.78000 227.773
42.95000 227.740
43.12000 226.233
43.29000 223.844
43.46000 229.036
43.63000 228.018
43.80000 213.764
43.97000 231.858
44.14000 226.190
44.31000 235.660
44.48000 227.525
44.65000 240.473
44.82000 285.198
44.99000 369.214
45.16000 338.263
45.33000 319.042
45.50000 276.985
45.67000 254.103
45.84000 232.040
46.01000 224.209
46.18000 203.735
46.35000 212.737
46.52000 200.096
46.69000 194.206
46.86000 194.534
47.03000 191.753
47.20000 198.583
47.37000 184.686
47.54000 191.654
47.71000 180.519
47.88000 170.877
48.05000 189.531
48.22000 179.249
48.39000 174.451
48.56000 183.134
48.73000 177.053
48.90000 186.124
49.07000 179.610
49.24000 175.933
49.41000 194.706
49.58000 173.146
49.75000 173.001
49.92000 173.622
50.09000 173.328
50.26000 177.612
50.43000 190.387
50.60000 223.995
50.77000 219.323
50.94000 200.077
51.11000 179.607
51.28000 175.424
51.45000 152.917
51.62000 163.114
51.79000 157.655
51.96000 163.769
52.13000 158.318
52.30000 156.706
52.47000 156.419
52.64000 168.400
52.81000 157.381
52.98000 150.978
53.15000 151.442
53.32000 157.713
53.49000 152.805
53.66000 151.034
53.83000 152.803
54.00000 166.240
54.17000 153.149
54.34000 151.115
54.51000 152.415
54.68000 147.173
54.85000 143.898
55.02000 142.992
55.19000 153.746
55.36000 167.798
55.53000 203.223
55.70000 309.656
55.87000 401.262
56.04000 387.736
56.21000 272.490
56.38000 204.270
56.55000 174.925
56.72000 161.308
56.89000 149.062
57.06000 139.930
57.23000 133.015
57.40000 141.297
57.57000 147.142
57.74000 136.072
57.91000 140.960
58.08000 139.738
58.25000 142.260
58.42000 129.904
58.59000 140.653
58.76000 135.213
58.93000 131.189
59.10000 132.283
59.27000 128.810
59.44000 129.585
59.61000 140.839
59.78000 124.696
59.95000 132.726
60.12000 138.081
60.29000 128.414
60.46000 136.100
60.63000 132.893
60.80000 136.596
60.97000 134.694
61.14000 137.562
61.31000 128.171
61.48000 148.291
61.65000 272.292
61.82000 209.478
61.99000 143.697
62.16000 145.037
62.33000 127.864
62.50000 136.837
62.67000 138.258
62.84000 137.807
63.01000 139.139
63.18000 150.959
63.35000 140.660
63.52000 158.668
63.69000 157.075
63.86000 140.385
64.03000 150.572
64.20000 168.339
64.37000 173.876
64.54000 165.388
64.71000 182.547
64.88000 188.689
65.05000 197.985
65.22000 226.993
65.39000 266.034
65.56000 308.640
65.73000 647.623
65.90000 1221.548
66.07000 423.290
66.24000 322.358
66.41000 469.792
66.58000 352.462
66.75000 352.223
66.92000 343.197
67.09000 379.296
67.26000 395.416
67.43000 435.121
67.60000 467.224
67.77000 481.449
67.94000 535.133
68.11000 597.109
68.28000 638.157
68.45000 750.625
68.62000 1096.797
68.79000 2101.501
68.96000 12671.545
69.13000 62783.746
69.30000 37988.129
69.47000 9677.773
69.64000 1365.374
69.81000 860.912
69.98000 708.443
70.00000 677.216