File: XRD/XRD/25-09-2025/XY Data/BTO_Mapping_Theta2Theta_25-09-2025_001_38_-8-090_-5-878.xy
20.00000 553.431
20.17000 549.688
20.34000 551.721
20.51000 544.561
20.68000 552.640
20.85000 546.986
21.02000 544.035
21.19000 552.371
21.36000 549.354
21.53000 559.847
21.70000 556.610
21.87000 596.688
22.04000 692.134
22.21000 678.894
22.38000 619.387
22.55000 548.371
22.72000 522.814
22.89000 513.193
23.06000 510.648
23.23000 514.855
23.40000 494.579
23.57000 493.232
23.74000 482.287
23.91000 486.432
24.08000 483.488
24.25000 487.558
24.42000 476.947
24.59000 469.301
24.76000 481.987
24.93000 486.449
25.10000 477.861
25.27000 464.920
25.44000 477.315
25.61000 458.995
25.78000 453.267
25.95000 446.082
26.12000 445.101
26.29000 447.736
26.46000 451.953
26.63000 443.450
26.80000 433.951
26.97000 422.887
27.14000 441.323
27.31000 436.701
27.48000 420.151
27.65000 428.420
27.82000 422.859
27.99000 434.380
28.16000 440.125
28.33000 424.155
28.50000 415.194
28.67000 425.498
28.84000 393.751
29.01000 418.522
29.18000 408.457
29.35000 378.751
29.52000 390.404
29.69000 404.318
29.86000 417.841
30.03000 433.351
30.20000 434.251
30.37000 412.897
30.54000 409.756
30.71000 422.530
30.88000 435.698
31.05000 642.544
31.22000 1352.431
31.39000 2025.309
31.56000 1353.661
31.73000 642.977
31.90000 470.050
32.07000 415.857
32.24000 393.224
32.41000 383.993
32.58000 356.577
32.75000 367.983
32.92000 370.161
33.09000 354.595
33.26000 343.195
33.43000 337.104
33.60000 335.830
33.77000 327.312
33.94000 326.759
34.11000 330.653
34.28000 325.141
34.45000 313.754
34.62000 334.676
34.79000 332.313
34.96000 311.070
35.13000 293.693
35.30000 298.328
35.47000 304.134
35.64000 293.592
35.81000 282.379
35.98000 303.386
36.15000 304.516
36.32000 305.040
36.49000 285.258
36.66000 286.923
36.83000 296.626
37.00000 269.026
37.17000 287.516
37.34000 295.287
37.51000 282.057
37.68000 282.468
37.85000 285.630
38.02000 289.713
38.19000 285.845
38.36000 341.324
38.53000 499.226
38.70000 700.083
38.87000 523.172
39.04000 338.723
39.21000 290.058
39.38000 273.109
39.55000 259.422
39.72000 259.641
39.89000 250.598
40.06000 252.264
40.23000 250.547
40.40000 248.149
40.57000 248.392
40.74000 246.391
40.91000 231.691
41.08000 248.585
41.25000 249.056
41.42000 233.835
41.59000 238.456
41.76000 243.907
41.93000 226.226
42.10000 231.631
42.27000 235.467
42.44000 232.369
42.61000 237.529
42.78000 223.214
42.95000 225.847
43.12000 230.077
43.29000 216.586
43.46000 231.694
43.63000 222.926
43.80000 222.633
43.97000 218.788
44.14000 213.690
44.31000 217.620
44.48000 239.901
44.65000 224.499
44.82000 261.879
44.99000 299.294
45.16000 312.473
45.33000 288.042
45.50000 268.669
45.67000 263.630
45.84000 220.267
46.01000 223.686
46.18000 193.016
46.35000 211.085
46.52000 209.056
46.69000 191.238
46.86000 203.362
47.03000 199.982
47.20000 188.581
47.37000 188.345
47.54000 182.189
47.71000 177.146
47.88000 169.091
48.05000 179.276
48.22000 171.046
48.39000 182.054
48.56000 183.450
48.73000 178.441
48.90000 177.559
49.07000 189.452
49.24000 169.851
49.41000 182.354
49.58000 166.007
49.75000 179.872
49.92000 177.162
50.09000 187.293
50.26000 177.287
50.43000 187.509
50.60000 220.033
50.77000 211.017
50.94000 189.235
51.11000 183.256
51.28000 169.185
51.45000 172.435
51.62000 165.018
51.79000 164.153
51.96000 157.242
52.13000 151.137
52.30000 165.985
52.47000 175.244
52.64000 144.571
52.81000 166.977
52.98000 165.461
53.15000 155.774
53.32000 153.512
53.49000 157.541
53.66000 149.481
53.83000 158.944
54.00000 135.271
54.17000 144.580
54.34000 157.985
54.51000 148.563
54.68000 152.768
54.85000 149.331
55.02000 157.160
55.19000 159.841
55.36000 166.714
55.53000 205.366
55.70000 302.717
55.87000 411.996
56.04000 382.097
56.21000 287.655
56.38000 195.928
56.55000 160.755
56.72000 159.099
56.89000 150.408
57.06000 145.797
57.23000 141.511
57.40000 140.849
57.57000 141.826
57.74000 138.303
57.91000 148.383
58.08000 144.917
58.25000 138.300
58.42000 131.365
58.59000 130.145
58.76000 123.165
58.93000 134.206
59.10000 132.951
59.27000 138.810
59.44000 137.496
59.61000 132.683
59.78000 133.007
59.95000 128.395
60.12000 130.212
60.29000 122.766
60.46000 137.978
60.63000 134.403
60.80000 130.194
60.97000 132.724
61.14000 139.771
61.31000 129.673
61.48000 150.097
61.65000 266.717
61.82000 201.407
61.99000 149.686
62.16000 136.923
62.33000 140.219
62.50000 141.387
62.67000 146.538
62.84000 146.642
63.01000 138.834
63.18000 145.379
63.35000 139.585
63.52000 160.884
63.69000 155.441
63.86000 162.327
64.03000 146.194
64.20000 159.971
64.37000 166.776
64.54000 161.871
64.71000 172.761
64.88000 202.156
65.05000 203.687
65.22000 224.837
65.39000 278.857
65.56000 318.289
65.73000 684.722
65.90000 1179.332
66.07000 405.745
66.24000 318.202
66.41000 485.694
66.58000 342.773
66.75000 336.799
66.92000 357.942
67.09000 356.197
67.26000 397.895
67.43000 425.309
67.60000 476.335
67.77000 496.145
67.94000 535.533
68.11000 583.170
68.28000 671.442
68.45000 757.082
68.62000 1085.869
68.79000 2036.162
68.96000 13699.573
69.13000 60027.387
69.30000 35019.379
69.47000 8159.838
69.64000 1313.986
69.81000 855.806
69.98000 680.880
70.00000 681.896