File: XRD/XRD/25-09-2025/XY Data/BTO_Mapping_Theta2Theta_25-09-2025_001_30_-9-781_2-079.xy
20.00000 547.854
20.17000 566.656
20.34000 537.620
20.51000 537.037
20.68000 544.325
20.85000 543.193
21.02000 545.966
21.19000 539.604
21.36000 514.205
21.53000 547.049
21.70000 563.278
21.87000 608.577
22.04000 675.476
22.21000 662.983
22.38000 607.095
22.55000 553.355
22.72000 522.969
22.89000 505.875
23.06000 502.822
23.23000 491.422
23.40000 517.249
23.57000 501.562
23.74000 484.661
23.91000 489.147
24.08000 467.775
24.25000 489.330
24.42000 472.458
24.59000 486.420
24.76000 479.984
24.93000 462.586
25.10000 484.645
25.27000 476.332
25.44000 452.581
25.61000 448.814
25.78000 457.088
25.95000 461.681
26.12000 469.280
26.29000 451.460
26.46000 436.669
26.63000 451.889
26.80000 439.346
26.97000 445.697
27.14000 435.826
27.31000 420.159
27.48000 428.777
27.65000 423.679
27.82000 425.298
27.99000 417.790
28.16000 415.354
28.33000 434.532
28.50000 413.304
28.67000 426.409
28.84000 402.658
29.01000 406.657
29.18000 402.716
29.35000 392.238
29.52000 381.980
29.69000 398.562
29.86000 427.612
30.03000 423.362
30.20000 401.560
30.37000 415.615
30.54000 403.635
30.71000 415.490
30.88000 459.065
31.05000 597.196
31.22000 1360.208
31.39000 1984.332
31.56000 1315.469
31.73000 653.571
31.90000 452.562
32.07000 401.617
32.24000 396.663
32.41000 373.341
32.58000 375.573
32.75000 369.933
32.92000 381.423
33.09000 349.180
33.26000 337.723
33.43000 338.288
33.60000 340.484
33.77000 322.600
33.94000 327.421
34.11000 315.380
34.28000 319.489
34.45000 317.178
34.62000 315.420
34.79000 310.569
34.96000 321.414
35.13000 311.151
35.30000 316.648
35.47000 305.841
35.64000 319.039
35.81000 304.096
35.98000 310.990
36.15000 299.345
36.32000 288.145
36.49000 301.527
36.66000 314.449
36.83000 284.275
37.00000 276.102
37.17000 300.313
37.34000 287.775
37.51000 293.554
37.68000 277.006
37.85000 284.491
38.02000 289.637
38.19000 289.266
38.36000 343.416
38.53000 500.324
38.70000 731.987
38.87000 558.107
39.04000 329.908
39.21000 282.658
39.38000 281.385
39.55000 260.882
39.72000 253.019
39.89000 264.242
40.06000 253.729
40.23000 256.291
40.40000 255.171
40.57000 245.050
40.74000 239.300
40.91000 251.912
41.08000 250.868
41.25000 257.112
41.42000 242.779
41.59000 225.943
41.76000 224.538
41.93000 240.147
42.10000 226.569
42.27000 240.882
42.44000 227.133
42.61000 222.676
42.78000 234.244
42.95000 229.554
43.12000 233.800
43.29000 237.082
43.46000 225.511
43.63000 217.137
43.80000 223.539
43.97000 215.558
44.14000 219.513
44.31000 220.817
44.48000 210.491
44.65000 241.336
44.82000 273.902
44.99000 295.585
45.16000 313.079
45.33000 286.181
45.50000 269.684
45.67000 253.867
45.84000 232.902
46.01000 218.522
46.18000 197.278
46.35000 195.985
46.52000 208.613
46.69000 200.238
46.86000 204.467
47.03000 193.105
47.20000 189.502
47.37000 188.613
47.54000 192.375
47.71000 186.124
47.88000 191.241
48.05000 188.131
48.22000 182.538
48.39000 183.882
48.56000 177.097
48.73000 180.501
48.90000 163.451
49.07000 169.036
49.24000 179.064
49.41000 164.460
49.58000 164.299
49.75000 170.214
49.92000 170.562
50.09000 169.850
50.26000 184.944
50.43000 199.093
50.60000 219.976
50.77000 213.245
50.94000 203.132
51.11000 177.427
51.28000 183.114
51.45000 162.434
51.62000 169.448
51.79000 166.456
51.96000 154.571
52.13000 158.189
52.30000 159.651
52.47000 160.492
52.64000 145.917
52.81000 168.846
52.98000 149.634
53.15000 158.127
53.32000 152.459
53.49000 151.880
53.66000 152.239
53.83000 154.912
54.00000 145.607
54.17000 156.613
54.34000 146.265
54.51000 154.127
54.68000 144.654
54.85000 150.908
55.02000 155.651
55.19000 160.834
55.36000 162.826
55.53000 203.011
55.70000 304.067
55.87000 422.616
56.04000 415.658
56.21000 279.361
56.38000 198.408
56.55000 163.453
56.72000 147.815
56.89000 143.357
57.06000 132.923
57.23000 142.595
57.40000 145.225
57.57000 142.381
57.74000 136.063
57.91000 140.387
58.08000 136.628
58.25000 135.527
58.42000 130.052
58.59000 140.514
58.76000 149.058
58.93000 136.282
59.10000 141.281
59.27000 132.441
59.44000 135.578
59.61000 128.529
59.78000 134.197
59.95000 139.858
60.12000 127.411
60.29000 134.198
60.46000 124.465
60.63000 137.186
60.80000 134.661
60.97000 138.129
61.14000 130.660
61.31000 132.968
61.48000 151.812
61.65000 264.734
61.82000 201.907
61.99000 142.833
62.16000 132.671
62.33000 134.011
62.50000 133.600
62.67000 140.812
62.84000 138.841
63.01000 146.828
63.18000 150.928
63.35000 150.240
63.52000 147.496
63.69000 145.522
63.86000 150.421
64.03000 155.061
64.20000 160.979
64.37000 160.861
64.54000 160.882
64.71000 173.619
64.88000 189.146
65.05000 193.486
65.22000 244.611
65.39000 261.446
65.56000 314.855
65.73000 626.080
65.90000 1153.548
66.07000 388.581
66.24000 344.106
66.41000 474.167
66.58000 342.899
66.75000 333.920
66.92000 339.738
67.09000 357.994
67.26000 389.789
67.43000 418.634
67.60000 464.031
67.77000 471.193
67.94000 551.608
68.11000 577.076
68.28000 638.794
68.45000 754.079
68.62000 1110.416
68.79000 2056.021
68.96000 13869.255
69.13000 59287.012
69.30000 34447.523
69.47000 7976.948
69.64000 1302.727
69.81000 849.255
69.98000 702.988
70.00000 687.252