File: XRD/XRD/25-09-2025/XY Data/BTO_Mapping_Theta2Theta_25-09-2025_001_02_10-000_0-000.xy
20.00000 536.091
20.17000 526.540
20.34000 564.273
20.51000 550.644
20.68000 541.460
20.85000 538.969
21.02000 543.051
21.19000 542.932
21.36000 542.139
21.53000 528.053
21.70000 553.576
21.87000 590.512
22.04000 582.737
22.21000 619.447
22.38000 596.701
22.55000 550.244
22.72000 540.690
22.89000 511.577
23.06000 511.819
23.23000 489.572
23.40000 488.232
23.57000 494.597
23.74000 490.296
23.91000 487.056
24.08000 497.349
24.25000 467.091
24.42000 475.967
24.59000 472.920
24.76000 462.887
24.93000 464.342
25.10000 466.383
25.27000 468.884
25.44000 470.253
25.61000 465.874
25.78000 453.233
25.95000 442.676
26.12000 466.086
26.29000 450.781
26.46000 452.696
26.63000 432.151
26.80000 435.239
26.97000 455.240
27.14000 438.305
27.31000 424.668
27.48000 431.235
27.65000 421.721
27.82000 409.307
27.99000 399.343
28.16000 429.284
28.33000 425.257
28.50000 428.025
28.67000 416.095
28.84000 414.877
29.01000 406.351
29.18000 417.497
29.35000 402.092
29.52000 416.975
29.69000 393.002
29.86000 408.067
30.03000 409.599
30.20000 405.521
30.37000 401.335
30.54000 393.808
30.71000 405.278
30.88000 404.482
31.05000 498.430
31.22000 853.080
31.39000 1303.041
31.56000 930.945
31.73000 555.950
31.90000 447.942
32.07000 391.918
32.24000 382.560
32.41000 388.310
32.58000 370.700
32.75000 369.608
32.92000 362.454
33.09000 350.034
33.26000 352.176
33.43000 336.426
33.60000 322.185
33.77000 325.819
33.94000 346.378
34.11000 323.492
34.28000 337.474
34.45000 328.445
34.62000 309.786
34.79000 321.045
34.96000 310.239
35.13000 319.404
35.30000 300.927
35.47000 312.047
35.64000 300.856
35.81000 293.251
35.98000 314.571
36.15000 301.076
36.32000 308.523
36.49000 290.453
36.66000 292.429
36.83000 296.754
37.00000 292.608
37.17000 294.450
37.34000 297.156
37.51000 284.687
37.68000 288.145
37.85000 281.346
38.02000 288.767
38.19000 287.281
38.36000 315.008
38.53000 473.466
38.70000 809.235
38.87000 651.570
39.04000 355.469
39.21000 271.114
39.38000 281.725
39.55000 267.970
39.72000 271.194
39.89000 267.114
40.06000 250.262
40.23000 245.688
40.40000 242.541
40.57000 246.289
40.74000 250.877
40.91000 243.994
41.08000 247.236
41.25000 234.711
41.42000 221.945
41.59000 238.767
41.76000 232.913
41.93000 232.563
42.10000 230.983
42.27000 233.452
42.44000 218.560
42.61000 229.634
42.78000 225.257
42.95000 222.543
43.12000 225.090
43.29000 211.676
43.46000 219.413
43.63000 216.753
43.80000 215.155
43.97000 212.995
44.14000 215.103
44.31000 219.960
44.48000 227.810
44.65000 232.584
44.82000 236.198
44.99000 273.627
45.16000 264.320
45.33000 246.666
45.50000 256.019
45.67000 246.140
45.84000 239.025
46.01000 227.442
46.18000 208.083
46.35000 218.494
46.52000 195.737
46.69000 186.246
46.86000 200.919
47.03000 185.313
47.20000 189.155
47.37000 192.681
47.54000 192.460
47.71000 190.745
47.88000 185.548
48.05000 182.704
48.22000 184.434
48.39000 175.260
48.56000 187.193
48.73000 175.180
48.90000 184.224
49.07000 180.301
49.24000 178.020
49.41000 178.315
49.58000 173.905
49.75000 174.605
49.92000 162.104
50.09000 167.411
50.26000 180.332
50.43000 182.129
50.60000 189.479
50.77000 187.188
50.94000 183.493
51.11000 177.406
51.28000 166.849
51.45000 164.425
51.62000 162.448
51.79000 171.594
51.96000 154.258
52.13000 156.443
52.30000 162.668
52.47000 159.001
52.64000 161.664
52.81000 160.951
52.98000 159.722
53.15000 146.170
53.32000 154.704
53.49000 153.951
53.66000 150.468
53.83000 151.671
54.00000 156.708
54.17000 153.444
54.34000 150.703
54.51000 152.997
54.68000 151.572
54.85000 147.558
55.02000 146.930
55.19000 156.270
55.36000 175.895
55.53000 181.361
55.70000 247.786
55.87000 408.273
56.04000 447.136
56.21000 329.128
56.38000 221.251
56.55000 170.686
56.72000 160.137
56.89000 149.347
57.06000 141.793
57.23000 146.958
57.40000 134.932
57.57000 139.812
57.74000 139.985
57.91000 147.999
58.08000 140.196
58.25000 133.230
58.42000 143.538
58.59000 129.407
58.76000 130.360
58.93000 137.848
59.10000 128.592
59.27000 134.687
59.44000 132.887
59.61000 134.815
59.78000 136.280
59.95000 130.728
60.12000 142.055
60.29000 135.420
60.46000 122.218
60.63000 127.189
60.80000 123.877
60.97000 130.861
61.14000 130.498
61.31000 136.619
61.48000 146.297
61.65000 254.328
61.82000 200.482
61.99000 149.452
62.16000 144.247
62.33000 134.442
62.50000 137.496
62.67000 145.725
62.84000 141.937
63.01000 135.995
63.18000 143.399
63.35000 149.566
63.52000 136.110
63.69000 163.894
63.86000 149.516
64.03000 155.366
64.20000 148.085
64.37000 170.594
64.54000 165.856
64.71000 177.283
64.88000 181.741
65.05000 184.722
65.22000 212.174
65.39000 235.275
65.56000 282.314
65.73000 554.904
65.90000 1017.388
66.07000 377.202
66.24000 321.119
66.41000 440.788
66.58000 352.853
66.75000 318.963
66.92000 337.147
67.09000 363.434
67.26000 374.375
67.43000 397.311
67.60000 448.984
67.77000 471.792
67.94000 503.349
68.11000 557.879
68.28000 647.820
68.45000 738.396
68.62000 1002.961
68.79000 1886.740
68.96000 10960.172
69.13000 53707.176
69.30000 32020.854
69.47000 7908.678
69.64000 1271.780
69.81000 837.587
69.98000 670.326
70.00000 655.141