File: XRD/XRD/25-09-2025/XY Data/BTO_Mapping_Theta2Theta_25-09-2025_001_31_-19-563_4-158.xy
20.00000 560.279
20.17000 562.292
20.34000 550.460
20.51000 575.278
20.68000 564.435
20.85000 555.882
21.02000 543.331
21.19000 557.938
21.36000 554.037
21.53000 534.942
21.70000 579.724
21.87000 679.746
22.04000 779.216
22.21000 687.411
22.38000 607.524
22.55000 538.701
22.72000 537.332
22.89000 515.774
23.06000 521.341
23.23000 508.414
23.40000 479.399
23.57000 515.831
23.74000 496.333
23.91000 497.016
24.08000 470.534
24.25000 482.471
24.42000 494.181
24.59000 464.992
24.76000 482.012
24.93000 470.521
25.10000 471.406
25.27000 459.457
25.44000 464.175
25.61000 460.423
25.78000 463.300
25.95000 450.684
26.12000 434.977
26.29000 457.143
26.46000 449.730
26.63000 430.432
26.80000 436.094
26.97000 438.518
27.14000 444.148
27.31000 428.792
27.48000 438.857
27.65000 416.769
27.82000 424.330
27.99000 428.323
28.16000 422.977
28.33000 418.685
28.50000 415.055
28.67000 408.535
28.84000 415.245
29.01000 411.987
29.18000 401.455
29.35000 426.840
29.52000 413.184
29.69000 415.843
29.86000 413.564
30.03000 412.444
30.20000 413.434
30.37000 407.889
30.54000 423.919
30.71000 428.726
30.88000 481.342
31.05000 707.955
31.22000 1534.525
31.39000 2207.726
31.56000 1395.072
31.73000 697.899
31.90000 468.786
32.07000 415.368
32.24000 390.874
32.41000 364.100
32.58000 370.307
32.75000 383.979
32.92000 392.371
33.09000 359.336
33.26000 339.121
33.43000 346.229
33.60000 332.296
33.77000 317.981
33.94000 345.964
34.11000 320.444
34.28000 315.619
34.45000 325.866
34.62000 327.586
34.79000 311.585
34.96000 309.445
35.13000 328.668
35.30000 295.468
35.47000 319.051
35.64000 302.646
35.81000 318.725
35.98000 301.811
36.15000 287.531
36.32000 298.372
36.49000 295.893
36.66000 293.923
36.83000 286.981
37.00000 289.282
37.17000 285.669
37.34000 270.137
37.51000 287.693
37.68000 288.622
37.85000 287.997
38.02000 281.839
38.19000 289.195
38.36000 339.602
38.53000 482.708
38.70000 597.258
38.87000 460.206
39.04000 313.207
39.21000 274.641
39.38000 274.880
39.55000 269.424
39.72000 257.644
39.89000 266.289
40.06000 270.153
40.23000 258.811
40.40000 258.506
40.57000 256.567
40.74000 253.310
40.91000 241.652
41.08000 237.244
41.25000 233.141
41.42000 245.068
41.59000 257.234
41.76000 242.601
41.93000 239.613
42.10000 231.198
42.27000 228.110
42.44000 225.613
42.61000 224.417
42.78000 237.510
42.95000 226.831
43.12000 204.261
43.29000 220.626
43.46000 226.257
43.63000 224.264
43.80000 222.213
43.97000 216.075
44.14000 220.361
44.31000 236.759
44.48000 224.905
44.65000 262.400
44.82000 321.315
44.99000 396.997
45.16000 365.602
45.33000 313.673
45.50000 283.796
45.67000 251.402
45.84000 237.108
46.01000 223.454
46.18000 215.974
46.35000 208.253
46.52000 205.056
46.69000 201.407
46.86000 193.551
47.03000 192.406
47.20000 193.911
47.37000 181.364
47.54000 176.088
47.71000 184.056
47.88000 187.103
48.05000 185.935
48.22000 172.748
48.39000 185.482
48.56000 180.982
48.73000 178.764
48.90000 179.452
49.07000 181.943
49.24000 173.414
49.41000 171.378
49.58000 179.449
49.75000 176.099
49.92000 158.492
50.09000 174.508
50.26000 190.153
50.43000 194.690
50.60000 226.152
50.77000 222.368
50.94000 206.309
51.11000 188.955
51.28000 167.496
51.45000 171.509
51.62000 172.894
51.79000 172.991
51.96000 157.247
52.13000 167.498
52.30000 159.803
52.47000 153.030
52.64000 156.700
52.81000 144.811
52.98000 153.377
53.15000 157.005
53.32000 143.470
53.49000 155.436
53.66000 154.050
53.83000 149.998
54.00000 146.722
54.17000 155.478
54.34000 151.964
54.51000 150.272
54.68000 147.817
54.85000 155.773
55.02000 153.794
55.19000 155.760
55.36000 165.858
55.53000 218.616
55.70000 324.428
55.87000 409.864
56.04000 361.758
56.21000 258.108
56.38000 207.763
56.55000 168.686
56.72000 154.988
56.89000 144.551
57.06000 134.715
57.23000 142.815
57.40000 139.590
57.57000 136.624
57.74000 144.008
57.91000 143.000
58.08000 133.522
58.25000 138.022
58.42000 141.821
58.59000 144.498
58.76000 135.177
58.93000 140.668
59.10000 133.811
59.27000 135.772
59.44000 132.972
59.61000 125.253
59.78000 131.049
59.95000 141.193
60.12000 130.727
60.29000 133.302
60.46000 138.972
60.63000 130.845
60.80000 137.533
60.97000 135.176
61.14000 133.339
61.31000 128.979
61.48000 155.593
61.65000 294.479
61.82000 198.232
61.99000 142.091
62.16000 145.529
62.33000 148.580
62.50000 138.274
62.67000 140.384
62.84000 146.590
63.01000 148.578
63.18000 142.714
63.35000 142.800
63.52000 163.135
63.69000 161.283
63.86000 160.448
64.03000 160.605
64.20000 171.084
64.37000 153.488
64.54000 178.777
64.71000 167.669
64.88000 184.352
65.05000 214.805
65.22000 239.511
65.39000 292.584
65.56000 341.296
65.73000 737.451
65.90000 1282.076
66.07000 423.614
66.24000 357.409
66.41000 493.882
66.58000 367.671
66.75000 350.172
66.92000 359.754
67.09000 378.997
67.26000 413.491
67.43000 433.808
67.60000 473.587
67.77000 503.540
67.94000 552.894
68.11000 585.786
68.28000 665.282
68.45000 797.727
68.62000 1180.142
68.79000 2269.012
68.96000 16588.369
69.13000 67243.109
69.30000 38696.160
69.47000 8845.475
69.64000 1401.986
69.81000 877.903
69.98000 683.298
70.00000 685.191