File: XRD/XRD/25-09-2025/XY Data/BTO_Mapping_Theta2Theta_25-09-2025_001_32_-29-344_6-237.xy
20.00000 555.182
20.17000 544.167
20.34000 560.245
20.51000 547.888
20.68000 547.616
20.85000 536.748
21.02000 564.186
21.19000 561.574
21.36000 533.722
21.53000 543.075
21.70000 582.413
21.87000 737.875
22.04000 836.642
22.21000 718.512
22.38000 603.233
22.55000 545.058
22.72000 545.709
22.89000 521.539
23.06000 484.115
23.23000 486.054
23.40000 511.775
23.57000 503.046
23.74000 489.109
23.91000 497.609
24.08000 490.341
24.25000 498.290
24.42000 484.137
24.59000 471.834
24.76000 489.350
24.93000 478.273
25.10000 463.592
25.27000 456.416
25.44000 481.369
25.61000 439.919
25.78000 482.026
25.95000 446.551
26.12000 469.057
26.29000 449.303
26.46000 451.040
26.63000 451.545
26.80000 437.136
26.97000 443.487
27.14000 436.447
27.31000 434.087
27.48000 430.791
27.65000 412.216
27.82000 441.835
27.99000 425.764
28.16000 428.486
28.33000 423.943
28.50000 425.584
28.67000 410.421
28.84000 403.668
29.01000 397.999
29.18000 404.900
29.35000 395.860
29.52000 389.827
29.69000 401.468
29.86000 415.353
30.03000 442.199
30.20000 410.090
30.37000 408.731
30.54000 412.562
30.71000 430.290
30.88000 475.246
31.05000 781.034
31.22000 1792.559
31.39000 2491.814
31.56000 1523.534
31.73000 751.432
31.90000 485.007
32.07000 415.500
32.24000 394.341
32.41000 380.585
32.58000 386.163
32.75000 354.843
32.92000 397.476
33.09000 368.814
33.26000 352.350
33.43000 353.367
33.60000 348.537
33.77000 352.574
33.94000 339.129
34.11000 320.601
34.28000 332.899
34.45000 326.329
34.62000 327.466
34.79000 306.984
34.96000 303.943
35.13000 295.537
35.30000 309.207
35.47000 308.067
35.64000 306.866
35.81000 295.348
35.98000 299.491
36.15000 301.052
36.32000 291.519
36.49000 293.888
36.66000 292.837
36.83000 302.390
37.00000 302.923
37.17000 302.988
37.34000 290.416
37.51000 298.404
37.68000 282.438
37.85000 297.528
38.02000 283.820
38.19000 286.507
38.36000 320.328
38.53000 436.483
38.70000 526.474
38.87000 419.464
39.04000 317.197
39.21000 277.605
39.38000 268.854
39.55000 268.192
39.72000 272.929
39.89000 248.820
40.06000 247.348
40.23000 247.614
40.40000 230.871
40.57000 237.984
40.74000 249.574
40.91000 226.305
41.08000 237.543
41.25000 241.781
41.42000 237.648
41.59000 229.884
41.76000 234.096
41.93000 240.063
42.10000 249.198
42.27000 229.166
42.44000 229.971
42.61000 234.555
42.78000 232.906
42.95000 231.345
43.12000 227.118
43.29000 224.336
43.46000 226.811
43.63000 238.711
43.80000 223.419
43.97000 223.433
44.14000 222.613
44.31000 224.908
44.48000 245.285
44.65000 304.327
44.82000 390.909
44.99000 435.943
45.16000 370.680
45.33000 313.019
45.50000 288.647
45.67000 251.545
45.84000 247.984
46.01000 225.890
46.18000 213.023
46.35000 199.958
46.52000 193.516
46.69000 200.341
46.86000 203.595
47.03000 181.152
47.20000 190.127
47.37000 192.656
47.54000 193.981
47.71000 198.756
47.88000 192.771
48.05000 180.334
48.22000 192.535
48.39000 176.289
48.56000 179.490
48.73000 174.993
48.90000 169.844
49.07000 184.990
49.24000 188.061
49.41000 181.101
49.58000 168.107
49.75000 169.760
49.92000 179.796
50.09000 170.273
50.26000 183.074
50.43000 208.064
50.60000 225.184
50.77000 221.486
50.94000 212.887
51.11000 171.757
51.28000 170.867
51.45000 175.131
51.62000 169.864
51.79000 164.980
51.96000 157.492
52.13000 163.362
52.30000 152.554
52.47000 153.009
52.64000 175.523
52.81000 162.874
52.98000 159.408
53.15000 150.723
53.32000 162.960
53.49000 161.326
53.66000 164.983
53.83000 157.012
54.00000 159.170
54.17000 155.652
54.34000 161.197
54.51000 156.242
54.68000 147.543
54.85000 156.875
55.02000 152.732
55.19000 164.087
55.36000 175.520
55.53000 221.380
55.70000 320.091
55.87000 398.068
56.04000 349.763
56.21000 255.657
56.38000 190.764
56.55000 178.376
56.72000 150.098
56.89000 153.201
57.06000 141.431
57.23000 132.995
57.40000 142.569
57.57000 132.287
57.74000 141.425
57.91000 143.210
58.08000 145.121
58.25000 141.294
58.42000 144.712
58.59000 133.087
58.76000 140.178
58.93000 135.870
59.10000 149.442
59.27000 140.082
59.44000 128.292
59.61000 121.281
59.78000 130.818
59.95000 131.604
60.12000 139.236
60.29000 126.450
60.46000 132.021
60.63000 126.104
60.80000 131.560
60.97000 136.400
61.14000 136.198
61.31000 139.670
61.48000 152.890
61.65000 336.998
61.82000 217.639
61.99000 139.505
62.16000 154.028
62.33000 138.463
62.50000 141.907
62.67000 142.918
62.84000 149.263
63.01000 149.628
63.18000 143.742
63.35000 141.328
63.52000 159.015
63.69000 145.060
63.86000 146.091
64.03000 158.827
64.20000 165.373
64.37000 171.162
64.54000 167.593
64.71000 190.039
64.88000 201.700
65.05000 221.400
65.22000 258.695
65.39000 315.149
65.56000 363.130
65.73000 854.761
65.90000 1486.846
66.07000 461.920
66.24000 369.127
66.41000 563.442
66.58000 397.873
66.75000 367.592
66.92000 384.105
67.09000 411.067
67.26000 446.664
67.43000 472.175
67.60000 522.129
67.77000 533.879
67.94000 598.274
68.11000 625.135
68.28000 713.902
68.45000 851.973
68.62000 1285.236
68.79000 2607.297
68.96000 20169.105
69.13000 79605.141
69.30000 45692.660
69.47000 10447.671
69.64000 1531.326
69.81000 971.072
69.98000 757.658
70.00000 745.969