File: XRD/XRD/25-09-2025/XY Data/BTO_Mapping_Theta2Theta_25-09-2025_001_44_-15-000_-25-981.xy
20.00000 562.177
20.17000 572.697
20.34000 569.358
20.51000 557.058
20.68000 544.447
20.85000 541.722
21.02000 544.610
21.19000 547.003
21.36000 539.797
21.53000 519.260
21.70000 591.384
21.87000 721.190
22.04000 836.522
22.21000 700.215
22.38000 590.863
22.55000 548.903
22.72000 505.395
22.89000 527.711
23.06000 494.420
23.23000 504.979
23.40000 510.410
23.57000 488.147
23.74000 499.940
23.91000 485.466
24.08000 488.260
24.25000 485.041
24.42000 493.334
24.59000 457.929
24.76000 478.962
24.93000 454.643
25.10000 474.062
25.27000 455.344
25.44000 465.824
25.61000 444.472
25.78000 454.977
25.95000 460.706
26.12000 439.251
26.29000 445.074
26.46000 456.341
26.63000 452.530
26.80000 444.735
26.97000 424.269
27.14000 432.638
27.31000 434.894
27.48000 447.209
27.65000 428.548
27.82000 405.638
27.99000 422.585
28.16000 416.184
28.33000 427.450
28.50000 410.329
28.67000 419.944
28.84000 406.312
29.01000 420.253
29.18000 404.187
29.35000 424.993
29.52000 410.867
29.69000 401.622
29.86000 410.497
30.03000 421.449
30.20000 418.578
30.37000 413.425
30.54000 419.017
30.71000 431.102
30.88000 497.635
31.05000 761.845
31.22000 1741.355
31.39000 2407.843
31.56000 1467.974
31.73000 759.018
31.90000 484.027
32.07000 408.929
32.24000 388.509
32.41000 360.345
32.58000 386.706
32.75000 369.784
32.92000 399.306
33.09000 370.429
33.26000 343.467
33.43000 345.409
33.60000 331.682
33.77000 327.683
33.94000 330.062
34.11000 329.692
34.28000 330.531
34.45000 326.305
34.62000 321.793
34.79000 323.073
34.96000 320.918
35.13000 304.038
35.30000 311.780
35.47000 320.450
35.64000 305.284
35.81000 293.503
35.98000 298.282
36.15000 301.985
36.32000 301.789
36.49000 299.629
36.66000 296.059
36.83000 303.903
37.00000 300.242
37.17000 294.280
37.34000 276.602
37.51000 280.605
37.68000 289.547
37.85000 267.323
38.02000 292.214
38.19000 290.400
38.36000 331.680
38.53000 452.194
38.70000 526.709
38.87000 438.796
39.04000 325.839
39.21000 268.036
39.38000 266.607
39.55000 268.337
39.72000 267.591
39.89000 269.373
40.06000 266.343
40.23000 254.643
40.40000 263.188
40.57000 253.904
40.74000 243.201
40.91000 252.574
41.08000 244.800
41.25000 232.466
41.42000 237.451
41.59000 229.935
41.76000 238.185
41.93000 240.511
42.10000 230.871
42.27000 239.928
42.44000 224.848
42.61000 233.202
42.78000 227.516
42.95000 228.761
43.12000 226.967
43.29000 232.299
43.46000 219.901
43.63000 213.367
43.80000 230.909
43.97000 235.861
44.14000 217.436
44.31000 230.951
44.48000 242.046
44.65000 285.542
44.82000 367.695
44.99000 423.425
45.16000 387.550
45.33000 329.500
45.50000 279.479
45.67000 265.862
45.84000 239.954
46.01000 206.207
46.18000 204.497
46.35000 200.972
46.52000 210.842
46.69000 191.887
46.86000 202.017
47.03000 196.959
47.20000 186.602
47.37000 181.076
47.54000 187.601
47.71000 181.239
47.88000 190.171
48.05000 181.415
48.22000 190.576
48.39000 175.830
48.56000 189.166
48.73000 180.348
48.90000 183.373
49.07000 178.628
49.24000 171.219
49.41000 181.113
49.58000 177.133
49.75000 182.728
49.92000 172.066
50.09000 177.831
50.26000 187.479
50.43000 209.551
50.60000 232.914
50.77000 225.183
50.94000 205.978
51.11000 179.333
51.28000 176.364
51.45000 175.743
51.62000 167.315
51.79000 164.496
51.96000 161.159
52.13000 168.006
52.30000 160.178
52.47000 173.214
52.64000 166.338
52.81000 153.391
52.98000 155.617
53.15000 163.248
53.32000 157.789
53.49000 158.921
53.66000 144.256
53.83000 157.404
54.00000 166.666
54.17000 145.450
54.34000 139.623
54.51000 160.491
54.68000 148.616
54.85000 146.119
55.02000 150.494
55.19000 160.346
55.36000 178.670
55.53000 221.642
55.70000 320.012
55.87000 400.644
56.04000 346.658
56.21000 252.249
56.38000 202.024
56.55000 168.230
56.72000 155.804
56.89000 142.379
57.06000 160.887
57.23000 140.504
57.40000 142.510
57.57000 159.254
57.74000 140.814
57.91000 142.896
58.08000 142.048
58.25000 149.042
58.42000 136.609
58.59000 140.988
58.76000 136.547
58.93000 140.400
59.10000 133.402
59.27000 123.638
59.44000 139.188
59.61000 130.876
59.78000 134.908
59.95000 130.999
60.12000 126.621
60.29000 129.662
60.46000 130.226
60.63000 136.744
60.80000 128.500
60.97000 128.107
61.14000 130.361
61.31000 139.309
61.48000 139.542
61.65000 310.191
61.82000 206.597
61.99000 142.871
62.16000 139.284
62.33000 135.466
62.50000 141.535
62.67000 147.267
62.84000 150.037
63.01000 152.538
63.18000 146.489
63.35000 144.902
63.52000 147.871
63.69000 143.286
63.86000 152.416
64.03000 152.305
64.20000 159.649
64.37000 167.719
64.54000 178.409
64.71000 177.076
64.88000 192.008
65.05000 199.928
65.22000 266.640
65.39000 313.108
65.56000 348.025
65.73000 777.737
65.90000 1375.298
66.07000 450.208
66.24000 395.628
66.41000 549.311
66.58000 402.068
66.75000 365.698
66.92000 365.136
67.09000 393.972
67.26000 434.420
67.43000 451.071
67.60000 487.705
67.77000 529.283
67.94000 566.939
68.11000 609.127
68.28000 712.375
68.45000 855.021
68.62000 1219.242
68.79000 2461.783
68.96000 17146.619
69.13000 74346.133
69.30000 43543.691
69.47000 10382.405
69.64000 1469.720
69.81000 935.807
69.98000 747.379
70.00000 726.813