File: XRD/XRD/25-09-2025/XY Data/BTO_Mapping_Theta2Theta_25-09-2025_001_04_30-000_0-000.xy
20.00000 576.698
20.17000 571.586
20.34000 556.627
20.51000 546.378
20.68000 554.318
20.85000 541.074
21.02000 534.354
21.19000 554.740
21.36000 543.140
21.53000 544.885
21.70000 547.834
21.87000 567.321
22.04000 585.672
22.21000 618.224
22.38000 572.654
22.55000 553.133
22.72000 525.115
22.89000 526.025
23.06000 501.186
23.23000 512.938
23.40000 506.534
23.57000 503.547
23.74000 482.726
23.91000 484.319
24.08000 474.686
24.25000 488.465
24.42000 492.345
24.59000 473.419
24.76000 479.803
24.93000 464.252
25.10000 468.024
25.27000 470.616
25.44000 469.096
25.61000 448.891
25.78000 456.684
25.95000 444.737
26.12000 436.897
26.29000 455.053
26.46000 436.659
26.63000 447.300
26.80000 452.627
26.97000 442.357
27.14000 438.221
27.31000 444.364
27.48000 432.509
27.65000 401.316
27.82000 415.277
27.99000 440.282
28.16000 397.293
28.33000 430.516
28.50000 418.498
28.67000 411.330
28.84000 413.529
29.01000 393.966
29.18000 420.167
29.35000 401.304
29.52000 413.763
29.69000 390.398
29.86000 407.173
30.03000 414.918
30.20000 410.797
30.37000 418.360
30.54000 409.741
30.71000 420.726
30.88000 445.589
31.05000 544.959
31.22000 862.641
31.39000 1294.728
31.56000 1018.594
31.73000 621.529
31.90000 446.611
32.07000 416.762
32.24000 394.875
32.41000 373.156
32.58000 371.294
32.75000 383.696
32.92000 361.485
33.09000 358.001
33.26000 344.677
33.43000 332.424
33.60000 327.237
33.77000 324.377
33.94000 337.502
34.11000 332.958
34.28000 321.015
34.45000 318.456
34.62000 310.683
34.79000 319.843
34.96000 321.620
35.13000 310.574
35.30000 313.269
35.47000 318.352
35.64000 305.008
35.81000 289.602
35.98000 298.666
36.15000 313.307
36.32000 283.966
36.49000 296.269
36.66000 291.022
36.83000 279.051
37.00000 299.006
37.17000 293.464
37.34000 289.234
37.51000 287.273
37.68000 300.715
37.85000 270.942
38.02000 283.577
38.19000 284.029
38.36000 317.815
38.53000 435.783
38.70000 666.308
38.87000 503.181
39.04000 301.938
39.21000 269.485
39.38000 266.012
39.55000 273.709
39.72000 267.845
39.89000 261.540
40.06000 267.447
40.23000 265.010
40.40000 257.842
40.57000 237.157
40.74000 246.525
40.91000 244.625
41.08000 251.400
41.25000 248.668
41.42000 239.784
41.59000 224.113
41.76000 224.153
41.93000 222.966
42.10000 231.762
42.27000 227.418
42.44000 235.580
42.61000 230.687
42.78000 228.994
42.95000 219.158
43.12000 215.236
43.29000 228.529
43.46000 217.344
43.63000 231.062
43.80000 217.156
43.97000 209.837
44.14000 212.022
44.31000 224.301
44.48000 215.287
44.65000 215.546
44.82000 235.997
44.99000 239.356
45.16000 251.155
45.33000 253.378
45.50000 247.742
45.67000 240.674
45.84000 219.566
46.01000 219.765
46.18000 204.971
46.35000 206.184
46.52000 197.161
46.69000 205.672
46.86000 196.058
47.03000 185.138
47.20000 191.303
47.37000 194.395
47.54000 180.824
47.71000 179.394
47.88000 187.697
48.05000 183.171
48.22000 192.242
48.39000 186.272
48.56000 178.578
48.73000 182.403
48.90000 182.472
49.07000 185.804
49.24000 178.251
49.41000 189.822
49.58000 177.213
49.75000 174.136
49.92000 173.225
50.09000 162.390
50.26000 179.324
50.43000 180.141
50.60000 179.696
50.77000 178.772
50.94000 177.381
51.11000 180.299
51.28000 162.562
51.45000 162.106
51.62000 155.398
51.79000 165.504
51.96000 162.982
52.13000 170.939
52.30000 152.172
52.47000 168.257
52.64000 169.789
52.81000 157.476
52.98000 153.203
53.15000 157.095
53.32000 152.727
53.49000 166.132
53.66000 161.043
53.83000 158.168
54.00000 157.127
54.17000 158.729
54.34000 152.663
54.51000 155.018
54.68000 149.957
54.85000 147.559
55.02000 143.632
55.19000 155.638
55.36000 157.180
55.53000 179.864
55.70000 243.713
55.87000 319.006
56.04000 318.057
56.21000 245.971
56.38000 194.941
56.55000 170.270
56.72000 161.969
56.89000 144.694
57.06000 138.664
57.23000 146.156
57.40000 143.694
57.57000 134.638
57.74000 134.846
57.91000 139.663
58.08000 140.120
58.25000 135.533
58.42000 127.462
58.59000 139.040
58.76000 143.255
58.93000 142.561
59.10000 135.163
59.27000 137.258
59.44000 126.857
59.61000 136.537
59.78000 133.030
59.95000 135.856
60.12000 118.557
60.29000 131.840
60.46000 134.308
60.63000 136.651
60.80000 138.153
60.97000 131.145
61.14000 140.105
61.31000 138.024
61.48000 147.814
61.65000 261.266
61.82000 196.174
61.99000 138.385
62.16000 132.542
62.33000 138.747
62.50000 148.715
62.67000 142.854
62.84000 155.417
63.01000 143.981
63.18000 148.068
63.35000 160.968
63.52000 142.450
63.69000 146.961
63.86000 148.212
64.03000 156.689
64.20000 169.533
64.37000 163.425
64.54000 168.643
64.71000 172.496
64.88000 183.353
65.05000 187.611
65.22000 198.437
65.39000 231.735
65.56000 282.802
65.73000 543.256
65.90000 1059.303
66.07000 398.243
66.24000 299.846
66.41000 448.331
66.58000 350.881
66.75000 332.395
66.92000 338.125
67.09000 364.355
67.26000 392.973
67.43000 403.389
67.60000 443.931
67.77000 483.233
67.94000 515.823
68.11000 570.205
68.28000 602.751
68.45000 720.029
68.62000 1003.790
68.79000 1792.150
68.96000 9584.061
69.13000 53352.367
69.30000 32419.145
69.47000 8719.178
69.64000 1232.579
69.81000 836.167
69.98000 663.363
70.00000 660.034