File: XRD/XRD/25-09-2025/XY Data/BTO_Mapping_Theta2Theta_25-09-2025_001_05_40-000_0-000.xy
20.00000 558.786
20.17000 562.266
20.34000 543.527
20.51000 553.686
20.68000 562.998
20.85000 543.143
21.02000 550.894
21.19000 544.397
21.36000 537.782
21.53000 541.375
21.70000 553.362
21.87000 558.891
22.04000 588.435
22.21000 597.650
22.38000 571.211
22.55000 536.586
22.72000 521.407
22.89000 486.129
23.06000 520.735
23.23000 509.110
23.40000 500.352
23.57000 508.941
23.74000 485.689
23.91000 504.485
24.08000 477.030
24.25000 477.713
24.42000 458.006
24.59000 488.315
24.76000 471.407
24.93000 454.498
25.10000 468.479
25.27000 464.821
25.44000 453.106
25.61000 461.299
25.78000 468.970
25.95000 449.404
26.12000 457.026
26.29000 434.745
26.46000 429.779
26.63000 470.368
26.80000 437.208
26.97000 452.871
27.14000 442.099
27.31000 433.623
27.48000 448.287
27.65000 410.868
27.82000 430.342
27.99000 417.356
28.16000 416.745
28.33000 417.221
28.50000 408.101
28.67000 439.658
28.84000 443.779
29.01000 405.346
29.18000 417.169
29.35000 413.254
29.52000 401.490
29.69000 410.153
29.86000 404.648
30.03000 407.516
30.20000 404.510
30.37000 405.129
30.54000 419.793
30.71000 425.187
30.88000 426.512
31.05000 524.451
31.22000 812.171
31.39000 1104.988
31.56000 892.853
31.73000 561.672
31.90000 447.274
32.07000 413.364
32.24000 384.084
32.41000 390.535
32.58000 381.605
32.75000 376.956
32.92000 353.783
33.09000 353.812
33.26000 326.955
33.43000 350.841
33.60000 335.123
33.77000 320.332
33.94000 334.661
34.11000 315.694
34.28000 327.654
34.45000 328.215
34.62000 311.635
34.79000 325.758
34.96000 323.408
35.13000 303.166
35.30000 307.251
35.47000 313.933
35.64000 293.403
35.81000 288.172
35.98000 301.382
36.15000 293.828
36.32000 299.451
36.49000 290.426
36.66000 289.808
36.83000 288.813
37.00000 291.034
37.17000 295.998
37.34000 295.373
37.51000 280.060
37.68000 297.624
37.85000 291.084
38.02000 285.045
38.19000 285.777
38.36000 306.359
38.53000 405.593
38.70000 562.428
38.87000 440.518
39.04000 318.844
39.21000 286.953
39.38000 277.409
39.55000 265.966
39.72000 263.589
39.89000 255.029
40.06000 240.521
40.23000 261.807
40.40000 234.744
40.57000 240.236
40.74000 251.800
40.91000 239.388
41.08000 245.062
41.25000 253.438
41.42000 243.144
41.59000 240.649
41.76000 259.438
41.93000 234.160
42.10000 230.133
42.27000 223.935
42.44000 228.223
42.61000 233.276
42.78000 229.110
42.95000 230.227
43.12000 223.582
43.29000 208.420
43.46000 215.836
43.63000 223.994
43.80000 213.793
43.97000 218.277
44.14000 211.272
44.31000 215.656
44.48000 225.368
44.65000 233.079
44.82000 242.864
44.99000 238.102
45.16000 227.993
45.33000 265.869
45.50000 240.277
45.67000 236.210
45.84000 212.558
46.01000 207.617
46.18000 199.793
46.35000 203.315
46.52000 212.723
46.69000 193.797
46.86000 195.680
47.03000 202.928
47.20000 189.564
47.37000 191.014
47.54000 185.019
47.71000 184.372
47.88000 177.839
48.05000 170.872
48.22000 175.326
48.39000 184.507
48.56000 189.626
48.73000 180.823
48.90000 183.092
49.07000 173.321
49.24000 172.018
49.41000 179.248
49.58000 169.023
49.75000 180.253
49.92000 176.829
50.09000 182.124
50.26000 175.165
50.43000 178.448
50.60000 178.372
50.77000 179.938
50.94000 176.518
51.11000 174.178
51.28000 172.053
51.45000 167.437
51.62000 159.439
51.79000 159.892
51.96000 167.928
52.13000 152.285
52.30000 164.968
52.47000 148.831
52.64000 164.797
52.81000 155.392
52.98000 149.860
53.15000 150.826
53.32000 155.309
53.49000 164.838
53.66000 149.202
53.83000 158.637
54.00000 158.035
54.17000 147.812
54.34000 158.797
54.51000 150.555
54.68000 163.563
54.85000 153.660
55.02000 147.697
55.19000 159.012
55.36000 155.284
55.53000 186.814
55.70000 213.846
55.87000 259.509
56.04000 261.458
56.21000 218.297
56.38000 184.108
56.55000 162.835
56.72000 144.544
56.89000 152.081
57.06000 138.991
57.23000 144.735
57.40000 145.029
57.57000 139.283
57.74000 130.033
57.91000 134.338
58.08000 141.534
58.25000 139.830
58.42000 133.118
58.59000 127.244
58.76000 127.947
58.93000 145.836
59.10000 140.061
59.27000 133.260
59.44000 127.535
59.61000 134.515
59.78000 129.202
59.95000 134.226
60.12000 137.655
60.29000 134.609
60.46000 142.491
60.63000 122.512
60.80000 132.477
60.97000 125.659
61.14000 137.319
61.31000 145.188
61.48000 148.907
61.65000 251.853
61.82000 209.672
61.99000 143.151
62.16000 145.808
62.33000 144.019
62.50000 134.746
62.67000 139.677
62.84000 141.690
63.01000 152.621
63.18000 153.214
63.35000 132.999
63.52000 142.864
63.69000 152.054
63.86000 151.552
64.03000 165.954
64.20000 171.506
64.37000 156.460
64.54000 170.501
64.71000 181.195
64.88000 189.374
65.05000 191.355
65.22000 206.043
65.39000 236.294
65.56000 274.726
65.73000 531.090
65.90000 1047.998
66.07000 395.031
66.24000 302.741
66.41000 443.201
66.58000 360.497
66.75000 322.875
66.92000 336.030
67.09000 347.615
67.26000 395.074
67.43000 418.505
67.60000 437.489
67.77000 480.460
67.94000 513.446
68.11000 560.018
68.28000 622.459
68.45000 744.750
68.62000 1000.416
68.79000 1782.741
68.96000 8957.427
69.13000 53654.863
69.30000 33113.941
69.47000 9351.946
69.64000 1275.962
69.81000 865.162
69.98000 701.421
70.00000 676.356