File: XRD/XRD/25-09-2025/XY Data/BTO_Mapping_Theta2Theta_25-09-2025_001_15_6-180_19-021.xy
20.00000 560.956
20.17000 551.472
20.34000 553.157
20.51000 539.240
20.68000 541.675
20.85000 536.980
21.02000 536.300
21.19000 550.652
21.36000 524.812
21.53000 546.509
21.70000 546.392
21.87000 566.453
22.04000 595.891
22.21000 600.881
22.38000 604.809
22.55000 547.881
22.72000 518.128
22.89000 510.800
23.06000 498.676
23.23000 503.914
23.40000 488.831
23.57000 494.746
23.74000 471.735
23.91000 491.469
24.08000 485.669
24.25000 479.188
24.42000 488.622
24.59000 463.898
24.76000 483.424
24.93000 467.091
25.10000 477.510
25.27000 473.284
25.44000 476.019
25.61000 456.371
25.78000 467.655
25.95000 455.526
26.12000 457.911
26.29000 447.295
26.46000 438.025
26.63000 451.991
26.80000 443.791
26.97000 440.640
27.14000 438.558
27.31000 441.838
27.48000 427.982
27.65000 409.643
27.82000 423.874
27.99000 431.056
28.16000 428.580
28.33000 419.421
28.50000 415.106
28.67000 418.625
28.84000 402.609
29.01000 397.984
29.18000 406.893
29.35000 405.404
29.52000 403.457
29.69000 391.459
29.86000 404.155
30.03000 413.927
30.20000 408.236
30.37000 403.905
30.54000 392.212
30.71000 396.117
30.88000 412.917
31.05000 508.467
31.22000 820.483
31.39000 1239.820
31.56000 961.921
31.73000 554.615
31.90000 438.370
32.07000 409.060
32.24000 391.821
32.41000 377.711
32.58000 355.967
32.75000 361.333
32.92000 377.339
33.09000 349.260
33.26000 343.139
33.43000 344.811
33.60000 335.021
33.77000 319.956
33.94000 322.140
34.11000 335.907
34.28000 320.204
34.45000 325.154
34.62000 330.599
34.79000 315.122
34.96000 323.053
35.13000 310.655
35.30000 312.156
35.47000 318.415
35.64000 312.707
35.81000 283.705
35.98000 300.154
36.15000 274.895
36.32000 298.730
36.49000 286.930
36.66000 295.953
36.83000 288.140
37.00000 285.588
37.17000 279.340
37.34000 288.017
37.51000 279.461
37.68000 279.416
37.85000 280.015
38.02000 287.739
38.19000 283.428
38.36000 301.285
38.53000 431.363
38.70000 744.039
38.87000 633.653
39.04000 335.958
39.21000 273.203
39.38000 261.124
39.55000 254.652
39.72000 267.770
39.89000 263.009
40.06000 259.611
40.23000 248.088
40.40000 257.451
40.57000 258.726
40.74000 232.455
40.91000 250.401
41.08000 239.427
41.25000 236.562
41.42000 233.040
41.59000 236.919
41.76000 235.948
41.93000 239.590
42.10000 237.793
42.27000 237.720
42.44000 227.509
42.61000 222.549
42.78000 231.739
42.95000 224.561
43.12000 218.638
43.29000 221.383
43.46000 219.351
43.63000 231.966
43.80000 218.072
43.97000 214.470
44.14000 226.423
44.31000 214.094
44.48000 217.249
44.65000 229.970
44.82000 240.966
44.99000 243.721
45.16000 259.093
45.33000 255.188
45.50000 249.030
45.67000 235.379
45.84000 236.141
46.01000 229.551
46.18000 214.953
46.35000 203.870
46.52000 198.367
46.69000 174.464
46.86000 199.080
47.03000 197.553
47.20000 189.446
47.37000 189.760
47.54000 179.689
47.71000 185.112
47.88000 192.904
48.05000 190.272
48.22000 171.531
48.39000 172.399
48.56000 188.412
48.73000 170.690
48.90000 182.408
49.07000 176.046
49.24000 168.796
49.41000 180.768
49.58000 176.111
49.75000 175.096
49.92000 175.328
50.09000 168.206
50.26000 177.360
50.43000 179.952
50.60000 190.749
50.77000 186.557
50.94000 189.008
51.11000 176.621
51.28000 175.286
51.45000 154.361
51.62000 165.554
51.79000 157.302
51.96000 170.810
52.13000 164.907
52.30000 160.513
52.47000 149.458
52.64000 146.340
52.81000 163.226
52.98000 153.474
53.15000 158.124
53.32000 157.912
53.49000 158.796
53.66000 163.013
53.83000 155.601
54.00000 149.113
54.17000 150.009
54.34000 145.559
54.51000 148.625
54.68000 152.247
54.85000 137.795
55.02000 148.258
55.19000 158.273
55.36000 160.983
55.53000 180.348
55.70000 241.634
55.87000 397.913
56.04000 454.784
56.21000 310.545
56.38000 217.704
56.55000 169.137
56.72000 157.805
56.89000 149.509
57.06000 143.080
57.23000 138.142
57.40000 141.385
57.57000 134.337
57.74000 149.405
57.91000 139.320
58.08000 135.798
58.25000 141.169
58.42000 142.807
58.59000 139.528
58.76000 127.281
58.93000 129.009
59.10000 142.126
59.27000 142.752
59.44000 129.233
59.61000 134.637
59.78000 132.184
59.95000 128.890
60.12000 132.463
60.29000 143.824
60.46000 139.251
60.63000 121.199
60.80000 131.844
60.97000 135.771
61.14000 132.673
61.31000 136.885
61.48000 145.148
61.65000 257.915
61.82000 192.677
61.99000 138.331
62.16000 129.989
62.33000 147.361
62.50000 142.705
62.67000 144.639
62.84000 138.709
63.01000 152.939
63.18000 143.748
63.35000 148.768
63.52000 140.609
63.69000 158.626
63.86000 145.965
64.03000 165.365
64.20000 150.320
64.37000 161.504
64.54000 171.130
64.71000 168.842
64.88000 187.613
65.05000 189.859
65.22000 209.685
65.39000 220.580
65.56000 279.257
65.73000 567.460
65.90000 1050.516
66.07000 362.903
66.24000 308.088
66.41000 445.448
66.58000 371.037
66.75000 314.732
66.92000 352.568
67.09000 346.046
67.26000 394.674
67.43000 411.233
67.60000 442.267
67.77000 463.083
67.94000 501.804
68.11000 541.691
68.28000 621.824
68.45000 720.802
68.62000 1004.807
68.79000 1911.302
68.96000 10965.509
69.13000 53653.777
69.30000 32016.938
69.47000 8006.589
69.64000 1265.454
69.81000 835.279
69.98000 657.508
70.00000 657.883