File: XRD/XRD/25-09-2025/XY Data/BTO_Mapping_Theta2Theta_25-09-2025_001_16_9-271_28-532.xy
20.00000 570.247
20.17000 550.706
20.34000 555.725
20.51000 558.574
20.68000 527.928
20.85000 528.278
21.02000 527.738
21.19000 556.729
21.36000 529.905
21.53000 528.838
21.70000 549.919
21.87000 564.938
22.04000 601.860
22.21000 597.477
22.38000 595.880
22.55000 539.947
22.72000 538.927
22.89000 485.289
23.06000 518.541
23.23000 499.319
23.40000 518.936
23.57000 506.510
23.74000 483.065
23.91000 486.294
24.08000 486.303
24.25000 479.484
24.42000 473.268
24.59000 456.753
24.76000 472.931
24.93000 485.141
25.10000 455.479
25.27000 474.967
25.44000 454.629
25.61000 463.674
25.78000 454.716
25.95000 453.276
26.12000 454.372
26.29000 453.653
26.46000 459.277
26.63000 443.916
26.80000 449.343
26.97000 425.959
27.14000 425.670
27.31000 437.677
27.48000 429.998
27.65000 421.524
27.82000 425.464
27.99000 413.048
28.16000 419.955
28.33000 420.410
28.50000 392.769
28.67000 421.303
28.84000 409.728
29.01000 403.478
29.18000 407.698
29.35000 409.580
29.52000 405.817
29.69000 404.098
29.86000 399.456
30.03000 421.542
30.20000 412.121
30.37000 407.452
30.54000 396.272
30.71000 401.464
30.88000 437.459
31.05000 505.514
31.22000 842.164
31.39000 1327.583
31.56000 1048.013
31.73000 613.351
31.90000 448.468
32.07000 396.717
32.24000 403.471
32.41000 391.026
32.58000 390.249
32.75000 366.378
32.92000 364.735
33.09000 338.501
33.26000 344.820
33.43000 323.625
33.60000 332.736
33.77000 321.600
33.94000 330.233
34.11000 312.156
34.28000 313.869
34.45000 325.277
34.62000 313.887
34.79000 310.415
34.96000 312.500
35.13000 306.604
35.30000 299.357
35.47000 315.130
35.64000 309.769
35.81000 319.505
35.98000 302.060
36.15000 311.489
36.32000 300.186
36.49000 297.703
36.66000 287.651
36.83000 284.884
37.00000 290.980
37.17000 277.368
37.34000 300.317
37.51000 289.162
37.68000 286.993
37.85000 288.067
38.02000 283.627
38.19000 290.007
38.36000 314.614
38.53000 441.439
38.70000 694.069
38.87000 568.411
39.04000 333.604
39.21000 273.088
39.38000 266.048
39.55000 266.924
39.72000 261.456
39.89000 251.722
40.06000 247.351
40.23000 253.869
40.40000 248.301
40.57000 247.832
40.74000 247.114
40.91000 244.341
41.08000 245.993
41.25000 236.871
41.42000 237.748
41.59000 231.923
41.76000 231.270
41.93000 243.889
42.10000 236.285
42.27000 229.223
42.44000 236.211
42.61000 224.209
42.78000 225.585
42.95000 225.984
43.12000 223.899
43.29000 215.268
43.46000 204.807
43.63000 215.067
43.80000 215.646
43.97000 211.516
44.14000 217.066
44.31000 225.822
44.48000 218.551
44.65000 213.971
44.82000 229.487
44.99000 235.310
45.16000 247.631
45.33000 251.245
45.50000 251.577
45.67000 235.822
45.84000 228.754
46.01000 225.284
46.18000 208.338
46.35000 199.466
46.52000 219.138
46.69000 203.776
46.86000 194.298
47.03000 189.983
47.20000 205.018
47.37000 184.058
47.54000 195.382
47.71000 183.438
47.88000 188.364
48.05000 167.337
48.22000 180.244
48.39000 186.115
48.56000 179.308
48.73000 181.248
48.90000 168.774
49.07000 176.788
49.24000 168.512
49.41000 173.960
49.58000 168.214
49.75000 171.356
49.92000 163.906
50.09000 167.925
50.26000 181.060
50.43000 176.675
50.60000 174.416
50.77000 198.642
50.94000 186.609
51.11000 174.353
51.28000 170.489
51.45000 154.537
51.62000 161.523
51.79000 158.703
51.96000 155.000
52.13000 157.701
52.30000 158.672
52.47000 169.033
52.64000 153.571
52.81000 155.496
52.98000 155.396
53.15000 157.402
53.32000 155.675
53.49000 151.670
53.66000 152.874
53.83000 147.381
54.00000 150.951
54.17000 148.957
54.34000 144.486
54.51000 153.989
54.68000 150.652
54.85000 146.994
55.02000 156.618
55.19000 162.178
55.36000 161.430
55.53000 176.996
55.70000 232.562
55.87000 348.959
56.04000 371.457
56.21000 279.902
56.38000 189.389
56.55000 164.027
56.72000 152.285
56.89000 151.772
57.06000 141.205
57.23000 144.990
57.40000 131.727
57.57000 147.260
57.74000 139.369
57.91000 143.270
58.08000 138.223
58.25000 133.406
58.42000 143.534
58.59000 129.813
58.76000 140.433
58.93000 132.262
59.10000 134.633
59.27000 140.269
59.44000 136.165
59.61000 133.845
59.78000 123.773
59.95000 120.580
60.12000 140.322
60.29000 131.162
60.46000 136.572
60.63000 136.452
60.80000 136.689
60.97000 141.882
61.14000 135.639
61.31000 136.552
61.48000 148.841
61.65000 250.045
61.82000 203.628
61.99000 148.422
62.16000 142.371
62.33000 145.669
62.50000 135.127
62.67000 145.103
62.84000 134.921
63.01000 147.491
63.18000 134.746
63.35000 149.331
63.52000 153.142
63.69000 153.486
63.86000 155.798
64.03000 143.828
64.20000 159.940
64.37000 159.798
64.54000 173.928
64.71000 179.644
64.88000 182.831
65.05000 188.768
65.22000 214.272
65.39000 226.686
65.56000 298.697
65.73000 547.075
65.90000 1041.157
66.07000 379.901
66.24000 324.666
66.41000 446.081
66.58000 349.200
66.75000 320.195
66.92000 339.275
67.09000 358.227
67.26000 396.384
67.43000 418.445
67.60000 443.176
67.77000 456.899
67.94000 518.772
68.11000 558.100
68.28000 638.113
68.45000 727.844
68.62000 1009.577
68.79000 1889.504
68.96000 10846.030
69.13000 53687.781
69.30000 31985.930
69.47000 7963.171
69.64000 1249.141
69.81000 840.278
69.98000 659.474
70.00000 654.398