File: XRD/XRD/25-09-2025/XY Data/BTO_Mapping_Theta2Theta_25-09-2025_001_25_-20-000_34-641.xy
20.00000 576.813
20.17000 577.596
20.34000 563.388
20.51000 558.572
20.68000 564.392
20.85000 563.232
21.02000 533.293
21.19000 544.365
21.36000 552.652
21.53000 538.862
21.70000 557.926
21.87000 584.665
22.04000 613.543
22.21000 656.417
22.38000 605.598
22.55000 549.831
22.72000 512.548
22.89000 534.128
23.06000 507.406
23.23000 502.879
23.40000 500.684
23.57000 486.761
23.74000 484.311
23.91000 492.143
24.08000 495.316
24.25000 478.893
24.42000 486.731
24.59000 471.937
24.76000 471.003
24.93000 482.985
25.10000 454.922
25.27000 457.358
25.44000 458.174
25.61000 444.450
25.78000 460.217
25.95000 455.039
26.12000 438.462
26.29000 428.355
26.46000 434.646
26.63000 449.465
26.80000 430.563
26.97000 434.963
27.14000 438.893
27.31000 425.213
27.48000 410.873
27.65000 420.043
27.82000 424.699
27.99000 420.292
28.16000 413.944
28.33000 402.268
28.50000 417.456
28.67000 414.080
28.84000 422.567
29.01000 389.788
29.18000 398.753
29.35000 409.935
29.52000 415.623
29.69000 399.962
29.86000 393.863
30.03000 390.318
30.20000 413.532
30.37000 418.456
30.54000 383.607
30.71000 430.848
30.88000 426.387
31.05000 531.138
31.22000 902.871
31.39000 1445.080
31.56000 1055.358
31.73000 564.047
31.90000 449.712
32.07000 397.924
32.24000 381.024
32.41000 384.557
32.58000 401.000
32.75000 347.823
32.92000 385.177
33.09000 346.907
33.26000 349.634
33.43000 342.438
33.60000 346.573
33.77000 310.687
33.94000 318.619
34.11000 318.846
34.28000 340.890
34.45000 305.635
34.62000 318.785
34.79000 311.199
34.96000 312.690
35.13000 314.422
35.30000 312.818
35.47000 312.222
35.64000 303.403
35.81000 311.314
35.98000 305.807
36.15000 289.420
36.32000 311.645
36.49000 298.116
36.66000 283.717
36.83000 297.444
37.00000 296.223
37.17000 304.960
37.34000 294.280
37.51000 287.668
37.68000 292.378
37.85000 289.442
38.02000 286.087
38.19000 287.794
38.36000 312.442
38.53000 472.040
38.70000 770.037
38.87000 625.347
39.04000 360.955
39.21000 289.398
39.38000 281.182
39.55000 272.697
39.72000 255.578
39.89000 257.590
40.06000 259.858
40.23000 237.413
40.40000 249.235
40.57000 234.532
40.74000 246.438
40.91000 232.189
41.08000 245.678
41.25000 238.987
41.42000 232.754
41.59000 250.062
41.76000 228.854
41.93000 239.432
42.10000 222.365
42.27000 225.403
42.44000 233.520
42.61000 223.289
42.78000 227.297
42.95000 218.314
43.12000 216.576
43.29000 215.087
43.46000 222.296
43.63000 218.762
43.80000 216.645
43.97000 210.885
44.14000 227.293
44.31000 209.185
44.48000 218.316
44.65000 224.433
44.82000 237.007
44.99000 285.101
45.16000 294.508
45.33000 280.696
45.50000 263.037
45.67000 234.638
45.84000 239.631
46.01000 225.506
46.18000 218.185
46.35000 206.157
46.52000 197.168
46.69000 198.972
46.86000 212.102
47.03000 192.868
47.20000 188.023
47.37000 180.781
47.54000 187.657
47.71000 189.848
47.88000 178.963
48.05000 175.374
48.22000 179.824
48.39000 180.721
48.56000 186.780
48.73000 179.530
48.90000 181.603
49.07000 175.539
49.24000 180.360
49.41000 174.097
49.58000 176.917
49.75000 163.860
49.92000 171.956
50.09000 171.098
50.26000 181.456
50.43000 186.157
50.60000 193.826
50.77000 215.627
50.94000 192.733
51.11000 175.755
51.28000 167.667
51.45000 170.358
51.62000 173.077
51.79000 163.666
51.96000 164.021
52.13000 161.652
52.30000 161.890
52.47000 157.270
52.64000 151.935
52.81000 158.117
52.98000 157.708
53.15000 154.329
53.32000 155.298
53.49000 164.204
53.66000 160.544
53.83000 155.727
54.00000 140.430
54.17000 149.368
54.34000 140.586
54.51000 158.801
54.68000 145.964
54.85000 155.242
55.02000 157.687
55.19000 151.829
55.36000 161.515
55.53000 189.396
55.70000 288.254
55.87000 390.347
56.04000 427.321
56.21000 322.775
56.38000 211.962
56.55000 172.923
56.72000 157.784
56.89000 149.198
57.06000 140.376
57.23000 133.289
57.40000 161.691
57.57000 150.788
57.74000 134.521
57.91000 139.176
58.08000 138.577
58.25000 141.666
58.42000 131.558
58.59000 133.009
58.76000 127.870
58.93000 132.120
59.10000 148.451
59.27000 138.422
59.44000 127.004
59.61000 137.242
59.78000 136.581
59.95000 135.419
60.12000 115.842
60.29000 128.957
60.46000 121.250
60.63000 132.100
60.80000 132.949
60.97000 141.454
61.14000 125.783
61.31000 140.360
61.48000 151.283
61.65000 268.237
61.82000 191.706
61.99000 134.641
62.16000 128.039
62.33000 147.944
62.50000 142.552
62.67000 134.426
62.84000 138.554
63.01000 131.987
63.18000 138.226
63.35000 156.730
63.52000 149.233
63.69000 149.590
63.86000 153.049
64.03000 154.444
64.20000 151.844
64.37000 162.275
64.54000 173.870
64.71000 171.066
64.88000 190.267
65.05000 180.309
65.22000 199.775
65.39000 233.906
65.56000 295.527
65.73000 616.727
65.90000 1091.858
66.07000 390.905
66.24000 307.288
66.41000 455.321
66.58000 348.046
66.75000 345.752
66.92000 345.714
67.09000 377.606
67.26000 371.180
67.43000 420.255
67.60000 454.177
67.77000 479.595
67.94000 506.315
68.11000 592.591
68.28000 645.363
68.45000 757.655
68.62000 1069.088
68.79000 2001.807
68.96000 13070.537
69.13000 56897.332
69.30000 33169.566
69.47000 7936.750
69.64000 1295.415
69.81000 836.846
69.98000 659.628
70.00000 659.164