File: XRD/XRD/25-09-2025/XY Data/BTO_Mapping_Theta2Theta_25-09-2025_001_48_-3-136_-29-836.xy
20.00000 563.651
20.17000 558.916
20.34000 534.796
20.51000 540.334
20.68000 549.162
20.85000 526.915
21.02000 551.129
21.19000 562.200
21.36000 545.751
21.53000 549.833
21.70000 557.424
21.87000 624.636
22.04000 714.103
22.21000 666.725
22.38000 588.530
22.55000 535.214
22.72000 508.632
22.89000 508.474
23.06000 508.133
23.23000 504.974
23.40000 503.507
23.57000 491.692
23.74000 497.463
23.91000 487.840
24.08000 486.974
24.25000 487.980
24.42000 453.796
24.59000 481.270
24.76000 467.149
24.93000 469.915
25.10000 462.885
25.27000 461.401
25.44000 458.656
25.61000 453.943
25.78000 455.611
25.95000 446.200
26.12000 455.600
26.29000 436.703
26.46000 456.475
26.63000 438.543
26.80000 435.213
26.97000 432.503
27.14000 455.963
27.31000 429.600
27.48000 437.074
27.65000 431.619
27.82000 429.774
27.99000 411.131
28.16000 428.623
28.33000 439.711
28.50000 410.786
28.67000 423.320
28.84000 428.469
29.01000 404.491
29.18000 399.684
29.35000 403.958
29.52000 396.446
29.69000 395.242
29.86000 422.412
30.03000 415.888
30.20000 418.536
30.37000 422.134
30.54000 404.813
30.71000 426.691
30.88000 438.156
31.05000 616.495
31.22000 1389.626
31.39000 2073.385
31.56000 1395.785
31.73000 658.634
31.90000 452.785
32.07000 405.437
32.24000 368.335
32.41000 367.759
32.58000 362.027
32.75000 367.635
32.92000 381.020
33.09000 344.664
33.26000 333.664
33.43000 346.038
33.60000 329.447
33.77000 333.306
33.94000 339.758
34.11000 316.608
34.28000 316.960
34.45000 322.633
34.62000 322.856
34.79000 314.284
34.96000 315.918
35.13000 316.758
35.30000 310.505
35.47000 309.432
35.64000 302.503
35.81000 289.699
35.98000 307.080
36.15000 298.300
36.32000 302.864
36.49000 293.316
36.66000 304.639
36.83000 280.392
37.00000 301.478
37.17000 302.874
37.34000 287.060
37.51000 276.296
37.68000 284.632
37.85000 276.318
38.02000 288.856
38.19000 299.963
38.36000 334.203
38.53000 483.752
38.70000 675.797
38.87000 533.522
39.04000 344.719
39.21000 275.852
39.38000 264.548
39.55000 263.116
39.72000 261.426
39.89000 257.580
40.06000 259.086
40.23000 262.786
40.40000 251.986
40.57000 241.625
40.74000 234.891
40.91000 244.206
41.08000 238.173
41.25000 241.174
41.42000 236.971
41.59000 240.802
41.76000 230.155
41.93000 237.722
42.10000 213.650
42.27000 229.986
42.44000 228.074
42.61000 218.015
42.78000 230.949
42.95000 227.181
43.12000 221.144
43.29000 220.551
43.46000 220.406
43.63000 229.745
43.80000 210.367
43.97000 232.684
44.14000 223.611
44.31000 219.311
44.48000 224.978
44.65000 243.085
44.82000 273.542
44.99000 324.433
45.16000 299.080
45.33000 297.792
45.50000 262.856
45.67000 261.055
45.84000 219.667
46.01000 222.875
46.18000 218.354
46.35000 185.284
46.52000 213.906
46.69000 205.371
46.86000 200.232
47.03000 187.710
47.20000 183.437
47.37000 185.887
47.54000 177.936
47.71000 179.064
47.88000 196.813
48.05000 189.924
48.22000 185.123
48.39000 191.052
48.56000 185.474
48.73000 183.748
48.90000 185.959
49.07000 177.397
49.24000 177.341
49.41000 178.267
49.58000 176.233
49.75000 176.541
49.92000 166.501
50.09000 178.916
50.26000 173.219
50.43000 190.284
50.60000 224.844
50.77000 223.441
50.94000 190.420
51.11000 186.722
51.28000 169.869
51.45000 165.050
51.62000 174.753
51.79000 166.601
51.96000 172.013
52.13000 146.331
52.30000 156.763
52.47000 168.000
52.64000 137.093
52.81000 162.386
52.98000 167.270
53.15000 149.888
53.32000 153.069
53.49000 159.580
53.66000 153.939
53.83000 155.885
54.00000 141.306
54.17000 156.449
54.34000 163.436
54.51000 151.188
54.68000 150.420
54.85000 151.751
55.02000 148.246
55.19000 152.969
55.36000 162.539
55.53000 191.190
55.70000 310.132
55.87000 428.690
56.04000 385.953
56.21000 272.901
56.38000 209.601
56.55000 175.253
56.72000 160.902
56.89000 150.754
57.06000 146.410
57.23000 149.235
57.40000 149.585
57.57000 142.088
57.74000 141.348
57.91000 137.319
58.08000 142.217
58.25000 142.937
58.42000 126.028
58.59000 140.707
58.76000 134.451
58.93000 139.921
59.10000 122.303
59.27000 137.875
59.44000 129.019
59.61000 138.913
59.78000 128.803
59.95000 126.744
60.12000 129.795
60.29000 120.410
60.46000 128.126
60.63000 132.693
60.80000 128.738
60.97000 138.746
61.14000 138.976
61.31000 139.071
61.48000 142.634
61.65000 279.861
61.82000 200.389
61.99000 147.542
62.16000 141.081
62.33000 138.485
62.50000 141.759
62.67000 145.969
62.84000 137.429
63.01000 147.001
63.18000 152.583
63.35000 152.146
63.52000 150.956
63.69000 147.976
63.86000 152.515
64.03000 151.779
64.20000 157.649
64.37000 161.542
64.54000 160.637
64.71000 183.610
64.88000 181.553
65.05000 188.258
65.22000 232.910
65.39000 257.896
65.56000 316.495
65.73000 646.317
65.90000 1196.959
66.07000 404.664
66.24000 326.855
66.41000 467.153
66.58000 362.948
66.75000 326.325
66.92000 345.546
67.09000 363.463
67.26000 387.135
67.43000 421.881
67.60000 457.491
67.77000 490.535
67.94000 527.832
68.11000 592.143
68.28000 615.319
68.45000 750.315
68.62000 1067.927
68.79000 2041.740
68.96000 13017.757
69.13000 60398.199
69.30000 35623.055
69.47000 8756.959
69.64000 1340.607
69.81000 861.284
69.98000 715.100
70.00000 690.278