File: XRD/XRD/25-09-2025/XY Data/BTO_Mapping_Theta2Theta_25-09-2025_001_56_20-074_-22-294.xy
20.00000 570.631
20.17000 540.582
20.34000 530.768
20.51000 565.005
20.68000 544.873
20.85000 542.103
21.02000 535.284
21.19000 532.502
21.36000 541.324
21.53000 545.740
21.70000 547.105
21.87000 566.674
22.04000 610.392
22.21000 611.505
22.38000 587.208
22.55000 538.398
22.72000 536.999
22.89000 512.914
23.06000 513.088
23.23000 488.272
23.40000 501.846
23.57000 499.370
23.74000 498.781
23.91000 477.737
24.08000 482.438
24.25000 475.168
24.42000 502.308
24.59000 480.178
24.76000 480.307
24.93000 479.836
25.10000 481.295
25.27000 471.290
25.44000 464.567
25.61000 457.147
25.78000 475.488
25.95000 456.484
26.12000 444.934
26.29000 436.499
26.46000 458.806
26.63000 444.329
26.80000 442.862
26.97000 431.611
27.14000 439.670
27.31000 418.454
27.48000 417.093
27.65000 440.342
27.82000 421.828
27.99000 429.273
28.16000 426.323
28.33000 409.413
28.50000 429.869
28.67000 412.617
28.84000 405.823
29.01000 403.344
29.18000 378.390
29.35000 405.184
29.52000 404.010
29.69000 384.710
29.86000 403.632
30.03000 414.131
30.20000 410.208
30.37000 413.673
30.54000 402.432
30.71000 425.914
30.88000 419.557
31.05000 505.185
31.22000 817.454
31.39000 1252.946
31.56000 952.831
31.73000 565.342
31.90000 445.860
32.07000 407.685
32.24000 389.573
32.41000 377.801
32.58000 375.677
32.75000 354.125
32.92000 371.124
33.09000 367.192
33.26000 339.664
33.43000 337.615
33.60000 333.958
33.77000 321.619
33.94000 331.457
34.11000 348.118
34.28000 332.091
34.45000 323.945
34.62000 303.900
34.79000 324.659
34.96000 320.069
35.13000 315.422
35.30000 303.484
35.47000 297.695
35.64000 306.167
35.81000 303.511
35.98000 305.864
36.15000 300.160
36.32000 293.756
36.49000 297.018
36.66000 286.585
36.83000 284.827
37.00000 295.658
37.17000 291.178
37.34000 299.818
37.51000 284.445
37.68000 277.824
37.85000 272.277
38.02000 278.836
38.19000 298.810
38.36000 298.468
38.53000 429.937
38.70000 747.576
38.87000 655.417
39.04000 340.510
39.21000 282.473
39.38000 263.814
39.55000 260.823
39.72000 254.980
39.89000 260.904
40.06000 279.145
40.23000 245.419
40.40000 259.358
40.57000 250.202
40.74000 254.313
40.91000 241.579
41.08000 236.490
41.25000 246.695
41.42000 238.249
41.59000 231.364
41.76000 244.580
41.93000 236.037
42.10000 238.673
42.27000 223.192
42.44000 230.461
42.61000 220.412
42.78000 234.545
42.95000 232.595
43.12000 231.495
43.29000 225.424
43.46000 231.462
43.63000 218.909
43.80000 204.768
43.97000 215.604
44.14000 215.163
44.31000 208.909
44.48000 213.537
44.65000 226.902
44.82000 223.620
44.99000 246.208
45.16000 258.190
45.33000 259.250
45.50000 260.779
45.67000 239.242
45.84000 207.649
46.01000 223.565
46.18000 216.324
46.35000 202.400
46.52000 205.369
46.69000 191.401
46.86000 196.560
47.03000 197.861
47.20000 196.084
47.37000 183.663
47.54000 180.332
47.71000 193.104
47.88000 179.019
48.05000 176.570
48.22000 197.109
48.39000 191.274
48.56000 176.934
48.73000 170.539
48.90000 176.421
49.07000 180.667
49.24000 176.377
49.41000 167.055
49.58000 174.825
49.75000 178.169
49.92000 170.077
50.09000 180.336
50.26000 170.439
50.43000 177.304
50.60000 185.630
50.77000 179.972
50.94000 175.587
51.11000 161.473
51.28000 168.288
51.45000 162.589
51.62000 171.618
51.79000 162.916
51.96000 164.311
52.13000 162.715
52.30000 153.360
52.47000 158.310
52.64000 162.900
52.81000 161.645
52.98000 152.432
53.15000 164.987
53.32000 145.327
53.49000 159.141
53.66000 152.756
53.83000 154.194
54.00000 152.768
54.17000 153.782
54.34000 152.818
54.51000 167.708
54.68000 147.357
54.85000 150.880
55.02000 149.429
55.19000 150.250
55.36000 161.377
55.53000 185.077
55.70000 252.043
55.87000 407.727
56.04000 445.216
56.21000 310.915
56.38000 209.651
56.55000 170.050
56.72000 157.387
56.89000 146.986
57.06000 140.810
57.23000 143.502
57.40000 152.134
57.57000 140.376
57.74000 135.646
57.91000 138.877
58.08000 133.776
58.25000 135.259
58.42000 138.944
58.59000 131.010
58.76000 142.592
58.93000 141.063
59.10000 137.945
59.27000 133.264
59.44000 133.474
59.61000 132.255
59.78000 134.631
59.95000 134.681
60.12000 127.548
60.29000 140.154
60.46000 122.324
60.63000 129.787
60.80000 125.187
60.97000 135.506
61.14000 131.304
61.31000 140.693
61.48000 142.568
61.65000 254.125
61.82000 205.759
61.99000 135.219
62.16000 134.562
62.33000 134.342
62.50000 144.348
62.67000 140.170
62.84000 144.154
63.01000 149.146
63.18000 151.821
63.35000 151.993
63.52000 139.203
63.69000 150.006
63.86000 163.407
64.03000 163.734
64.20000 162.212
64.37000 156.764
64.54000 163.281
64.71000 172.261
64.88000 183.753
65.05000 192.465
65.22000 215.052
65.39000 245.995
65.56000 281.152
65.73000 563.155
65.90000 1039.702
66.07000 384.881
66.24000 297.274
66.41000 451.572
66.58000 342.673
66.75000 335.060
66.92000 332.899
67.09000 362.871
67.26000 377.906
67.43000 417.316
67.60000 451.027
67.77000 464.713
67.94000 515.851
68.11000 583.447
68.28000 617.747
68.45000 717.567
68.62000 1007.275
68.79000 1814.484
68.96000 10280.586
69.13000 53288.824
69.30000 32193.010
69.47000 8271.356
69.64000 1230.269
69.81000 812.714
69.98000 674.891
70.00000 664.853