File: XRD/XRD/25-09-2025/XY Data/BTO_Mapping_Theta2Theta_25-09-2025_001_50_3-090_-9-511.xy
20.00000 568.992
20.17000 555.189
20.34000 543.176
20.51000 538.034
20.68000 555.366
20.85000 562.037
21.02000 551.513
21.19000 529.732
21.36000 549.686
21.53000 539.805
21.70000 567.936
21.87000 572.434
22.04000 626.794
22.21000 643.268
22.38000 587.694
22.55000 561.369
22.72000 534.767
22.89000 517.541
23.06000 515.594
23.23000 480.641
23.40000 502.869
23.57000 484.041
23.74000 499.488
23.91000 495.188
24.08000 492.371
24.25000 486.578
24.42000 470.388
24.59000 476.187
24.76000 461.678
24.93000 461.784
25.10000 462.132
25.27000 459.440
25.44000 469.015
25.61000 447.452
25.78000 452.167
25.95000 453.151
26.12000 443.374
26.29000 444.199
26.46000 458.865
26.63000 434.747
26.80000 436.605
26.97000 436.917
27.14000 423.338
27.31000 436.340
27.48000 423.774
27.65000 428.701
27.82000 422.360
27.99000 429.404
28.16000 422.028
28.33000 418.501
28.50000 404.079
28.67000 411.565
28.84000 414.071
29.01000 399.303
29.18000 390.479
29.35000 393.705
29.52000 394.572
29.69000 411.036
29.86000 408.453
30.03000 413.365
30.20000 398.494
30.37000 407.335
30.54000 398.846
30.71000 410.369
30.88000 427.120
31.05000 537.358
31.22000 1049.375
31.39000 1578.760
31.56000 1074.047
31.73000 596.111
31.90000 443.038
32.07000 389.393
32.24000 383.292
32.41000 358.025
32.58000 375.632
32.75000 368.842
32.92000 354.532
33.09000 344.002
33.26000 335.707
33.43000 341.075
33.60000 343.444
33.77000 336.880
33.94000 318.325
34.11000 322.656
34.28000 325.225
34.45000 330.496
34.62000 311.384
34.79000 314.291
34.96000 312.178
35.13000 316.334
35.30000 303.685
35.47000 303.989
35.64000 299.133
35.81000 302.802
35.98000 298.091
36.15000 292.760
36.32000 297.696
36.49000 298.692
36.66000 297.778
36.83000 299.564
37.00000 299.768
37.17000 297.939
37.34000 283.635
37.51000 276.023
37.68000 295.131
37.85000 289.488
38.02000 276.590
38.19000 280.838
38.36000 324.778
38.53000 507.608
38.70000 821.162
38.87000 658.430
39.04000 343.237
39.21000 277.977
39.38000 275.348
39.55000 280.913
39.72000 268.737
39.89000 269.013
40.06000 251.353
40.23000 241.651
40.40000 249.710
40.57000 249.572
40.74000 251.006
40.91000 249.471
41.08000 241.474
41.25000 245.761
41.42000 244.109
41.59000 238.586
41.76000 237.230
41.93000 223.061
42.10000 236.825
42.27000 230.847
42.44000 236.512
42.61000 218.734
42.78000 244.205
42.95000 230.972
43.12000 236.012
43.29000 218.551
43.46000 236.212
43.63000 224.528
43.80000 214.732
43.97000 209.679
44.14000 220.025
44.31000 223.419
44.48000 218.228
44.65000 216.298
44.82000 233.666
44.99000 269.816
45.16000 275.621
45.33000 270.709
45.50000 251.041
45.67000 235.336
45.84000 234.995
46.01000 215.445
46.18000 206.162
46.35000 191.174
46.52000 215.223
46.69000 184.360
46.86000 178.742
47.03000 193.826
47.20000 187.676
47.37000 194.714
47.54000 191.919
47.71000 194.177
47.88000 184.301
48.05000 193.720
48.22000 179.830
48.39000 173.644
48.56000 188.041
48.73000 192.451
48.90000 181.801
49.07000 175.292
49.24000 179.543
49.41000 187.182
49.58000 168.868
49.75000 168.196
49.92000 162.447
50.09000 170.810
50.26000 188.081
50.43000 190.003
50.60000 201.312
50.77000 201.100
50.94000 196.150
51.11000 180.197
51.28000 177.569
51.45000 169.383
51.62000 158.323
51.79000 162.479
51.96000 151.819
52.13000 160.627
52.30000 153.721
52.47000 152.848
52.64000 169.504
52.81000 142.927
52.98000 152.445
53.15000 159.895
53.32000 149.727
53.49000 162.939
53.66000 152.253
53.83000 164.535
54.00000 154.894
54.17000 157.123
54.34000 160.953
54.51000 146.692
54.68000 156.796
54.85000 154.402
55.02000 155.478
55.19000 161.479
55.36000 163.206
55.53000 192.535
55.70000 284.714
55.87000 440.192
56.04000 456.958
56.21000 313.080
56.38000 211.357
56.55000 166.081
56.72000 154.346
56.89000 155.272
57.06000 155.632
57.23000 145.297
57.40000 145.408
57.57000 139.840
57.74000 141.328
57.91000 139.052
58.08000 140.631
58.25000 139.636
58.42000 140.759
58.59000 128.675
58.76000 129.908
58.93000 135.569
59.10000 132.135
59.27000 132.597
59.44000 142.735
59.61000 132.221
59.78000 132.420
59.95000 130.257
60.12000 123.501
60.29000 125.112
60.46000 141.520
60.63000 131.464
60.80000 135.672
60.97000 128.865
61.14000 141.726
61.31000 132.032
61.48000 141.219
61.65000 257.607
61.82000 207.097
61.99000 144.630
62.16000 149.035
62.33000 141.035
62.50000 140.898
62.67000 143.064
62.84000 137.215
63.01000 135.157
63.18000 141.724
63.35000 151.995
63.52000 143.680
63.69000 157.327
63.86000 138.361
64.03000 147.825
64.20000 160.087
64.37000 158.435
64.54000 165.749
64.71000 149.920
64.88000 181.645
65.05000 184.142
65.22000 220.996
65.39000 246.582
65.56000 290.621
65.73000 605.619
65.90000 1079.275
66.07000 377.111
66.24000 322.150
66.41000 465.801
66.58000 334.228
66.75000 317.774
66.92000 343.651
67.09000 369.721
67.26000 383.047
67.43000 399.266
67.60000 445.105
67.77000 478.551
67.94000 503.748
68.11000 554.231
68.28000 632.815
68.45000 737.567
68.62000 1049.018
68.79000 1908.714
68.96000 11704.633
69.13000 54910.387
69.30000 32510.605
69.47000 7897.255
69.64000 1276.302
69.81000 852.314
69.98000 676.158
70.00000 662.439