File: XRD/XRD/25-09-2025/XY Data/BTO_Mapping_Theta2Theta_25-09-2025_001_60_27-406_-12-202.xy
20.00000 563.384
20.17000 569.969
20.34000 561.973
20.51000 543.405
20.68000 551.712
20.85000 539.922
21.02000 539.282
21.19000 548.424
21.36000 539.862
21.53000 538.336
21.70000 555.996
21.87000 566.660
22.04000 604.490
22.21000 613.156
22.38000 595.355
22.55000 531.333
22.72000 505.622
22.89000 528.554
23.06000 488.583
23.23000 500.845
23.40000 501.519
23.57000 488.909
23.74000 500.321
23.91000 494.437
24.08000 490.405
24.25000 498.857
24.42000 484.490
24.59000 491.009
24.76000 477.876
24.93000 483.064
25.10000 461.239
25.27000 468.208
25.44000 461.186
25.61000 474.018
25.78000 454.295
25.95000 463.953
26.12000 469.954
26.29000 464.744
26.46000 452.582
26.63000 452.383
26.80000 444.316
26.97000 431.531
27.14000 439.249
27.31000 425.308
27.48000 426.705
27.65000 445.904
27.82000 420.000
27.99000 427.285
28.16000 413.580
28.33000 412.439
28.50000 413.687
28.67000 395.101
28.84000 402.553
29.01000 428.865
29.18000 417.962
29.35000 432.395
29.52000 418.987
29.69000 403.321
29.86000 416.013
30.03000 410.951
30.20000 420.518
30.37000 399.522
30.54000 385.670
30.71000 431.868
30.88000 423.810
31.05000 528.804
31.22000 860.509
31.39000 1341.664
31.56000 1009.440
31.73000 610.892
31.90000 451.538
32.07000 399.247
32.24000 395.853
32.41000 377.185
32.58000 362.056
32.75000 369.172
32.92000 364.308
33.09000 353.989
33.26000 344.153
33.43000 346.056
33.60000 347.610
33.77000 324.604
33.94000 324.485
34.11000 325.150
34.28000 323.281
34.45000 329.496
34.62000 324.376
34.79000 313.781
34.96000 306.757
35.13000 295.744
35.30000 300.062
35.47000 295.301
35.64000 307.751
35.81000 303.327
35.98000 302.564
36.15000 308.636
36.32000 290.566
36.49000 293.010
36.66000 285.527
36.83000 302.650
37.00000 317.817
37.17000 282.306
37.34000 281.443
37.51000 287.173
37.68000 291.818
37.85000 280.990
38.02000 282.766
38.19000 302.486
38.36000 295.284
38.53000 430.157
38.70000 713.270
38.87000 565.560
39.04000 328.737
39.21000 278.176
39.38000 276.958
39.55000 262.031
39.72000 268.582
39.89000 259.615
40.06000 256.812
40.23000 266.902
40.40000 252.718
40.57000 238.302
40.74000 241.863
40.91000 247.263
41.08000 240.332
41.25000 240.625
41.42000 233.972
41.59000 247.880
41.76000 224.817
41.93000 236.848
42.10000 225.231
42.27000 237.960
42.44000 235.344
42.61000 224.713
42.78000 218.499
42.95000 223.644
43.12000 217.533
43.29000 214.672
43.46000 218.346
43.63000 214.027
43.80000 221.413
43.97000 208.984
44.14000 222.624
44.31000 229.022
44.48000 223.085
44.65000 220.480
44.82000 219.832
44.99000 229.533
45.16000 264.942
45.33000 248.234
45.50000 238.685
45.67000 239.284
45.84000 223.707
46.01000 216.702
46.18000 204.779
46.35000 214.640
46.52000 207.112
46.69000 205.141
46.86000 193.988
47.03000 191.962
47.20000 194.706
47.37000 187.107
47.54000 188.870
47.71000 175.783
47.88000 192.599
48.05000 184.717
48.22000 185.747
48.39000 182.133
48.56000 176.158
48.73000 173.063
48.90000 168.319
49.07000 172.459
49.24000 174.967
49.41000 185.358
49.58000 176.511
49.75000 160.071
49.92000 177.118
50.09000 176.591
50.26000 172.206
50.43000 184.273
50.60000 179.427
50.77000 186.060
50.94000 186.295
51.11000 173.708
51.28000 168.302
51.45000 168.380
51.62000 161.445
51.79000 159.100
51.96000 155.739
52.13000 160.937
52.30000 157.426
52.47000 153.837
52.64000 156.996
52.81000 146.424
52.98000 158.549
53.15000 155.325
53.32000 163.920
53.49000 160.160
53.66000 160.125
53.83000 146.404
54.00000 162.344
54.17000 155.826
54.34000 141.327
54.51000 151.714
54.68000 158.865
54.85000 153.933
55.02000 152.029
55.19000 153.965
55.36000 161.880
55.53000 184.469
55.70000 248.061
55.87000 358.147
56.04000 371.111
56.21000 273.475
56.38000 199.294
56.55000 171.609
56.72000 157.881
56.89000 146.537
57.06000 146.912
57.23000 146.981
57.40000 144.538
57.57000 145.288
57.74000 143.236
57.91000 141.512
58.08000 136.824
58.25000 140.280
58.42000 133.080
58.59000 138.690
58.76000 129.788
58.93000 129.926
59.10000 128.901
59.27000 131.920
59.44000 122.770
59.61000 140.298
59.78000 134.592
59.95000 122.144
60.12000 151.423
60.29000 131.937
60.46000 133.397
60.63000 129.167
60.80000 130.311
60.97000 130.966
61.14000 131.254
61.31000 146.716
61.48000 141.597
61.65000 265.702
61.82000 215.733
61.99000 144.555
62.16000 139.218
62.33000 134.861
62.50000 139.139
62.67000 146.325
62.84000 138.807
63.01000 144.301
63.18000 156.973
63.35000 139.202
63.52000 151.006
63.69000 159.692
63.86000 152.763
64.03000 153.803
64.20000 157.921
64.37000 167.589
64.54000 173.506
64.71000 164.173
64.88000 185.694
65.05000 196.504
65.22000 198.278
65.39000 233.671
65.56000 286.255
65.73000 573.652
65.90000 1059.156
66.07000 391.066
66.24000 310.164
66.41000 441.666
66.58000 372.010
66.75000 328.196
66.92000 348.400
67.09000 362.869
67.26000 383.422
67.43000 421.409
67.60000 443.844
67.77000 456.939
67.94000 519.090
68.11000 577.287
68.28000 640.703
68.45000 707.220
68.62000 1006.749
68.79000 1761.144
68.96000 10038.112
69.13000 53180.449
69.30000 32075.074
69.47000 8324.822
69.64000 1277.894
69.81000 844.549
69.98000 686.643
70.00000 648.358