File: XRD/XRD/25-09-2025/XY Data/BTO_Mapping_Theta2Theta_25-09-2025_001_46_-1-045_-9-945.xy
20.00000 547.725
20.17000 536.090
20.34000 552.761
20.51000 545.460
20.68000 560.576
20.85000 532.568
21.02000 532.083
21.19000 530.511
21.36000 527.468
21.53000 543.887
21.70000 533.946
21.87000 594.875
22.04000 645.338
22.21000 635.258
22.38000 610.600
22.55000 563.900
22.72000 500.919
22.89000 525.023
23.06000 517.507
23.23000 507.355
23.40000 500.019
23.57000 486.389
23.74000 492.051
23.91000 497.852
24.08000 480.237
24.25000 457.092
24.42000 500.168
24.59000 486.875
24.76000 491.460
24.93000 484.094
25.10000 498.662
25.27000 457.471
25.44000 461.954
25.61000 449.549
25.78000 452.920
25.95000 465.503
26.12000 435.569
26.29000 439.267
26.46000 438.495
26.63000 419.595
26.80000 420.173
26.97000 446.046
27.14000 444.344
27.31000 447.319
27.48000 413.699
27.65000 425.296
27.82000 427.285
27.99000 412.707
28.16000 439.630
28.33000 425.357
28.50000 418.263
28.67000 411.470
28.84000 412.080
29.01000 398.473
29.18000 391.914
29.35000 396.605
29.52000 415.220
29.69000 406.180
29.86000 405.571
30.03000 405.667
30.20000 411.563
30.37000 414.898
30.54000 399.669
30.71000 436.916
30.88000 439.743
31.05000 592.216
31.22000 1198.337
31.39000 1747.296
31.56000 1210.942
31.73000 611.458
31.90000 453.443
32.07000 411.085
32.24000 382.962
32.41000 376.012
32.58000 376.196
32.75000 379.690
32.92000 368.510
33.09000 353.651
33.26000 351.213
33.43000 331.285
33.60000 328.776
33.77000 340.859
33.94000 336.105
34.11000 315.427
34.28000 322.800
34.45000 313.940
34.62000 328.987
34.79000 318.091
34.96000 318.589
35.13000 311.231
35.30000 316.964
35.47000 303.174
35.64000 301.618
35.81000 286.289
35.98000 305.355
36.15000 301.904
36.32000 294.252
36.49000 294.409
36.66000 299.550
36.83000 294.657
37.00000 301.915
37.17000 290.472
37.34000 285.172
37.51000 269.417
37.68000 300.247
37.85000 278.778
38.02000 290.528
38.19000 287.402
38.36000 336.372
38.53000 546.510
38.70000 799.888
38.87000 606.366
39.04000 354.684
39.21000 286.790
39.38000 271.174
39.55000 261.212
39.72000 257.272
39.89000 259.001
40.06000 273.462
40.23000 265.491
40.40000 257.051
40.57000 246.056
40.74000 235.814
40.91000 246.002
41.08000 241.377
41.25000 241.163
41.42000 235.782
41.59000 225.106
41.76000 242.286
41.93000 251.313
42.10000 237.158
42.27000 236.071
42.44000 228.701
42.61000 232.642
42.78000 219.046
42.95000 213.659
43.12000 218.171
43.29000 228.394
43.46000 228.043
43.63000 216.464
43.80000 226.630
43.97000 212.908
44.14000 211.190
44.31000 206.981
44.48000 220.759
44.65000 232.714
44.82000 253.615
44.99000 275.302
45.16000 290.322
45.33000 284.187
45.50000 278.027
45.67000 250.913
45.84000 228.674
46.01000 219.457
46.18000 219.944
46.35000 201.590
46.52000 193.920
46.69000 197.808
46.86000 193.966
47.03000 194.753
47.20000 193.056
47.37000 174.878
47.54000 187.531
47.71000 175.156
47.88000 183.952
48.05000 198.699
48.22000 177.957
48.39000 174.514
48.56000 186.638
48.73000 183.680
48.90000 186.042
49.07000 183.196
49.24000 185.303
49.41000 179.108
49.58000 189.661
49.75000 170.674
49.92000 178.189
50.09000 176.451
50.26000 172.215
50.43000 188.833
50.60000 205.544
50.77000 208.696
50.94000 200.954
51.11000 167.594
51.28000 169.593
51.45000 160.379
51.62000 161.554
51.79000 164.233
51.96000 161.155
52.13000 165.090
52.30000 160.378
52.47000 158.329
52.64000 154.169
52.81000 161.179
52.98000 161.339
53.15000 158.660
53.32000 155.062
53.49000 157.128
53.66000 165.449
53.83000 151.198
54.00000 153.670
54.17000 159.072
54.34000 163.867
54.51000 153.971
54.68000 150.386
54.85000 148.664
55.02000 151.918
55.19000 149.776
55.36000 164.135
55.53000 207.942
55.70000 311.609
55.87000 438.272
56.04000 422.022
56.21000 299.173
56.38000 205.667
56.55000 170.438
56.72000 144.416
56.89000 152.610
57.06000 145.357
57.23000 139.904
57.40000 156.875
57.57000 136.348
57.74000 129.872
57.91000 144.098
58.08000 138.114
58.25000 137.639
58.42000 140.715
58.59000 131.345
58.76000 145.301
58.93000 123.803
59.10000 127.089
59.27000 141.576
59.44000 127.042
59.61000 132.817
59.78000 129.128
59.95000 134.905
60.12000 138.579
60.29000 135.955
60.46000 138.585
60.63000 123.226
60.80000 136.466
60.97000 131.798
61.14000 138.991
61.31000 138.606
61.48000 147.282
61.65000 251.935
61.82000 193.429
61.99000 139.880
62.16000 136.703
62.33000 140.498
62.50000 134.429
62.67000 139.660
62.84000 148.959
63.01000 155.595
63.18000 147.905
63.35000 145.381
63.52000 155.716
63.69000 147.654
63.86000 159.174
64.03000 155.408
64.20000 163.480
64.37000 170.733
64.54000 169.198
64.71000 175.939
64.88000 177.414
65.05000 198.188
65.22000 235.400
65.39000 250.247
65.56000 318.913
65.73000 642.410
65.90000 1093.613
66.07000 393.462
66.24000 315.215
66.41000 460.479
66.58000 367.820
66.75000 309.805
66.92000 332.179
67.09000 353.434
67.26000 400.714
67.43000 396.637
67.60000 441.941
67.77000 473.703
67.94000 518.054
68.11000 585.909
68.28000 623.939
68.45000 742.478
68.62000 1036.947
68.79000 1950.839
68.96000 12430.143
69.13000 56373.395
69.30000 33164.051
69.47000 7979.266
69.64000 1298.570
69.81000 868.345
69.98000 671.263
70.00000 663.354