File: XRD/XRD/25-09-2025/XY Data/BTO_Mapping_Theta2Theta_25-09-2025_001_59_18-271_-8-135.xy
20.00000 543.803
20.17000 580.795
20.34000 518.768
20.51000 561.298
20.68000 535.786
20.85000 563.953
21.02000 537.791
21.19000 555.191
21.36000 552.305
21.53000 566.970
21.70000 555.902
21.87000 592.054
22.04000 598.163
22.21000 620.184
22.38000 588.984
22.55000 544.087
22.72000 510.033
22.89000 513.313
23.06000 514.263
23.23000 500.147
23.40000 489.046
23.57000 512.774
23.74000 475.237
23.91000 495.556
24.08000 489.808
24.25000 487.050
24.42000 471.300
24.59000 482.185
24.76000 471.321
24.93000 476.658
25.10000 487.109
25.27000 467.248
25.44000 483.730
25.61000 471.962
25.78000 441.922
25.95000 437.652
26.12000 455.246
26.29000 464.793
26.46000 459.225
26.63000 441.499
26.80000 446.096
26.97000 441.692
27.14000 434.421
27.31000 445.045
27.48000 434.136
27.65000 423.531
27.82000 425.070
27.99000 402.452
28.16000 407.845
28.33000 435.241
28.50000 416.366
28.67000 422.223
28.84000 401.583
29.01000 400.206
29.18000 418.116
29.35000 381.710
29.52000 396.886
29.69000 401.634
29.86000 403.011
30.03000 421.798
30.20000 389.215
30.37000 404.239
30.54000 412.738
30.71000 409.414
30.88000 425.199
31.05000 498.054
31.22000 806.818
31.39000 1272.410
31.56000 962.760
31.73000 573.284
31.90000 444.144
32.07000 401.924
32.24000 396.162
32.41000 402.818
32.58000 371.651
32.75000 365.161
32.92000 368.966
33.09000 350.310
33.26000 339.720
33.43000 320.735
33.60000 316.127
33.77000 332.357
33.94000 326.132
34.11000 314.425
34.28000 317.871
34.45000 304.832
34.62000 318.082
34.79000 310.440
34.96000 312.811
35.13000 313.577
35.30000 322.971
35.47000 311.643
35.64000 301.567
35.81000 315.745
35.98000 301.253
36.15000 304.709
36.32000 311.608
36.49000 297.755
36.66000 294.809
36.83000 278.634
37.00000 290.863
37.17000 271.388
37.34000 279.593
37.51000 286.455
37.68000 284.959
37.85000 285.850
38.02000 280.118
38.19000 299.074
38.36000 321.312
38.53000 465.002
38.70000 767.099
38.87000 608.077
39.04000 329.529
39.21000 280.004
39.38000 273.310
39.55000 264.537
39.72000 265.324
39.89000 267.168
40.06000 250.594
40.23000 252.690
40.40000 238.867
40.57000 256.818
40.74000 245.737
40.91000 246.624
41.08000 255.619
41.25000 247.348
41.42000 246.963
41.59000 239.053
41.76000 219.679
41.93000 220.841
42.10000 228.403
42.27000 231.546
42.44000 231.484
42.61000 225.973
42.78000 222.671
42.95000 238.357
43.12000 230.333
43.29000 212.174
43.46000 227.016
43.63000 225.232
43.80000 211.904
43.97000 215.645
44.14000 218.210
44.31000 219.828
44.48000 222.408
44.65000 233.949
44.82000 217.014
44.99000 249.301
45.16000 252.225
45.33000 257.764
45.50000 253.041
45.67000 245.330
45.84000 221.430
46.01000 211.764
46.18000 219.716
46.35000 200.214
46.52000 199.148
46.69000 188.358
46.86000 199.518
47.03000 195.150
47.20000 181.450
47.37000 181.617
47.54000 190.795
47.71000 188.594
47.88000 175.287
48.05000 181.401
48.22000 188.658
48.39000 181.717
48.56000 180.915
48.73000 167.372
48.90000 174.282
49.07000 163.699
49.24000 178.697
49.41000 182.373
49.58000 172.666
49.75000 168.297
49.92000 172.046
50.09000 168.173
50.26000 178.349
50.43000 171.590
50.60000 182.112
50.77000 179.324
50.94000 179.433
51.11000 175.632
51.28000 174.431
51.45000 166.880
51.62000 163.349
51.79000 164.821
51.96000 160.402
52.13000 154.670
52.30000 168.861
52.47000 165.179
52.64000 153.556
52.81000 158.259
52.98000 157.155
53.15000 142.239
53.32000 152.505
53.49000 151.810
53.66000 151.926
53.83000 155.490
54.00000 155.057
54.17000 159.363
54.34000 152.409
54.51000 154.175
54.68000 154.534
54.85000 154.440
55.02000 141.751
55.19000 151.918
55.36000 159.231
55.53000 187.475
55.70000 240.171
55.87000 395.803
56.04000 447.034
56.21000 304.091
56.38000 203.706
56.55000 161.320
56.72000 155.305
56.89000 153.681
57.06000 149.757
57.23000 138.021
57.40000 153.310
57.57000 130.177
57.74000 136.614
57.91000 129.672
58.08000 148.441
58.25000 139.503
58.42000 136.682
58.59000 137.804
58.76000 141.867
58.93000 137.166
59.10000 135.236
59.27000 131.889
59.44000 129.236
59.61000 125.542
59.78000 127.160
59.95000 132.744
60.12000 129.726
60.29000 128.354
60.46000 128.608
60.63000 138.541
60.80000 135.620
60.97000 130.423
61.14000 135.140
61.31000 132.105
61.48000 144.154
61.65000 259.017
61.82000 198.697
61.99000 143.889
62.16000 144.199
62.33000 136.631
62.50000 135.622
62.67000 139.849
62.84000 137.005
63.01000 134.560
63.18000 144.351
63.35000 154.650
63.52000 138.270
63.69000 148.018
63.86000 157.007
64.03000 154.357
64.20000 160.940
64.37000 164.275
64.54000 162.283
64.71000 158.368
64.88000 170.543
65.05000 188.926
65.22000 192.298
65.39000 240.345
65.56000 286.878
65.73000 566.557
65.90000 1052.896
66.07000 380.758
66.24000 325.563
66.41000 453.612
66.58000 336.227
66.75000 318.026
66.92000 336.031
67.09000 366.280
67.26000 381.429
67.43000 397.161
67.60000 435.187
67.77000 489.798
67.94000 495.982
68.11000 549.690
68.28000 634.653
68.45000 695.014
68.62000 1015.989
68.79000 1809.299
68.96000 10455.786
69.13000 53158.176
69.30000 32031.203
69.47000 8156.918
69.64000 1268.685
69.81000 844.834
69.98000 638.248
70.00000 639.999