File: XRD/XRD/25-09-2025/XY Data/BTO_Mapping_Theta2Theta_25-09-2025_001_45_-20-000_-34-641.xy
20.00000 555.143
20.17000 545.439
20.34000 547.637
20.51000 576.194
20.68000 549.375
20.85000 543.020
21.02000 572.027
21.19000 542.812
21.36000 519.991
21.53000 541.335
21.70000 582.373
21.87000 730.446
22.04000 890.063
22.21000 717.362
22.38000 601.586
22.55000 540.606
22.72000 513.577
22.89000 500.852
23.06000 499.313
23.23000 502.895
23.40000 507.031
23.57000 503.954
23.74000 489.861
23.91000 489.033
24.08000 498.157
24.25000 468.136
24.42000 478.386
24.59000 477.368
24.76000 484.824
24.93000 462.795
25.10000 478.302
25.27000 465.377
25.44000 464.685
25.61000 465.477
25.78000 459.718
25.95000 470.746
26.12000 462.245
26.29000 458.020
26.46000 439.294
26.63000 455.915
26.80000 451.832
26.97000 433.796
27.14000 419.109
27.31000 439.283
27.48000 436.656
27.65000 423.330
27.82000 445.398
27.99000 422.913
28.16000 426.426
28.33000 406.493
28.50000 431.590
28.67000 415.652
28.84000 408.379
29.01000 418.621
29.18000 436.989
29.35000 411.978
29.52000 415.178
29.69000 398.722
29.86000 430.085
30.03000 435.124
30.20000 451.722
30.37000 438.451
30.54000 419.088
30.71000 462.376
30.88000 496.695
31.05000 804.031
31.22000 2013.303
31.39000 2896.608
31.56000 1692.408
31.73000 786.499
31.90000 505.546
32.07000 431.488
32.24000 381.343
32.41000 398.762
32.58000 376.411
32.75000 349.125
32.92000 405.736
33.09000 358.084
33.26000 342.323
33.43000 351.888
33.60000 339.960
33.77000 335.011
33.94000 334.285
34.11000 336.652
34.28000 325.711
34.45000 327.916
34.62000 313.967
34.79000 319.222
34.96000 301.006
35.13000 304.460
35.30000 309.306
35.47000 300.502
35.64000 307.743
35.81000 286.461
35.98000 308.241
36.15000 306.777
36.32000 296.254
36.49000 297.912
36.66000 290.515
36.83000 291.070
37.00000 301.004
37.17000 301.139
37.34000 290.909
37.51000 286.213
37.68000 280.474
37.85000 286.710
38.02000 282.797
38.19000 307.444
38.36000 334.116
38.53000 451.556
38.70000 495.823
38.87000 401.388
39.04000 312.678
39.21000 268.524
39.38000 273.967
39.55000 266.481
39.72000 260.166
39.89000 258.612
40.06000 264.181
40.23000 242.734
40.40000 254.092
40.57000 248.924
40.74000 254.839
40.91000 252.258
41.08000 245.810
41.25000 247.356
41.42000 239.047
41.59000 248.795
41.76000 239.199
41.93000 219.723
42.10000 232.189
42.27000 227.582
42.44000 224.070
42.61000 220.101
42.78000 225.040
42.95000 237.589
43.12000 235.407
43.29000 221.623
43.46000 222.874
43.63000 220.782
43.80000 222.699
43.97000 223.009
44.14000 223.471
44.31000 227.650
44.48000 245.477
44.65000 311.340
44.82000 408.777
44.99000 466.356
45.16000 384.888
45.33000 320.899
45.50000 271.722
45.67000 241.746
45.84000 235.577
46.01000 212.959
46.18000 207.080
46.35000 210.276
46.52000 201.735
46.69000 196.824
46.86000 186.024
47.03000 188.081
47.20000 199.319
47.37000 190.136
47.54000 183.096
47.71000 185.637
47.88000 176.516
48.05000 187.234
48.22000 185.915
48.39000 179.449
48.56000 175.926
48.73000 191.290
48.90000 176.173
49.07000 173.401
49.24000 178.806
49.41000 179.438
49.58000 170.208
49.75000 183.412
49.92000 170.493
50.09000 175.888
50.26000 190.009
50.43000 223.928
50.60000 234.983
50.77000 229.493
50.94000 191.342
51.11000 192.725
51.28000 186.974
51.45000 172.273
51.62000 165.748
51.79000 158.509
51.96000 159.920
52.13000 164.282
52.30000 164.537
52.47000 150.791
52.64000 164.504
52.81000 158.533
52.98000 153.335
53.15000 155.530
53.32000 145.480
53.49000 154.584
53.66000 152.609
53.83000 157.253
54.00000 139.057
54.17000 162.469
54.34000 146.036
54.51000 155.510
54.68000 153.191
54.85000 147.065
55.02000 159.063
55.19000 168.521
55.36000 179.566
55.53000 221.940
55.70000 315.632
55.87000 392.162
56.04000 335.954
56.21000 256.488
56.38000 204.318
56.55000 170.721
56.72000 156.812
56.89000 146.216
57.06000 145.821
57.23000 155.565
57.40000 136.383
57.57000 133.348
57.74000 135.407
57.91000 133.254
58.08000 149.291
58.25000 140.362
58.42000 138.683
58.59000 138.379
58.76000 140.800
58.93000 135.163
59.10000 134.151
59.27000 135.493
59.44000 138.089
59.61000 136.048
59.78000 132.547
59.95000 142.200
60.12000 127.241
60.29000 131.813
60.46000 127.608
60.63000 133.499
60.80000 132.241
60.97000 138.693
61.14000 129.399
61.31000 134.708
61.48000 152.332
61.65000 338.847
61.82000 246.910
61.99000 145.478
62.16000 146.675
62.33000 146.514
62.50000 146.111
62.67000 142.853
62.84000 146.799
63.01000 157.375
63.18000 142.490
63.35000 151.592
63.52000 144.394
63.69000 144.240
63.86000 168.356
64.03000 165.939
64.20000 163.701
64.37000 177.379
64.54000 185.012
64.71000 188.564
64.88000 204.575
65.05000 243.111
65.22000 270.509
65.39000 320.725
65.56000 401.293
65.73000 859.435
65.90000 1598.912
66.07000 494.957
66.24000 388.673
66.41000 603.634
66.58000 419.116
66.75000 374.643
66.92000 403.984
67.09000 405.947
67.26000 460.725
67.43000 502.662
67.60000 523.522
67.77000 552.343
67.94000 609.061
68.11000 652.288
68.28000 748.457
68.45000 883.329
68.62000 1318.518
68.79000 2646.479
68.96000 19572.814
69.13000 86247.523
69.30000 50792.813
69.47000 12444.464
69.64000 1647.277
69.81000 1030.607
69.98000 797.867
70.00000 777.637