File: XRD/XRD/25-09-2025/XY Data/BTO_Mapping_Theta2Theta_25-09-2025_001_35_-19-563_-4-158.xy
20.00000 542.617
20.17000 570.817
20.34000 557.082
20.51000 548.959
20.68000 537.407
20.85000 556.380
21.02000 545.510
21.19000 545.026
21.36000 560.607
21.53000 562.906
21.70000 592.048
21.87000 701.751
22.04000 802.583
22.21000 698.609
22.38000 574.290
22.55000 543.947
22.72000 531.641
22.89000 531.982
23.06000 496.417
23.23000 510.135
23.40000 491.930
23.57000 483.046
23.74000 488.816
23.91000 488.328
24.08000 485.376
24.25000 499.650
24.42000 502.698
24.59000 499.898
24.76000 488.914
24.93000 474.510
25.10000 462.446
25.27000 466.517
25.44000 458.709
25.61000 457.538
25.78000 461.799
25.95000 470.158
26.12000 464.273
26.29000 449.068
26.46000 454.381
26.63000 441.551
26.80000 441.997
26.97000 449.103
27.14000 456.081
27.31000 439.801
27.48000 432.309
27.65000 419.315
27.82000 418.300
27.99000 412.880
28.16000 427.379
28.33000 422.935
28.50000 410.439
28.67000 422.752
28.84000 400.114
29.01000 402.718
29.18000 413.662
29.35000 400.216
29.52000 400.855
29.69000 422.060
29.86000 424.975
30.03000 438.364
30.20000 420.574
30.37000 432.807
30.54000 400.763
30.71000 437.353
30.88000 482.345
31.05000 742.104
31.22000 1674.931
31.39000 2280.510
31.56000 1394.838
31.73000 704.350
31.90000 468.922
32.07000 410.078
32.24000 395.455
32.41000 388.467
32.58000 365.665
32.75000 365.621
32.92000 389.073
33.09000 364.417
33.26000 368.850
33.43000 339.437
33.60000 335.984
33.77000 318.802
33.94000 323.836
34.11000 318.799
34.28000 323.630
34.45000 317.349
34.62000 314.934
34.79000 314.849
34.96000 310.809
35.13000 317.424
35.30000 312.097
35.47000 301.353
35.64000 289.853
35.81000 301.471
35.98000 299.804
36.15000 281.410
36.32000 300.035
36.49000 282.289
36.66000 296.663
36.83000 287.665
37.00000 283.347
37.17000 277.258
37.34000 282.814
37.51000 280.273
37.68000 284.742
37.85000 279.802
38.02000 282.375
38.19000 288.075
38.36000 341.062
38.53000 470.698
38.70000 546.495
38.87000 432.149
39.04000 308.060
39.21000 276.940
39.38000 262.620
39.55000 268.959
39.72000 284.112
39.89000 251.198
40.06000 247.637
40.23000 246.136
40.40000 250.466
40.57000 259.872
40.74000 253.790
40.91000 249.296
41.08000 246.866
41.25000 242.798
41.42000 234.565
41.59000 239.672
41.76000 246.709
41.93000 230.077
42.10000 231.756
42.27000 226.909
42.44000 230.030
42.61000 215.782
42.78000 228.917
42.95000 242.217
43.12000 212.123
43.29000 229.103
43.46000 216.698
43.63000 218.001
43.80000 221.472
43.97000 214.478
44.14000 228.372
44.31000 226.649
44.48000 237.192
44.65000 264.538
44.82000 350.241
44.99000 401.186
45.16000 367.235
45.33000 317.022
45.50000 269.237
45.67000 254.053
45.84000 223.606
46.01000 214.224
46.18000 205.432
46.35000 204.755
46.52000 200.543
46.69000 203.212
46.86000 190.128
47.03000 194.451
47.20000 185.277
47.37000 196.450
47.54000 184.430
47.71000 189.281
47.88000 193.448
48.05000 185.559
48.22000 182.460
48.39000 184.852
48.56000 174.536
48.73000 179.650
48.90000 166.071
49.07000 178.961
49.24000 180.562
49.41000 167.874
49.58000 184.307
49.75000 171.516
49.92000 180.764
50.09000 182.035
50.26000 188.571
50.43000 211.983
50.60000 224.270
50.77000 215.836
50.94000 185.686
51.11000 176.849
51.28000 186.439
51.45000 162.417
51.62000 158.248
51.79000 157.157
51.96000 163.312
52.13000 161.054
52.30000 156.126
52.47000 163.869
52.64000 161.225
52.81000 149.350
52.98000 163.372
53.15000 154.012
53.32000 165.836
53.49000 154.978
53.66000 157.984
53.83000 164.335
54.00000 152.060
54.17000 148.807
54.34000 143.624
54.51000 151.462
54.68000 157.271
54.85000 147.406
55.02000 158.663
55.19000 152.803
55.36000 177.163
55.53000 217.823
55.70000 317.745
55.87000 386.114
56.04000 357.577
56.21000 265.663
56.38000 197.191
56.55000 167.675
56.72000 156.678
56.89000 138.963
57.06000 143.963
57.23000 134.896
57.40000 142.528
57.57000 133.315
57.74000 139.332
57.91000 144.684
58.08000 143.245
58.25000 135.327
58.42000 145.364
58.59000 144.719
58.76000 129.063
58.93000 127.910
59.10000 126.678
59.27000 134.251
59.44000 128.643
59.61000 132.255
59.78000 130.682
59.95000 135.893
60.12000 134.605
60.29000 133.166
60.46000 138.400
60.63000 131.740
60.80000 132.612
60.97000 146.821
61.14000 127.901
61.31000 131.917
61.48000 153.635
61.65000 307.322
61.82000 202.194
61.99000 152.706
62.16000 142.156
62.33000 145.456
62.50000 134.654
62.67000 141.794
62.84000 141.585
63.01000 140.614
63.18000 144.452
63.35000 147.057
63.52000 164.398
63.69000 160.142
63.86000 151.258
64.03000 160.463
64.20000 159.496
64.37000 155.211
64.54000 173.346
64.71000 180.741
64.88000 174.448
65.05000 210.183
65.22000 256.484
65.39000 302.793
65.56000 353.434
65.73000 761.679
65.90000 1336.399
66.07000 428.364
66.24000 371.443
66.41000 527.163
66.58000 387.323
66.75000 344.915
66.92000 379.052
67.09000 381.413
67.26000 405.574
67.43000 455.546
67.60000 491.075
67.77000 521.109
67.94000 571.001
68.11000 611.294
68.28000 676.586
68.45000 805.095
68.62000 1207.565
68.79000 2370.805
68.96000 17413.096
69.13000 71680.078
69.30000 41218.770
69.47000 9547.729
69.64000 1375.044
69.81000 939.742
69.98000 716.305
70.00000 718.823