File: XRD/XRD/25-09-2025/XY Data/BTO_Mapping_Theta2Theta_25-09-2025_001_42_-5-000_-8-660.xy
20.00000 566.304
20.17000 554.282
20.34000 557.798
20.51000 542.926
20.68000 561.863
20.85000 557.826
21.02000 549.200
21.19000 528.601
21.36000 534.783
21.53000 524.659
21.70000 543.751
21.87000 602.432
22.04000 663.131
22.21000 651.241
22.38000 596.607
22.55000 562.106
22.72000 529.922
22.89000 499.562
23.06000 508.999
23.23000 499.199
23.40000 488.231
23.57000 495.359
23.74000 490.620
23.91000 481.963
24.08000 491.828
24.25000 483.855
24.42000 494.698
24.59000 467.798
24.76000 474.825
24.93000 458.383
25.10000 467.992
25.27000 478.854
25.44000 457.464
25.61000 467.011
25.78000 459.697
25.95000 475.061
26.12000 448.486
26.29000 445.293
26.46000 448.923
26.63000 437.673
26.80000 446.621
26.97000 437.953
27.14000 451.346
27.31000 420.862
27.48000 425.486
27.65000 415.452
27.82000 445.739
27.99000 425.788
28.16000 416.277
28.33000 405.506
28.50000 415.335
28.67000 421.017
28.84000 411.555
29.01000 430.407
29.18000 405.503
29.35000 374.119
29.52000 396.496
29.69000 405.645
29.86000 417.867
30.03000 428.556
30.20000 419.606
30.37000 409.259
30.54000 414.514
30.71000 432.932
30.88000 456.620
31.05000 615.194
31.22000 1294.390
31.39000 1928.498
31.56000 1306.034
31.73000 636.868
31.90000 464.169
32.07000 396.033
32.24000 394.950
32.41000 375.566
32.58000 373.785
32.75000 349.693
32.92000 385.370
33.09000 345.110
33.26000 345.334
33.43000 342.793
33.60000 328.044
33.77000 327.949
33.94000 337.637
34.11000 306.535
34.28000 309.575
34.45000 335.169
34.62000 314.945
34.79000 310.253
34.96000 317.698
35.13000 317.518
35.30000 293.712
35.47000 294.882
35.64000 298.884
35.81000 314.962
35.98000 303.979
36.15000 286.679
36.32000 301.120
36.49000 286.663
36.66000 291.441
36.83000 295.953
37.00000 278.088
37.17000 293.514
37.34000 278.605
37.51000 289.487
37.68000 284.028
37.85000 279.358
38.02000 293.212
38.19000 290.633
38.36000 352.952
38.53000 544.108
38.70000 721.298
38.87000 578.781
39.04000 333.151
39.21000 279.347
39.38000 266.789
39.55000 258.867
39.72000 249.785
39.89000 239.172
40.06000 239.691
40.23000 257.141
40.40000 255.473
40.57000 257.865
40.74000 240.923
40.91000 252.497
41.08000 249.380
41.25000 245.726
41.42000 242.782
41.59000 224.178
41.76000 245.014
41.93000 228.135
42.10000 234.544
42.27000 220.098
42.44000 223.491
42.61000 223.239
42.78000 222.564
42.95000 233.257
43.12000 233.064
43.29000 227.102
43.46000 222.489
43.63000 224.326
43.80000 219.677
43.97000 219.297
44.14000 216.460
44.31000 219.344
44.48000 219.546
44.65000 237.106
44.82000 252.281
44.99000 291.756
45.16000 313.896
45.33000 271.833
45.50000 267.306
45.67000 242.705
45.84000 236.789
46.01000 234.308
46.18000 215.258
46.35000 197.213
46.52000 195.383
46.69000 196.121
46.86000 203.740
47.03000 196.502
47.20000 195.514
47.37000 191.121
47.54000 180.826
47.71000 186.889
47.88000 194.195
48.05000 176.206
48.22000 186.903
48.39000 180.313
48.56000 181.553
48.73000 170.376
48.90000 177.762
49.07000 174.744
49.24000 168.649
49.41000 172.594
49.58000 178.631
49.75000 179.247
49.92000 171.079
50.09000 177.457
50.26000 172.060
50.43000 201.241
50.60000 226.578
50.77000 214.712
50.94000 197.155
51.11000 176.464
51.28000 187.131
51.45000 173.357
51.62000 173.504
51.79000 170.036
51.96000 161.831
52.13000 162.981
52.30000 172.118
52.47000 155.366
52.64000 155.587
52.81000 149.617
52.98000 148.110
53.15000 154.117
53.32000 151.526
53.49000 149.601
53.66000 150.682
53.83000 151.711
54.00000 150.946
54.17000 155.671
54.34000 148.003
54.51000 149.482
54.68000 139.558
54.85000 152.788
55.02000 151.114
55.19000 160.882
55.36000 179.178
55.53000 192.177
55.70000 298.928
55.87000 440.234
56.04000 393.486
56.21000 286.644
56.38000 195.537
56.55000 171.125
56.72000 154.948
56.89000 155.872
57.06000 142.206
57.23000 144.402
57.40000 150.808
57.57000 129.112
57.74000 133.578
57.91000 137.726
58.08000 134.202
58.25000 135.924
58.42000 134.598
58.59000 137.176
58.76000 140.477
58.93000 137.176
59.10000 128.496
59.27000 124.228
59.44000 132.300
59.61000 130.372
59.78000 139.104
59.95000 133.045
60.12000 135.019
60.29000 135.744
60.46000 131.499
60.63000 138.707
60.80000 139.596
60.97000 131.334
61.14000 133.124
61.31000 131.229
61.48000 145.665
61.65000 262.207
61.82000 202.088
61.99000 133.011
62.16000 134.610
62.33000 147.956
62.50000 145.249
62.67000 137.410
62.84000 153.208
63.01000 146.090
63.18000 149.215
63.35000 143.359
63.52000 148.967
63.69000 152.685
63.86000 161.021
64.03000 159.767
64.20000 162.745
64.37000 159.034
64.54000 172.169
64.71000 180.174
64.88000 184.432
65.05000 209.677
65.22000 225.852
65.39000 269.227
65.56000 309.075
65.73000 660.977
65.90000 1137.787
66.07000 398.913
66.24000 325.947
66.41000 469.677
66.58000 357.120
66.75000 329.439
66.92000 337.858
67.09000 356.648
67.26000 394.036
67.43000 415.348
67.60000 434.614
67.77000 479.738
67.94000 519.847
68.11000 579.172
68.28000 662.244
68.45000 731.620
68.62000 1057.472
68.79000 2018.537
68.96000 13125.327
69.13000 58445.715
69.30000 34214.801
69.47000 8107.620
69.64000 1277.159
69.81000 847.533
69.98000 709.277
70.00000 692.976