File: XRD/XRD/25-09-2025/XY Data/BTO_Mapping_Theta2Theta_25-09-2025_001_21_-4-181_39-781.xy
20.00000 565.287
20.17000 570.189
20.34000 546.539
20.51000 558.940
20.68000 544.642
20.85000 550.973
21.02000 528.562
21.19000 547.256
21.36000 534.760
21.53000 533.217
21.70000 538.276
21.87000 570.125
22.04000 602.392
22.21000 628.335
22.38000 576.305
22.55000 526.012
22.72000 512.448
22.89000 520.101
23.06000 482.219
23.23000 499.366
23.40000 504.508
23.57000 507.911
23.74000 488.297
23.91000 480.095
24.08000 488.307
24.25000 482.280
24.42000 475.553
24.59000 486.062
24.76000 463.231
24.93000 467.952
25.10000 468.843
25.27000 471.670
25.44000 455.567
25.61000 457.496
25.78000 450.238
25.95000 434.563
26.12000 444.566
26.29000 435.943
26.46000 466.315
26.63000 444.488
26.80000 433.421
26.97000 437.638
27.14000 430.624
27.31000 438.852
27.48000 430.873
27.65000 411.760
27.82000 422.613
27.99000 404.216
28.16000 416.418
28.33000 421.284
28.50000 426.485
28.67000 405.603
28.84000 408.510
29.01000 409.017
29.18000 401.625
29.35000 397.086
29.52000 406.551
29.69000 398.908
29.86000 409.578
30.03000 406.348
30.20000 395.373
30.37000 399.598
30.54000 400.064
30.71000 404.827
30.88000 437.841
31.05000 502.831
31.22000 806.415
31.39000 1289.316
31.56000 989.404
31.73000 581.843
31.90000 457.345
32.07000 416.477
32.24000 379.948
32.41000 368.811
32.58000 364.187
32.75000 373.519
32.92000 366.852
33.09000 362.486
33.26000 341.418
33.43000 341.910
33.60000 338.776
33.77000 326.894
33.94000 342.201
34.11000 317.726
34.28000 327.251
34.45000 322.039
34.62000 313.577
34.79000 311.172
34.96000 316.161
35.13000 305.757
35.30000 308.860
35.47000 300.308
35.64000 319.641
35.81000 289.983
35.98000 298.797
36.15000 304.637
36.32000 297.958
36.49000 300.689
36.66000 307.328
36.83000 297.737
37.00000 291.662
37.17000 287.751
37.34000 285.212
37.51000 291.385
37.68000 287.238
37.85000 283.209
38.02000 271.614
38.19000 290.083
38.36000 293.603
38.53000 448.474
38.70000 749.388
38.87000 582.295
39.04000 347.565
39.21000 303.318
39.38000 268.350
39.55000 251.485
39.72000 250.110
39.89000 262.211
40.06000 269.067
40.23000 258.764
40.40000 264.200
40.57000 244.221
40.74000 240.293
40.91000 239.745
41.08000 244.202
41.25000 240.838
41.42000 230.625
41.59000 239.760
41.76000 225.863
41.93000 224.368
42.10000 232.857
42.27000 222.875
42.44000 234.122
42.61000 232.704
42.78000 222.324
42.95000 225.101
43.12000 228.534
43.29000 218.707
43.46000 216.706
43.63000 224.665
43.80000 210.958
43.97000 218.426
44.14000 222.315
44.31000 217.705
44.48000 212.197
44.65000 220.294
44.82000 227.799
44.99000 262.723
45.16000 269.960
45.33000 245.567
45.50000 251.772
45.67000 231.909
45.84000 236.003
46.01000 216.401
46.18000 215.419
46.35000 206.245
46.52000 202.954
46.69000 182.936
46.86000 195.838
47.03000 192.930
47.20000 196.121
47.37000 197.477
47.54000 190.346
47.71000 176.282
47.88000 183.819
48.05000 176.097
48.22000 173.480
48.39000 188.116
48.56000 186.767
48.73000 186.919
48.90000 186.681
49.07000 173.752
49.24000 183.898
49.41000 169.548
49.58000 170.766
49.75000 183.873
49.92000 162.869
50.09000 163.315
50.26000 176.208
50.43000 182.594
50.60000 187.555
50.77000 188.693
50.94000 176.108
51.11000 190.508
51.28000 162.422
51.45000 159.856
51.62000 156.419
51.79000 162.974
51.96000 168.336
52.13000 157.881
52.30000 161.377
52.47000 148.577
52.64000 143.620
52.81000 158.835
52.98000 148.449
53.15000 163.384
53.32000 162.075
53.49000 160.969
53.66000 161.835
53.83000 154.206
54.00000 155.877
54.17000 159.984
54.34000 152.215
54.51000 160.386
54.68000 148.544
54.85000 154.173
55.02000 149.664
55.19000 157.044
55.36000 151.903
55.53000 179.686
55.70000 230.961
55.87000 355.922
56.04000 419.675
56.21000 306.586
56.38000 202.321
56.55000 165.542
56.72000 164.025
56.89000 144.863
57.06000 155.669
57.23000 149.842
57.40000 140.232
57.57000 138.514
57.74000 140.757
57.91000 138.889
58.08000 137.212
58.25000 134.008
58.42000 133.346
58.59000 144.380
58.76000 143.973
58.93000 147.980
59.10000 134.346
59.27000 129.401
59.44000 137.529
59.61000 134.723
59.78000 136.027
59.95000 128.683
60.12000 139.821
60.29000 134.675
60.46000 127.625
60.63000 143.053
60.80000 135.161
60.97000 137.534
61.14000 132.872
61.31000 138.143
61.48000 150.254
61.65000 258.471
61.82000 189.889
61.99000 148.099
62.16000 139.387
62.33000 138.637
62.50000 145.335
62.67000 135.261
62.84000 141.612
63.01000 140.064
63.18000 149.311
63.35000 151.816
63.52000 148.775
63.69000 153.200
63.86000 160.177
64.03000 159.825
64.20000 158.712
64.37000 166.024
64.54000 173.193
64.71000 177.186
64.88000 193.111
65.05000 188.622
65.22000 207.715
65.39000 246.841
65.56000 284.056
65.73000 582.890
65.90000 1053.263
66.07000 363.200
66.24000 320.246
66.41000 447.223
66.58000 351.291
66.75000 320.730
66.92000 346.253
67.09000 372.161
67.26000 385.918
67.43000 419.170
67.60000 433.659
67.77000 480.597
67.94000 511.491
68.11000 557.967
68.28000 635.462
68.45000 736.852
68.62000 1048.321
68.79000 1980.507
68.96000 11778.384
69.13000 54446.914
69.30000 32026.742
69.47000 7744.384
69.64000 1261.372
69.81000 797.587
69.98000 658.322
70.00000 654.396