File: XRD/XRD/25-09-2025/XY Data/BTO_Mapping_Theta2Theta_25-09-2025_001_17_12-361_38-042.xy
20.00000 567.049
20.17000 552.274
20.34000 566.642
20.51000 557.008
20.68000 551.647
20.85000 531.073
21.02000 542.562
21.19000 528.441
21.36000 543.325
21.53000 540.546
21.70000 557.445
21.87000 565.141
22.04000 591.967
22.21000 597.120
22.38000 600.923
22.55000 531.735
22.72000 531.688
22.89000 504.186
23.06000 524.266
23.23000 528.403
23.40000 492.362
23.57000 494.354
23.74000 518.126
23.91000 487.813
24.08000 462.555
24.25000 476.470
24.42000 494.607
24.59000 476.664
24.76000 469.357
24.93000 479.987
25.10000 488.258
25.27000 477.854
25.44000 465.444
25.61000 459.740
25.78000 461.087
25.95000 466.470
26.12000 446.095
26.29000 432.302
26.46000 435.498
26.63000 435.669
26.80000 437.718
26.97000 442.819
27.14000 431.040
27.31000 426.952
27.48000 422.520
27.65000 417.864
27.82000 422.889
27.99000 439.166
28.16000 411.563
28.33000 409.859
28.50000 420.846
28.67000 412.641
28.84000 409.800
29.01000 423.522
29.18000 384.380
29.35000 423.062
29.52000 407.426
29.69000 401.259
29.86000 402.358
30.03000 415.765
30.20000 409.071
30.37000 393.570
30.54000 412.962
30.71000 436.697
30.88000 450.062
31.05000 527.292
31.22000 885.808
31.39000 1294.671
31.56000 1019.969
31.73000 606.829
31.90000 455.973
32.07000 392.265
32.24000 383.343
32.41000 404.462
32.58000 391.823
32.75000 359.086
32.92000 373.624
33.09000 351.511
33.26000 353.252
33.43000 334.835
33.60000 339.281
33.77000 310.001
33.94000 341.339
34.11000 344.420
34.28000 323.219
34.45000 311.946
34.62000 303.041
34.79000 314.841
34.96000 313.019
35.13000 304.819
35.30000 316.383
35.47000 289.298
35.64000 297.022
35.81000 294.454
35.98000 294.472
36.15000 308.891
36.32000 278.790
36.49000 303.241
36.66000 280.924
36.83000 275.553
37.00000 298.128
37.17000 290.518
37.34000 291.144
37.51000 282.810
37.68000 283.939
37.85000 292.716
38.02000 286.945
38.19000 285.143
38.36000 301.678
38.53000 424.134
38.70000 618.829
38.87000 487.480
39.04000 317.093
39.21000 286.901
39.38000 262.352
39.55000 260.304
39.72000 270.116
39.89000 265.590
40.06000 264.144
40.23000 251.847
40.40000 257.349
40.57000 243.508
40.74000 248.693
40.91000 232.713
41.08000 239.977
41.25000 246.998
41.42000 239.598
41.59000 230.814
41.76000 225.046
41.93000 238.747
42.10000 231.113
42.27000 234.175
42.44000 234.206
42.61000 231.538
42.78000 221.262
42.95000 218.893
43.12000 226.553
43.29000 225.242
43.46000 226.123
43.63000 217.349
43.80000 225.953
43.97000 205.851
44.14000 221.258
44.31000 224.865
44.48000 211.227
44.65000 230.038
44.82000 220.958
44.99000 238.092
45.16000 262.643
45.33000 245.816
45.50000 257.643
45.67000 232.173
45.84000 225.248
46.01000 210.652
46.18000 202.663
46.35000 196.147
46.52000 192.148
46.69000 198.614
46.86000 184.884
47.03000 197.971
47.20000 190.379
47.37000 191.170
47.54000 183.788
47.71000 183.151
47.88000 185.911
48.05000 189.396
48.22000 193.043
48.39000 176.387
48.56000 189.461
48.73000 184.673
48.90000 176.717
49.07000 184.097
49.24000 173.910
49.41000 180.035
49.58000 170.882
49.75000 177.528
49.92000 169.607
50.09000 176.398
50.26000 175.914
50.43000 182.711
50.60000 176.735
50.77000 172.900
50.94000 183.826
51.11000 171.184
51.28000 174.540
51.45000 178.363
51.62000 159.287
51.79000 163.108
51.96000 165.584
52.13000 155.530
52.30000 164.370
52.47000 150.137
52.64000 159.674
52.81000 148.814
52.98000 156.044
53.15000 155.184
53.32000 145.499
53.49000 160.075
53.66000 165.153
53.83000 153.651
54.00000 154.661
54.17000 151.400
54.34000 150.850
54.51000 146.490
54.68000 158.494
54.85000 149.791
55.02000 153.553
55.19000 160.855
55.36000 162.251
55.53000 179.000
55.70000 226.726
55.87000 310.659
56.04000 309.600
56.21000 235.613
56.38000 183.723
56.55000 155.462
56.72000 154.902
56.89000 147.866
57.06000 145.312
57.23000 146.894
57.40000 145.400
57.57000 141.674
57.74000 143.126
57.91000 134.527
58.08000 144.474
58.25000 142.058
58.42000 139.667
58.59000 136.846
58.76000 136.303
58.93000 149.561
59.10000 133.948
59.27000 128.880
59.44000 129.673
59.61000 134.167
59.78000 130.415
59.95000 136.320
60.12000 136.215
60.29000 125.410
60.46000 131.050
60.63000 131.533
60.80000 131.205
60.97000 136.773
61.14000 132.488
61.31000 139.557
61.48000 141.993
61.65000 248.332
61.82000 199.834
61.99000 147.271
62.16000 134.316
62.33000 146.661
62.50000 140.820
62.67000 131.813
62.84000 145.254
63.01000 149.862
63.18000 153.725
63.35000 145.221
63.52000 159.913
63.69000 153.271
63.86000 162.546
64.03000 162.268
64.20000 160.618
64.37000 176.783
64.54000 168.958
64.71000 181.774
64.88000 174.097
65.05000 188.561
65.22000 222.904
65.39000 249.213
65.56000 278.508
65.73000 564.078
65.90000 1056.982
66.07000 380.216
66.24000 320.013
66.41000 444.806
66.58000 358.671
66.75000 320.078
66.92000 348.422
67.09000 362.726
67.26000 382.746
67.43000 417.445
67.60000 448.447
67.77000 474.028
67.94000 536.640
68.11000 585.624
68.28000 632.261
68.45000 729.964
68.62000 1022.906
68.79000 1840.048
68.96000 10544.065
69.13000 54066.750
69.30000 32299.752
69.47000 8169.542
69.64000 1244.398
69.81000 849.956
69.98000 673.802
70.00000 663.312