File: XRD/XRD/25-09-2025/XY Data/BTO_Mapping_Theta2Theta_25-09-2025_001_54_6-691_-7-431.xy
20.00000 589.228
20.17000 568.998
20.34000 548.695
20.51000 567.725
20.68000 560.161
20.85000 545.866
21.02000 546.546
21.19000 538.680
21.36000 520.692
21.53000 538.652
21.70000 510.390
21.87000 571.484
22.04000 610.915
22.21000 608.674
22.38000 581.872
22.55000 557.993
22.72000 520.343
22.89000 523.149
23.06000 516.168
23.23000 493.986
23.40000 488.991
23.57000 490.397
23.74000 490.796
23.91000 492.154
24.08000 491.614
24.25000 470.703
24.42000 481.920
24.59000 469.282
24.76000 472.381
24.93000 460.127
25.10000 468.057
25.27000 467.674
25.44000 448.136
25.61000 450.038
25.78000 455.589
25.95000 460.750
26.12000 472.988
26.29000 440.839
26.46000 458.626
26.63000 443.678
26.80000 429.509
26.97000 448.838
27.14000 421.719
27.31000 438.724
27.48000 411.199
27.65000 424.829
27.82000 419.813
27.99000 415.131
28.16000 404.063
28.33000 412.138
28.50000 408.044
28.67000 421.348
28.84000 400.063
29.01000 417.760
29.18000 394.392
29.35000 416.384
29.52000 404.315
29.69000 389.192
29.86000 398.768
30.03000 401.513
30.20000 386.314
30.37000 386.454
30.54000 390.736
30.71000 403.469
30.88000 409.128
31.05000 530.764
31.22000 982.299
31.39000 1433.489
31.56000 994.786
31.73000 563.559
31.90000 455.029
32.07000 415.089
32.24000 393.840
32.41000 369.042
32.58000 380.537
32.75000 373.175
32.92000 380.541
33.09000 346.679
33.26000 338.034
33.43000 330.503
33.60000 336.738
33.77000 353.747
33.94000 324.355
34.11000 314.813
34.28000 327.170
34.45000 320.927
34.62000 310.715
34.79000 321.283
34.96000 312.199
35.13000 309.247
35.30000 312.284
35.47000 303.022
35.64000 318.290
35.81000 290.716
35.98000 299.102
36.15000 283.480
36.32000 288.724
36.49000 277.837
36.66000 304.464
36.83000 284.934
37.00000 295.417
37.17000 290.217
37.34000 281.538
37.51000 296.787
37.68000 284.200
37.85000 287.191
38.02000 282.048
38.19000 303.402
38.36000 312.754
38.53000 496.089
38.70000 784.564
38.87000 666.343
39.04000 365.333
39.21000 285.713
39.38000 266.168
39.55000 274.141
39.72000 263.908
39.89000 268.531
40.06000 266.883
40.23000 241.484
40.40000 254.691
40.57000 247.442
40.74000 256.922
40.91000 244.475
41.08000 250.920
41.25000 237.902
41.42000 243.786
41.59000 230.711
41.76000 232.877
41.93000 224.298
42.10000 228.736
42.27000 212.316
42.44000 244.764
42.61000 229.051
42.78000 224.058
42.95000 227.545
43.12000 219.378
43.29000 212.732
43.46000 215.920
43.63000 223.079
43.80000 233.429
43.97000 215.761
44.14000 219.166
44.31000 211.589
44.48000 224.902
44.65000 238.035
44.82000 231.354
44.99000 257.365
45.16000 272.190
45.33000 258.209
45.50000 238.077
45.67000 246.852
45.84000 242.182
46.01000 220.943
46.18000 201.719
46.35000 194.658
46.52000 197.798
46.69000 192.712
46.86000 196.964
47.03000 185.244
47.20000 192.279
47.37000 195.307
47.54000 186.310
47.71000 184.736
47.88000 177.443
48.05000 183.303
48.22000 175.588
48.39000 176.735
48.56000 173.381
48.73000 179.520
48.90000 179.787
49.07000 175.158
49.24000 171.881
49.41000 180.241
49.58000 177.542
49.75000 169.586
49.92000 181.854
50.09000 170.955
50.26000 173.388
50.43000 173.482
50.60000 194.363
50.77000 188.535
50.94000 189.502
51.11000 182.762
51.28000 159.213
51.45000 150.908
51.62000 156.648
51.79000 162.923
51.96000 154.652
52.13000 151.875
52.30000 154.985
52.47000 160.294
52.64000 159.428
52.81000 158.220
52.98000 156.326
53.15000 148.186
53.32000 148.193
53.49000 160.449
53.66000 153.885
53.83000 161.897
54.00000 155.720
54.17000 150.133
54.34000 158.743
54.51000 146.142
54.68000 152.134
54.85000 148.964
55.02000 154.474
55.19000 154.588
55.36000 171.782
55.53000 189.314
55.70000 284.527
55.87000 414.161
56.04000 429.412
56.21000 331.041
56.38000 219.581
56.55000 171.414
56.72000 159.693
56.89000 152.852
57.06000 146.296
57.23000 143.914
57.40000 140.135
57.57000 145.896
57.74000 146.411
57.91000 120.677
58.08000 138.103
58.25000 146.288
58.42000 129.644
58.59000 131.047
58.76000 141.653
58.93000 127.944
59.10000 140.047
59.27000 138.918
59.44000 133.697
59.61000 129.058
59.78000 143.439
59.95000 144.569
60.12000 128.389
60.29000 141.343
60.46000 133.177
60.63000 126.810
60.80000 121.886
60.97000 133.996
61.14000 132.603
61.31000 141.853
61.48000 143.335
61.65000 249.555
61.82000 193.677
61.99000 140.135
62.16000 130.490
62.33000 132.261
62.50000 141.563
62.67000 143.394
62.84000 138.244
63.01000 143.720
63.18000 142.810
63.35000 160.863
63.52000 152.635
63.69000 147.962
63.86000 146.955
64.03000 150.905
64.20000 148.288
64.37000 163.852
64.54000 167.124
64.71000 161.769
64.88000 171.147
65.05000 202.133
65.22000 212.721
65.39000 243.375
65.56000 284.427
65.73000 568.274
65.90000 1058.634
66.07000 378.279
66.24000 324.321
66.41000 430.817
66.58000 376.036
66.75000 316.069
66.92000 337.211
67.09000 356.496
67.26000 381.435
67.43000 417.974
67.60000 429.406
67.77000 469.348
67.94000 515.718
68.11000 534.730
68.28000 621.599
68.45000 717.929
68.62000 1001.781
68.79000 1849.096
68.96000 11161.732
69.13000 54204.227
69.30000 32202.092
69.47000 7946.571
69.64000 1273.176
69.81000 839.215
69.98000 681.807
70.00000 656.067