File: XRD/XRD/25-09-2025/XY Data/BTO_Mapping_Theta2Theta_25-09-2025_001_03_20-000_0-000.xy
20.00000 571.770
20.17000 577.101
20.34000 551.513
20.51000 570.982
20.68000 548.765
20.85000 531.603
21.02000 549.352
21.19000 544.094
21.36000 519.067
21.53000 551.352
21.70000 565.284
21.87000 555.219
22.04000 601.274
22.21000 617.823
22.38000 585.529
22.55000 540.616
22.72000 515.657
22.89000 518.984
23.06000 514.750
23.23000 502.165
23.40000 510.595
23.57000 497.109
23.74000 495.911
23.91000 488.010
24.08000 488.982
24.25000 465.366
24.42000 474.810
24.59000 477.102
24.76000 461.290
24.93000 486.407
25.10000 473.707
25.27000 465.262
25.44000 468.597
25.61000 463.878
25.78000 458.311
25.95000 449.547
26.12000 459.749
26.29000 442.006
26.46000 443.980
26.63000 448.793
26.80000 447.068
26.97000 431.759
27.14000 430.781
27.31000 432.877
27.48000 415.137
27.65000 453.727
27.82000 412.953
27.99000 419.307
28.16000 436.455
28.33000 415.929
28.50000 422.914
28.67000 411.317
28.84000 407.010
29.01000 407.214
29.18000 411.836
29.35000 399.278
29.52000 405.109
29.69000 390.036
29.86000 402.810
30.03000 401.811
30.20000 404.970
30.37000 405.088
30.54000 412.160
30.71000 419.474
30.88000 420.037
31.05000 510.373
31.22000 860.211
31.39000 1337.276
31.56000 1027.881
31.73000 585.718
31.90000 465.416
32.07000 418.376
32.24000 388.181
32.41000 351.564
32.58000 366.523
32.75000 368.280
32.92000 381.614
33.09000 347.457
33.26000 341.814
33.43000 319.441
33.60000 349.684
33.77000 338.881
33.94000 302.246
34.11000 325.660
34.28000 332.734
34.45000 333.446
34.62000 316.398
34.79000 315.607
34.96000 310.293
35.13000 297.445
35.30000 300.967
35.47000 302.551
35.64000 314.315
35.81000 297.076
35.98000 297.130
36.15000 297.393
36.32000 295.054
36.49000 291.296
36.66000 283.988
36.83000 301.825
37.00000 297.601
37.17000 304.054
37.34000 281.546
37.51000 279.602
37.68000 280.204
37.85000 290.190
38.02000 278.829
38.19000 289.604
38.36000 311.658
38.53000 433.338
38.70000 717.598
38.87000 613.041
39.04000 329.953
39.21000 288.285
39.38000 253.485
39.55000 256.033
39.72000 272.371
39.89000 258.387
40.06000 263.974
40.23000 263.051
40.40000 249.979
40.57000 235.810
40.74000 244.088
40.91000 240.332
41.08000 245.360
41.25000 229.078
41.42000 232.510
41.59000 229.524
41.76000 224.513
41.93000 225.580
42.10000 244.361
42.27000 220.782
42.44000 236.181
42.61000 227.491
42.78000 217.756
42.95000 218.412
43.12000 219.437
43.29000 221.180
43.46000 218.113
43.63000 220.550
43.80000 210.414
43.97000 209.683
44.14000 219.273
44.31000 218.486
44.48000 214.500
44.65000 228.032
44.82000 235.183
44.99000 258.233
45.16000 276.313
45.33000 239.054
45.50000 248.192
45.67000 231.081
45.84000 231.680
46.01000 224.198
46.18000 203.632
46.35000 212.440
46.52000 195.518
46.69000 191.128
46.86000 205.704
47.03000 199.164
47.20000 182.740
47.37000 181.994
47.54000 187.390
47.71000 187.903
47.88000 195.081
48.05000 183.440
48.22000 198.528
48.39000 181.535
48.56000 179.213
48.73000 185.048
48.90000 177.788
49.07000 175.601
49.24000 175.906
49.41000 163.174
49.58000 194.696
49.75000 169.395
49.92000 172.723
50.09000 171.798
50.26000 169.353
50.43000 177.174
50.60000 190.830
50.77000 193.178
50.94000 179.566
51.11000 172.266
51.28000 165.821
51.45000 167.749
51.62000 161.424
51.79000 167.058
51.96000 155.228
52.13000 160.935
52.30000 158.912
52.47000 157.617
52.64000 149.119
52.81000 163.264
52.98000 159.380
53.15000 151.360
53.32000 162.993
53.49000 157.502
53.66000 153.943
53.83000 150.050
54.00000 153.516
54.17000 150.705
54.34000 147.944
54.51000 139.687
54.68000 150.083
54.85000 149.222
55.02000 147.117
55.19000 153.147
55.36000 159.768
55.53000 183.788
55.70000 240.946
55.87000 374.766
56.04000 422.995
56.21000 291.061
56.38000 198.700
56.55000 172.633
56.72000 146.909
56.89000 145.061
57.06000 134.504
57.23000 136.760
57.40000 140.384
57.57000 137.371
57.74000 141.136
57.91000 130.813
58.08000 134.476
58.25000 130.064
58.42000 125.471
58.59000 139.260
58.76000 133.276
58.93000 138.413
59.10000 129.285
59.27000 127.568
59.44000 128.774
59.61000 139.058
59.78000 123.679
59.95000 137.338
60.12000 127.117
60.29000 120.353
60.46000 132.621
60.63000 139.070
60.80000 134.069
60.97000 142.049
61.14000 128.243
61.31000 130.570
61.48000 140.160
61.65000 264.187
61.82000 204.059
61.99000 150.321
62.16000 135.850
62.33000 138.722
62.50000 146.281
62.67000 148.256
62.84000 137.203
63.01000 144.530
63.18000 142.199
63.35000 150.177
63.52000 159.944
63.69000 146.921
63.86000 150.845
64.03000 142.789
64.20000 161.055
64.37000 168.333
64.54000 171.507
64.71000 166.949
64.88000 178.981
65.05000 195.205
65.22000 209.422
65.39000 226.230
65.56000 284.788
65.73000 570.165
65.90000 1020.143
66.07000 372.611
66.24000 309.920
66.41000 440.140
66.58000 359.332
66.75000 323.062
66.92000 333.407
67.09000 366.428
67.26000 376.197
67.43000 411.550
67.60000 431.403
67.77000 476.637
67.94000 499.574
68.11000 563.108
68.28000 628.993
68.45000 728.115
68.62000 991.301
68.79000 1841.216
68.96000 10287.393
69.13000 53599.863
69.30000 32171.836
69.47000 8258.921
69.64000 1244.090
69.81000 848.707
69.98000 683.355
70.00000 662.171