File: XRD/XRD/25-09-2025/XY Data/BTO_Mapping_Theta2Theta_25-09-2025_001_55_13-383_-14-863.xy
20.00000 558.027
20.17000 535.286
20.34000 535.995
20.51000 558.455
20.68000 547.794
20.85000 534.737
21.02000 543.415
21.19000 546.002
21.36000 562.910
21.53000 558.645
21.70000 537.081
21.87000 577.822
22.04000 621.611
22.21000 620.705
22.38000 583.308
22.55000 545.967
22.72000 511.977
22.89000 524.468
23.06000 529.135
23.23000 511.347
23.40000 502.692
23.57000 494.969
23.74000 469.765
23.91000 497.806
24.08000 474.256
24.25000 487.015
24.42000 471.835
24.59000 481.166
24.76000 450.983
24.93000 464.263
25.10000 468.807
25.27000 448.900
25.44000 450.985
25.61000 446.735
25.78000 460.273
25.95000 436.241
26.12000 452.153
26.29000 445.309
26.46000 433.585
26.63000 448.462
26.80000 446.403
26.97000 435.143
27.14000 430.862
27.31000 431.671
27.48000 433.045
27.65000 423.190
27.82000 430.016
27.99000 421.118
28.16000 408.259
28.33000 414.425
28.50000 422.445
28.67000 402.557
28.84000 425.355
29.01000 407.967
29.18000 403.765
29.35000 405.820
29.52000 391.612
29.69000 400.568
29.86000 421.602
30.03000 397.365
30.20000 402.568
30.37000 399.173
30.54000 409.202
30.71000 383.859
30.88000 438.118
31.05000 501.534
31.22000 863.105
31.39000 1325.404
31.56000 938.665
31.73000 550.134
31.90000 442.800
32.07000 413.685
32.24000 378.723
32.41000 371.592
32.58000 364.252
32.75000 354.787
32.92000 365.534
33.09000 348.852
33.26000 340.086
33.43000 346.124
33.60000 333.076
33.77000 327.311
33.94000 320.800
34.11000 332.358
34.28000 334.722
34.45000 328.946
34.62000 324.556
34.79000 319.499
34.96000 329.478
35.13000 312.381
35.30000 295.730
35.47000 297.767
35.64000 300.580
35.81000 304.526
35.98000 310.991
36.15000 281.738
36.32000 296.284
36.49000 283.980
36.66000 281.727
36.83000 283.220
37.00000 282.050
37.17000 293.804
37.34000 291.127
37.51000 281.796
37.68000 292.679
37.85000 288.525
38.02000 291.231
38.19000 293.002
38.36000 332.467
38.53000 482.910
38.70000 785.048
38.87000 637.859
39.04000 362.729
39.21000 292.418
39.38000 264.255
39.55000 262.697
39.72000 258.451
39.89000 260.751
40.06000 254.607
40.23000 261.621
40.40000 251.599
40.57000 241.503
40.74000 242.364
40.91000 233.835
41.08000 231.516
41.25000 229.758
41.42000 252.831
41.59000 236.194
41.76000 225.515
41.93000 236.845
42.10000 236.557
42.27000 228.663
42.44000 237.079
42.61000 213.041
42.78000 222.241
42.95000 223.394
43.12000 210.412
43.29000 215.598
43.46000 219.383
43.63000 229.759
43.80000 220.064
43.97000 217.711
44.14000 215.744
44.31000 215.581
44.48000 223.276
44.65000 212.191
44.82000 243.450
44.99000 239.954
45.16000 261.684
45.33000 263.599
45.50000 247.983
45.67000 234.689
45.84000 235.129
46.01000 219.638
46.18000 201.641
46.35000 196.244
46.52000 199.007
46.69000 198.735
46.86000 201.515
47.03000 196.742
47.20000 187.505
47.37000 182.018
47.54000 188.433
47.71000 182.251
47.88000 169.282
48.05000 183.036
48.22000 181.479
48.39000 175.430
48.56000 178.418
48.73000 180.483
48.90000 180.006
49.07000 175.600
49.24000 170.769
49.41000 168.066
49.58000 179.450
49.75000 173.255
49.92000 163.694
50.09000 169.322
50.26000 173.771
50.43000 176.413
50.60000 191.777
50.77000 201.754
50.94000 186.968
51.11000 169.310
51.28000 163.485
51.45000 162.107
51.62000 151.442
51.79000 155.588
51.96000 163.210
52.13000 162.192
52.30000 167.178
52.47000 156.157
52.64000 149.243
52.81000 166.812
52.98000 149.824
53.15000 150.684
53.32000 154.586
53.49000 157.546
53.66000 158.751
53.83000 152.712
54.00000 153.298
54.17000 148.158
54.34000 160.410
54.51000 147.765
54.68000 162.039
54.85000 155.200
55.02000 158.261
55.19000 157.088
55.36000 164.955
55.53000 183.977
55.70000 259.251
55.87000 407.420
56.04000 465.638
56.21000 331.414
56.38000 218.391
56.55000 162.604
56.72000 144.158
56.89000 148.705
57.06000 148.897
57.23000 151.497
57.40000 125.369
57.57000 142.331
57.74000 141.762
57.91000 143.645
58.08000 135.199
58.25000 144.218
58.42000 132.599
58.59000 135.819
58.76000 136.097
58.93000 129.559
59.10000 129.956
59.27000 133.645
59.44000 133.998
59.61000 130.804
59.78000 128.421
59.95000 127.515
60.12000 121.545
60.29000 133.045
60.46000 144.584
60.63000 137.817
60.80000 122.676
60.97000 138.847
61.14000 143.882
61.31000 137.909
61.48000 142.939
61.65000 268.242
61.82000 189.724
61.99000 138.647
62.16000 143.635
62.33000 132.987
62.50000 142.409
62.67000 133.789
62.84000 140.057
63.01000 143.113
63.18000 130.640
63.35000 140.710
63.52000 149.233
63.69000 139.403
63.86000 140.183
64.03000 149.474
64.20000 158.513
64.37000 154.447
64.54000 163.336
64.71000 178.498
64.88000 177.655
65.05000 179.824
65.22000 203.309
65.39000 253.170
65.56000 276.782
65.73000 555.782
65.90000 1066.774
66.07000 389.523
66.24000 316.321
66.41000 453.604
66.58000 342.783
66.75000 326.766
66.92000 333.577
67.09000 372.391
67.26000 391.762
67.43000 406.338
67.60000 434.854
67.77000 462.328
67.94000 507.561
68.11000 553.245
68.28000 611.366
68.45000 734.930
68.62000 1015.692
68.79000 1867.023
68.96000 10796.693
69.13000 53532.348
69.30000 31972.777
69.47000 8056.926
69.64000 1214.412
69.81000 807.649
69.98000 663.533
70.00000 653.138