File: XRD/XRD/25-09-2025/XY Data/BTO_Mapping_Theta2Theta_25-09-2025_001_09_36-542_16-269.xy
20.00000 569.587
20.17000 559.261
20.34000 555.065
20.51000 551.545
20.68000 545.607
20.85000 550.119
21.02000 529.965
21.19000 551.311
21.36000 536.526
21.53000 531.294
21.70000 533.300
21.87000 562.899
22.04000 565.282
22.21000 601.847
22.38000 565.391
22.55000 521.470
22.72000 486.954
22.89000 487.184
23.06000 502.925
23.23000 493.140
23.40000 502.616
23.57000 493.197
23.74000 490.389
23.91000 488.147
24.08000 470.717
24.25000 479.558
24.42000 488.046
24.59000 490.203
24.76000 468.288
24.93000 447.812
25.10000 465.828
25.27000 471.799
25.44000 458.384
25.61000 448.023
25.78000 450.680
25.95000 454.172
26.12000 450.651
26.29000 449.310
26.46000 453.003
26.63000 435.283
26.80000 435.097
26.97000 437.083
27.14000 447.135
27.31000 446.091
27.48000 447.693
27.65000 425.264
27.82000 417.349
27.99000 419.122
28.16000 412.723
28.33000 423.977
28.50000 422.513
28.67000 425.658
28.84000 430.448
29.01000 413.020
29.18000 414.814
29.35000 414.196
29.52000 409.163
29.69000 415.689
29.86000 422.143
30.03000 403.606
30.20000 408.407
30.37000 407.714
30.54000 404.070
30.71000 396.758
30.88000 429.027
31.05000 483.302
31.22000 743.862
31.39000 1057.284
31.56000 890.335
31.73000 559.456
31.90000 427.350
32.07000 421.174
32.24000 400.668
32.41000 400.093
32.58000 370.955
32.75000 372.128
32.92000 364.563
33.09000 340.189
33.26000 341.700
33.43000 322.434
33.60000 331.991
33.77000 323.942
33.94000 336.732
34.11000 338.123
34.28000 315.359
34.45000 328.677
34.62000 322.529
34.79000 316.193
34.96000 305.921
35.13000 299.694
35.30000 311.860
35.47000 310.459
35.64000 297.542
35.81000 294.725
35.98000 289.155
36.15000 311.394
36.32000 299.243
36.49000 306.980
36.66000 292.140
36.83000 290.337
37.00000 288.542
37.17000 288.114
37.34000 291.264
37.51000 285.415
37.68000 277.916
37.85000 287.381
38.02000 282.677
38.19000 282.313
38.36000 323.677
38.53000 400.318
38.70000 563.369
38.87000 437.492
39.04000 305.375
39.21000 275.064
39.38000 275.963
39.55000 253.088
39.72000 264.373
39.89000 267.337
40.06000 251.455
40.23000 249.226
40.40000 262.697
40.57000 237.978
40.74000 251.102
40.91000 235.386
41.08000 242.032
41.25000 247.788
41.42000 236.926
41.59000 237.493
41.76000 232.462
41.93000 237.127
42.10000 219.926
42.27000 237.853
42.44000 220.898
42.61000 235.647
42.78000 214.615
42.95000 224.230
43.12000 210.914
43.29000 227.109
43.46000 224.207
43.63000 221.752
43.80000 224.094
43.97000 223.487
44.14000 222.036
44.31000 210.085
44.48000 213.431
44.65000 204.751
44.82000 225.457
44.99000 237.537
45.16000 242.866
45.33000 253.014
45.50000 248.612
45.67000 220.604
45.84000 225.026
46.01000 207.527
46.18000 209.399
46.35000 209.730
46.52000 196.592
46.69000 202.008
46.86000 199.953
47.03000 185.762
47.20000 195.614
47.37000 189.688
47.54000 181.594
47.71000 193.029
47.88000 176.899
48.05000 182.262
48.22000 188.238
48.39000 175.200
48.56000 187.873
48.73000 178.355
48.90000 174.768
49.07000 173.662
49.24000 184.195
49.41000 178.962
49.58000 179.663
49.75000 176.361
49.92000 174.096
50.09000 166.070
50.26000 179.436
50.43000 174.241
50.60000 186.575
50.77000 184.643
50.94000 180.981
51.11000 170.590
51.28000 163.682
51.45000 155.565
51.62000 170.344
51.79000 157.381
51.96000 164.596
52.13000 163.416
52.30000 157.963
52.47000 170.045
52.64000 149.477
52.81000 155.446
52.98000 164.368
53.15000 161.926
53.32000 158.527
53.49000 158.093
53.66000 153.174
53.83000 149.983
54.00000 149.108
54.17000 160.749
54.34000 148.532
54.51000 160.582
54.68000 150.680
54.85000 153.051
55.02000 146.245
55.19000 152.137
55.36000 160.213
55.53000 168.322
55.70000 222.604
55.87000 256.744
56.04000 276.303
56.21000 226.276
56.38000 180.749
56.55000 158.294
56.72000 144.414
56.89000 145.102
57.06000 147.377
57.23000 144.477
57.40000 139.918
57.57000 143.099
57.74000 143.577
57.91000 135.486
58.08000 139.549
58.25000 135.776
58.42000 132.391
58.59000 134.018
58.76000 136.532
58.93000 148.106
59.10000 140.739
59.27000 131.497
59.44000 127.173
59.61000 130.341
59.78000 134.799
59.95000 137.703
60.12000 120.382
60.29000 137.968
60.46000 134.961
60.63000 136.437
60.80000 135.514
60.97000 143.365
61.14000 135.213
61.31000 132.056
61.48000 147.542
61.65000 252.891
61.82000 205.476
61.99000 146.327
62.16000 144.639
62.33000 158.910
62.50000 137.945
62.67000 141.507
62.84000 148.730
63.01000 149.237
63.18000 153.358
63.35000 146.831
63.52000 152.964
63.69000 148.323
63.86000 155.709
64.03000 152.028
64.20000 164.907
64.37000 166.271
64.54000 164.398
64.71000 173.003
64.88000 171.189
65.05000 185.144
65.22000 196.136
65.39000 229.631
65.56000 258.387
65.73000 509.489
65.90000 1024.353
66.07000 401.200
66.24000 322.258
66.41000 436.205
66.58000 371.153
66.75000 324.342
66.92000 342.676
67.09000 369.755
67.26000 371.955
67.43000 412.685
67.60000 459.116
67.77000 479.847
67.94000 509.789
68.11000 598.235
68.28000 618.975
68.45000 722.023
68.62000 991.789
68.79000 1811.370
68.96000 8761.379
69.13000 53862.762
69.30000 33658.133
69.47000 9435.729
69.64000 1289.577
69.81000 837.461
69.98000 674.103
70.00000 668.488