File: XRD/XRD/25-09-2025/XY Data/BTO_Mapping_Theta2Theta_25-09-2025_001_23_-10-000_17-321.xy
20.00000 555.989
20.17000 560.649
20.34000 545.550
20.51000 567.357
20.68000 573.543
20.85000 542.839
21.02000 557.731
21.19000 547.979
21.36000 542.054
21.53000 528.071
21.70000 541.994
21.87000 600.931
22.04000 648.417
22.21000 647.324
22.38000 599.626
22.55000 551.623
22.72000 506.684
22.89000 525.110
23.06000 512.799
23.23000 499.063
23.40000 511.747
23.57000 501.268
23.74000 481.778
23.91000 481.585
24.08000 491.963
24.25000 502.970
24.42000 483.878
24.59000 479.614
24.76000 471.005
24.93000 471.600
25.10000 468.233
25.27000 461.354
25.44000 455.811
25.61000 462.858
25.78000 453.081
25.95000 453.784
26.12000 453.500
26.29000 416.468
26.46000 443.837
26.63000 446.813
26.80000 427.240
26.97000 448.336
27.14000 431.919
27.31000 429.090
27.48000 420.727
27.65000 431.828
27.82000 434.642
27.99000 410.130
28.16000 423.566
28.33000 421.744
28.50000 414.299
28.67000 414.004
28.84000 413.629
29.01000 401.205
29.18000 413.386
29.35000 419.052
29.52000 390.330
29.69000 393.893
29.86000 409.823
30.03000 419.852
30.20000 412.132
30.37000 409.696
30.54000 404.331
30.71000 411.387
30.88000 417.267
31.05000 526.765
31.22000 1056.679
31.39000 1593.598
31.56000 1128.243
31.73000 597.120
31.90000 450.200
32.07000 387.573
32.24000 391.634
32.41000 371.244
32.58000 379.488
32.75000 366.373
32.92000 376.749
33.09000 357.025
33.26000 336.157
33.43000 338.247
33.60000 330.177
33.77000 336.178
33.94000 339.567
34.11000 302.315
34.28000 316.007
34.45000 310.450
34.62000 312.465
34.79000 323.503
34.96000 323.370
35.13000 318.882
35.30000 297.031
35.47000 313.410
35.64000 289.793
35.81000 288.756
35.98000 302.018
36.15000 305.572
36.32000 291.719
36.49000 282.855
36.66000 292.929
36.83000 302.937
37.00000 302.754
37.17000 297.390
37.34000 267.713
37.51000 274.708
37.68000 287.134
37.85000 287.597
38.02000 281.966
38.19000 290.465
38.36000 322.776
38.53000 499.933
38.70000 786.597
38.87000 622.902
39.04000 361.542
39.21000 285.156
39.38000 284.568
39.55000 269.151
39.72000 262.407
39.89000 245.269
40.06000 240.733
40.23000 253.650
40.40000 235.406
40.57000 252.879
40.74000 244.386
40.91000 256.469
41.08000 243.326
41.25000 236.363
41.42000 239.562
41.59000 246.884
41.76000 217.254
41.93000 236.961
42.10000 238.377
42.27000 232.172
42.44000 226.826
42.61000 231.185
42.78000 224.723
42.95000 229.681
43.12000 226.698
43.29000 218.381
43.46000 201.337
43.63000 222.785
43.80000 223.941
43.97000 215.315
44.14000 216.236
44.31000 209.477
44.48000 225.343
44.65000 231.361
44.82000 249.414
44.99000 278.446
45.16000 281.642
45.33000 289.435
45.50000 264.720
45.67000 247.930
45.84000 233.105
46.01000 218.579
46.18000 201.272
46.35000 200.571
46.52000 194.447
46.69000 201.702
46.86000 191.640
47.03000 205.527
47.20000 195.956
47.37000 184.753
47.54000 180.676
47.71000 190.360
47.88000 189.758
48.05000 182.536
48.22000 178.473
48.39000 176.805
48.56000 175.294
48.73000 179.692
48.90000 182.690
49.07000 181.457
49.24000 175.584
49.41000 197.865
49.58000 177.992
49.75000 171.189
49.92000 170.024
50.09000 175.105
50.26000 185.636
50.43000 181.427
50.60000 196.033
50.77000 201.647
50.94000 184.894
51.11000 182.651
51.28000 181.881
51.45000 169.078
51.62000 165.548
51.79000 161.164
51.96000 161.608
52.13000 151.818
52.30000 145.177
52.47000 152.739
52.64000 150.339
52.81000 156.701
52.98000 155.486
53.15000 159.943
53.32000 149.276
53.49000 161.484
53.66000 160.809
53.83000 151.625
54.00000 161.576
54.17000 140.270
54.34000 144.447
54.51000 141.134
54.68000 151.883
54.85000 146.986
55.02000 160.393
55.19000 152.932
55.36000 157.770
55.53000 204.384
55.70000 286.921
55.87000 415.890
56.04000 428.647
56.21000 312.386
56.38000 200.162
56.55000 167.375
56.72000 139.454
56.89000 149.897
57.06000 143.553
57.23000 151.995
57.40000 146.702
57.57000 134.608
57.74000 145.660
57.91000 138.289
58.08000 139.941
58.25000 135.400
58.42000 145.157
58.59000 138.368
58.76000 139.591
58.93000 131.482
59.10000 129.554
59.27000 123.729
59.44000 127.940
59.61000 131.693
59.78000 134.546
59.95000 130.599
60.12000 139.742
60.29000 141.511
60.46000 131.225
60.63000 134.954
60.80000 132.413
60.97000 131.987
61.14000 128.128
61.31000 133.612
61.48000 153.275
61.65000 262.590
61.82000 186.523
61.99000 149.287
62.16000 140.060
62.33000 134.873
62.50000 136.092
62.67000 148.479
62.84000 145.491
63.01000 152.935
63.18000 142.483
63.35000 154.420
63.52000 152.037
63.69000 144.670
63.86000 159.470
64.03000 157.823
64.20000 171.327
64.37000 172.603
64.54000 164.444
64.71000 173.231
64.88000 169.196
65.05000 200.135
65.22000 221.967
65.39000 256.390
65.56000 298.493
65.73000 615.209
65.90000 1102.053
66.07000 404.398
66.24000 324.167
66.41000 434.327
66.58000 337.648
66.75000 320.446
66.92000 339.479
67.09000 357.507
67.26000 388.893
67.43000 419.042
67.60000 448.548
67.77000 472.171
67.94000 518.509
68.11000 573.656
68.28000 654.243
68.45000 758.674
68.62000 1055.204
68.79000 1993.199
68.96000 13040.913
69.13000 56263.070
69.30000 32735.680
69.47000 7708.396
69.64000 1263.581
69.81000 821.333
69.98000 661.686
70.00000 659.035