File: XRD/XRD/25-09-2025/XY Data/BTO_Mapping_Theta2Theta_25-09-2025_001_61_36-542_-16-269.xy
20.00000 575.711
20.17000 558.769
20.34000 542.760
20.51000 544.490
20.68000 558.717
20.85000 532.237
21.02000 532.377
21.19000 556.437
21.36000 545.798
21.53000 558.031
21.70000 535.361
21.87000 558.327
22.04000 579.247
22.21000 616.521
22.38000 566.969
22.55000 547.387
22.72000 523.675
22.89000 512.785
23.06000 516.317
23.23000 497.749
23.40000 487.939
23.57000 506.851
23.74000 479.673
23.91000 486.678
24.08000 503.263
24.25000 481.098
24.42000 474.128
24.59000 467.472
24.76000 468.265
24.93000 495.365
25.10000 475.293
25.27000 460.083
25.44000 451.186
25.61000 461.011
25.78000 456.247
25.95000 431.511
26.12000 453.614
26.29000 460.262
26.46000 456.541
26.63000 436.871
26.80000 442.024
26.97000 427.904
27.14000 438.282
27.31000 421.980
27.48000 434.379
27.65000 438.734
27.82000 432.047
27.99000 421.717
28.16000 429.571
28.33000 402.927
28.50000 405.557
28.67000 414.457
28.84000 419.712
29.01000 411.007
29.18000 409.126
29.35000 396.552
29.52000 401.945
29.69000 405.824
29.86000 409.757
30.03000 422.838
30.20000 418.768
30.37000 397.599
30.54000 403.836
30.71000 424.806
30.88000 442.193
31.05000 533.655
31.22000 866.569
31.39000 1277.306
31.56000 1010.391
31.73000 600.011
31.90000 460.221
32.07000 410.352
32.24000 405.158
32.41000 386.954
32.58000 369.625
32.75000 362.960
32.92000 361.285
33.09000 361.283
33.26000 345.613
33.43000 358.145
33.60000 353.188
33.77000 332.003
33.94000 325.873
34.11000 321.837
34.28000 319.280
34.45000 329.132
34.62000 317.154
34.79000 316.683
34.96000 312.611
35.13000 320.761
35.30000 305.671
35.47000 311.576
35.64000 278.812
35.81000 312.304
35.98000 303.488
36.15000 288.515
36.32000 274.257
36.49000 310.530
36.66000 286.291
36.83000 293.474
37.00000 286.690
37.17000 268.012
37.34000 283.360
37.51000 272.198
37.68000 273.378
37.85000 284.035
38.02000 283.729
38.19000 292.741
38.36000 313.577
38.53000 446.854
38.70000 618.510
38.87000 469.592
39.04000 312.917
39.21000 286.802
39.38000 270.726
39.55000 266.914
39.72000 271.074
39.89000 249.877
40.06000 257.867
40.23000 247.138
40.40000 263.892
40.57000 251.099
40.74000 247.660
40.91000 260.063
41.08000 239.346
41.25000 256.653
41.42000 233.468
41.59000 250.797
41.76000 231.584
41.93000 229.984
42.10000 226.807
42.27000 219.817
42.44000 246.882
42.61000 235.796
42.78000 222.731
42.95000 223.741
43.12000 208.735
43.29000 234.214
43.46000 242.262
43.63000 216.841
43.80000 224.354
43.97000 217.898
44.14000 216.698
44.31000 223.408
44.48000 224.299
44.65000 226.042
44.82000 234.676
44.99000 242.165
45.16000 233.407
45.33000 260.168
45.50000 248.064
45.67000 226.306
45.84000 221.570
46.01000 198.122
46.18000 199.643
46.35000 220.672
46.52000 207.221
46.69000 205.611
46.86000 197.403
47.03000 190.625
47.20000 185.868
47.37000 171.521
47.54000 186.759
47.71000 187.297
47.88000 189.966
48.05000 170.139
48.22000 187.465
48.39000 179.756
48.56000 177.392
48.73000 183.729
48.90000 165.078
49.07000 180.438
49.24000 171.125
49.41000 190.319
49.58000 180.227
49.75000 171.936
49.92000 183.517
50.09000 180.194
50.26000 182.264
50.43000 175.822
50.60000 175.561
50.77000 187.525
50.94000 176.115
51.11000 182.139
51.28000 160.274
51.45000 170.701
51.62000 149.859
51.79000 161.256
51.96000 163.084
52.13000 168.075
52.30000 164.120
52.47000 143.343
52.64000 160.606
52.81000 155.136
52.98000 155.920
53.15000 167.769
53.32000 158.696
53.49000 156.240
53.66000 151.654
53.83000 161.151
54.00000 155.848
54.17000 147.139
54.34000 151.112
54.51000 147.535
54.68000 145.906
54.85000 158.463
55.02000 157.229
55.19000 150.124
55.36000 165.050
55.53000 185.364
55.70000 239.258
55.87000 296.106
56.04000 302.514
56.21000 248.488
56.38000 185.084
56.55000 172.201
56.72000 151.911
56.89000 143.242
57.06000 144.554
57.23000 134.864
57.40000 141.546
57.57000 139.018
57.74000 153.294
57.91000 140.039
58.08000 142.593
58.25000 132.475
58.42000 136.201
58.59000 140.701
58.76000 136.552
58.93000 136.942
59.10000 142.507
59.27000 134.392
59.44000 139.920
59.61000 130.163
59.78000 133.255
59.95000 135.159
60.12000 127.932
60.29000 127.432
60.46000 135.916
60.63000 119.267
60.80000 138.297
60.97000 138.444
61.14000 132.907
61.31000 140.025
61.48000 149.483
61.65000 258.363
61.82000 196.516
61.99000 154.777
62.16000 139.911
62.33000 140.179
62.50000 137.764
62.67000 145.337
62.84000 145.690
63.01000 149.018
63.18000 148.434
63.35000 151.645
63.52000 156.466
63.69000 160.937
63.86000 156.781
64.03000 161.373
64.20000 165.390
64.37000 174.796
64.54000 171.392
64.71000 174.795
64.88000 186.709
65.05000 192.405
65.22000 210.913
65.39000 242.096
65.56000 296.630
65.73000 561.057
65.90000 1076.899
66.07000 380.717
66.24000 316.647
66.41000 453.749
66.58000 338.716
66.75000 314.210
66.92000 337.906
67.09000 361.320
67.26000 372.988
67.43000 422.088
67.60000 454.521
67.77000 485.975
67.94000 519.577
68.11000 548.079
68.28000 638.428
68.45000 717.757
68.62000 998.124
68.79000 1812.514
68.96000 9600.260
69.13000 53638.672
69.30000 32578.631
69.47000 8750.351
69.64000 1273.752
69.81000 838.099
69.98000 683.802
70.00000 662.793