File: XRD/XRD/25-09-2025/XY Data/BTO_Mapping_Theta2Theta_25-09-2025_001_07_18-271_8-135.xy
20.00000 544.875
20.17000 584.300
20.34000 530.696
20.51000 558.525
20.68000 542.170
20.85000 555.197
21.02000 538.341
21.19000 519.562
21.36000 550.356
21.53000 542.451
21.70000 545.762
21.87000 545.026
22.04000 581.231
22.21000 581.871
22.38000 600.736
22.55000 543.245
22.72000 504.232
22.89000 506.274
23.06000 514.740
23.23000 488.097
23.40000 497.306
23.57000 501.218
23.74000 490.789
23.91000 499.606
24.08000 480.459
24.25000 489.350
24.42000 482.715
24.59000 472.530
24.76000 478.131
24.93000 470.402
25.10000 472.399
25.27000 463.661
25.44000 447.009
25.61000 459.481
25.78000 459.763
25.95000 453.483
26.12000 448.998
26.29000 455.286
26.46000 447.077
26.63000 451.384
26.80000 436.093
26.97000 436.112
27.14000 438.490
27.31000 441.022
27.48000 415.511
27.65000 419.382
27.82000 421.504
27.99000 420.872
28.16000 406.911
28.33000 421.072
28.50000 405.009
28.67000 410.137
28.84000 412.061
29.01000 403.496
29.18000 424.860
29.35000 399.360
29.52000 380.368
29.69000 409.062
29.86000 397.784
30.03000 408.895
30.20000 417.934
30.37000 406.165
30.54000 415.422
30.71000 416.697
30.88000 417.217
31.05000 505.668
31.22000 848.022
31.39000 1319.422
31.56000 1037.107
31.73000 604.300
31.90000 477.951
32.07000 413.942
32.24000 389.038
32.41000 375.473
32.58000 369.390
32.75000 354.050
32.92000 380.314
33.09000 345.095
33.26000 336.686
33.43000 345.828
33.60000 329.495
33.77000 329.095
33.94000 315.412
34.11000 334.993
34.28000 320.252
34.45000 334.378
34.62000 327.995
34.79000 319.172
34.96000 322.590
35.13000 320.183
35.30000 312.692
35.47000 309.016
35.64000 308.187
35.81000 316.531
35.98000 300.229
36.15000 300.039
36.32000 297.273
36.49000 296.637
36.66000 288.369
36.83000 283.354
37.00000 308.538
37.17000 301.056
37.34000 292.050
37.51000 286.778
37.68000 300.258
37.85000 280.000
38.02000 279.224
38.19000 271.720
38.36000 297.806
38.53000 442.032
38.70000 708.643
38.87000 587.262
39.04000 321.882
39.21000 283.095
39.38000 271.031
39.55000 250.656
39.72000 267.231
39.89000 263.356
40.06000 256.337
40.23000 256.013
40.40000 252.505
40.57000 245.659
40.74000 237.519
40.91000 231.056
41.08000 240.857
41.25000 240.599
41.42000 246.906
41.59000 226.110
41.76000 218.738
41.93000 231.293
42.10000 230.257
42.27000 228.115
42.44000 235.390
42.61000 237.893
42.78000 218.653
42.95000 215.491
43.12000 223.364
43.29000 227.206
43.46000 211.701
43.63000 224.750
43.80000 217.178
43.97000 217.968
44.14000 214.453
44.31000 215.336
44.48000 214.487
44.65000 214.169
44.82000 220.455
44.99000 235.157
45.16000 262.379
45.33000 263.077
45.50000 249.244
45.67000 239.212
45.84000 227.614
46.01000 220.581
46.18000 210.994
46.35000 211.813
46.52000 188.068
46.69000 189.418
46.86000 202.595
47.03000 191.990
47.20000 179.250
47.37000 185.980
47.54000 191.319
47.71000 192.117
47.88000 191.975
48.05000 172.038
48.22000 167.134
48.39000 185.081
48.56000 177.064
48.73000 179.937
48.90000 182.116
49.07000 180.188
49.24000 178.366
49.41000 175.316
49.58000 171.667
49.75000 155.490
49.92000 166.781
50.09000 169.788
50.26000 171.252
50.43000 170.961
50.60000 189.435
50.77000 191.232
50.94000 187.331
51.11000 166.902
51.28000 163.385
51.45000 162.279
51.62000 163.721
51.79000 159.760
51.96000 160.104
52.13000 166.280
52.30000 160.127
52.47000 146.365
52.64000 153.291
52.81000 159.525
52.98000 159.906
53.15000 157.550
53.32000 163.162
53.49000 154.849
53.66000 150.648
53.83000 148.312
54.00000 157.905
54.17000 175.138
54.34000 151.703
54.51000 155.277
54.68000 147.752
54.85000 157.946
55.02000 150.493
55.19000 151.293
55.36000 159.838
55.53000 187.356
55.70000 224.366
55.87000 376.208
56.04000 408.357
56.21000 302.006
56.38000 198.370
56.55000 168.696
56.72000 140.783
56.89000 150.914
57.06000 136.080
57.23000 142.288
57.40000 141.181
57.57000 142.211
57.74000 135.793
57.91000 131.521
58.08000 137.468
58.25000 140.269
58.42000 138.070
58.59000 136.338
58.76000 128.350
58.93000 138.864
59.10000 141.057
59.27000 133.716
59.44000 129.162
59.61000 137.989
59.78000 129.304
59.95000 131.860
60.12000 125.948
60.29000 139.540
60.46000 122.775
60.63000 132.714
60.80000 131.584
60.97000 135.707
61.14000 133.024
61.31000 134.365
61.48000 143.909
61.65000 257.512
61.82000 203.897
61.99000 135.088
62.16000 139.621
62.33000 139.464
62.50000 140.513
62.67000 146.934
62.84000 139.206
63.01000 136.411
63.18000 140.172
63.35000 160.539
63.52000 165.150
63.69000 143.303
63.86000 152.210
64.03000 158.822
64.20000 162.338
64.37000 157.407
64.54000 166.307
64.71000 172.463
64.88000 175.103
65.05000 184.610
65.22000 210.723
65.39000 243.321
65.56000 279.367
65.73000 578.210
65.90000 1047.507
66.07000 386.010
66.24000 313.363
66.41000 460.478
66.58000 329.250
66.75000 320.699
66.92000 338.565
67.09000 367.900
67.26000 376.021
67.43000 399.046
67.60000 439.539
67.77000 460.858
67.94000 533.097
68.11000 561.074
68.28000 633.550
68.45000 737.694
68.62000 1002.999
68.79000 1868.786
68.96000 10228.795
69.13000 53462.730
69.30000 32265.959
69.47000 8277.870
69.64000 1246.710
69.81000 862.959
69.98000 680.699
70.00000 684.606