File: XRD/XRD/08-10-2025 Dep 7/XY Data/BTO_Mapping_Theta2Theta_08-10-2025_001_10_6-691_7-431.xy
20.00000 477.066
20.17000 477.344
20.34000 463.161
20.51000 443.249
20.68000 465.253
20.85000 457.880
21.02000 482.216
21.19000 471.763
21.36000 474.041
21.53000 469.461
21.70000 473.440
21.87000 483.054
22.04000 496.004
22.21000 511.336
22.38000 468.405
22.55000 441.370
22.72000 471.344
22.89000 450.339
23.06000 450.364
23.23000 441.159
23.40000 451.570
23.57000 449.584
23.74000 469.450
23.91000 500.094
24.08000 507.667
24.25000 451.212
24.42000 435.114
24.59000 405.299
24.76000 405.182
24.93000 403.273
25.10000 402.235
25.27000 393.839
25.44000 402.092
25.61000 392.210
25.78000 383.595
25.95000 394.814
26.12000 391.404
26.29000 385.490
26.46000 371.994
26.63000 391.935
26.80000 397.194
26.97000 388.043
27.14000 357.036
27.31000 385.402
27.48000 354.862
27.65000 350.439
27.82000 363.144
27.99000 376.458
28.16000 372.951
28.33000 363.350
28.50000 348.926
28.67000 366.549
28.84000 343.512
29.01000 361.467
29.18000 359.670
29.35000 357.856
29.52000 365.271
29.69000 363.570
29.86000 362.113
30.03000 387.657
30.20000 382.024
30.37000 369.132
30.54000 377.646
30.71000 352.782
30.88000 412.688
31.05000 505.560
31.22000 861.937
31.39000 1245.047
31.56000 833.446
31.73000 453.308
31.90000 384.039
32.07000 333.077
32.24000 324.918
32.41000 343.901
32.58000 314.453
32.75000 321.338
32.92000 311.196
33.09000 331.149
33.26000 293.070
33.43000 308.143
33.60000 296.689
33.77000 317.624
33.94000 311.354
34.11000 337.782
34.28000 363.850
34.45000 353.762
34.62000 325.792
34.79000 312.841
34.96000 290.004
35.13000 282.932
35.30000 274.503
35.47000 275.126
35.64000 256.890
35.81000 255.207
35.98000 274.116
36.15000 256.754
36.32000 268.369
36.49000 254.483
36.66000 260.724
36.83000 256.460
37.00000 281.596
37.17000 269.860
37.34000 252.572
37.51000 243.451
37.68000 257.303
37.85000 238.893
38.02000 257.590
38.19000 262.862
38.36000 306.812
38.53000 577.332
38.70000 1014.846
38.87000 724.120
39.04000 345.048
39.21000 235.563
39.38000 235.583
39.55000 222.921
39.72000 231.568
39.89000 231.097
40.06000 230.425
40.23000 228.880
40.40000 234.497
40.57000 233.474
40.74000 211.077
40.91000 215.766
41.08000 211.837
41.25000 210.452
41.42000 205.845
41.59000 212.143
41.76000 205.178
41.93000 205.549
42.10000 215.178
42.27000 214.456
42.44000 229.854
42.61000 212.853
42.78000 208.261
42.95000 199.745
43.12000 197.361
43.29000 196.325
43.46000 190.727
43.63000 195.096
43.80000 197.434
43.97000 193.240
44.14000 200.749
44.31000 197.410
44.48000 209.589
44.65000 214.136
44.82000 234.338
44.99000 235.131
45.16000 227.068
45.33000 233.442
45.50000 211.036
45.67000 199.209
45.84000 176.505
46.01000 175.173
46.18000 175.096
46.35000 186.489
46.52000 176.942
46.69000 162.288
46.86000 176.588
47.03000 174.070
47.20000 160.235
47.37000 156.445
47.54000 166.226
47.71000 166.445
47.88000 160.700
48.05000 167.218
48.22000 160.016
48.39000 153.048
48.56000 150.617
48.73000 158.471
48.90000 157.066
49.07000 163.312
49.24000 152.669
49.41000 158.066
49.58000 152.203
49.75000 152.045
49.92000 133.920
50.09000 148.397
50.26000 155.362
50.43000 144.541
50.60000 157.098
50.77000 158.912
50.94000 160.560
51.11000 133.943
51.28000 153.029
51.45000 144.283
51.62000 138.209
51.79000 142.546
51.96000 139.974
52.13000 140.732
52.30000 139.994
52.47000 138.934
52.64000 132.223
52.81000 126.600
52.98000 145.686
53.15000 144.148
53.32000 145.995
53.49000 145.835
53.66000 148.358
53.83000 154.920
54.00000 139.654
54.17000 135.737
54.34000 134.090
54.51000 137.664
54.68000 135.819
54.85000 142.539
55.02000 149.184
55.19000 161.896
55.36000 171.817
55.53000 227.502
55.70000 347.359
55.87000 508.711
56.04000 548.274
56.21000 335.669
56.38000 200.486
56.55000 154.440
56.72000 148.260
56.89000 130.822
57.06000 118.446
57.23000 137.685
57.40000 113.051
57.57000 130.235
57.74000 122.295
57.91000 122.324
58.08000 116.823
58.25000 121.613
58.42000 113.645
58.59000 119.174
58.76000 116.324
58.93000 127.004
59.10000 110.181
59.27000 108.107
59.44000 117.180
59.61000 120.832
59.78000 117.365
59.95000 121.945
60.12000 117.277
60.29000 115.518
60.46000 115.791
60.63000 118.083
60.80000 121.925
60.97000 116.772
61.14000 121.894
61.31000 126.619
61.48000 123.558
61.65000 277.256
61.82000 197.436
61.99000 135.815
62.16000 120.384
62.33000 134.164
62.50000 124.317
62.67000 130.036
62.84000 148.415
63.01000 137.188
63.18000 138.214
63.35000 136.089
63.52000 134.561
63.69000 143.627
63.86000 147.623
64.03000 141.504
64.20000 151.876
64.37000 152.176
64.54000 162.902
64.71000 164.987
64.88000 179.015
65.05000 182.946
65.22000 217.371
65.39000 252.657
65.56000 320.293
65.73000 953.621
65.90000 1850.360
66.07000 492.246
66.24000 369.850
66.41000 597.659
66.58000 407.311
66.75000 339.937
66.92000 354.654
67.09000 380.814
67.26000 386.413
67.43000 398.229
67.60000 419.360
67.77000 455.861
67.94000 470.570
68.11000 501.353
68.28000 552.511
68.45000 652.404
68.62000 857.364
68.79000 1530.307
68.96000 8276.874
69.13000 42428.262
69.30000 23215.984
69.47000 5928.562
69.64000 899.705
69.81000 621.225
69.98000 499.843
70.00000 492.340