File: XRD/XRD/08-10-2025 Dep 7/XY Data/BTO_Mapping_Theta2Theta_08-10-2025_001_31_-19-563_4-158.xy
20.00000 453.437
20.17000 458.793
20.34000 473.844
20.51000 474.617
20.68000 468.963
20.85000 456.458
21.02000 465.137
21.19000 482.890
21.36000 462.134
21.53000 470.711
21.70000 477.404
21.87000 508.740
22.04000 582.885
22.21000 569.793
22.38000 487.178
22.55000 449.523
22.72000 421.042
22.89000 438.709
23.06000 413.991
23.23000 438.639
23.40000 435.124
23.57000 435.008
23.74000 425.573
23.91000 447.004
24.08000 461.730
24.25000 423.367
24.42000 418.850
24.59000 415.600
24.76000 402.503
24.93000 411.361
25.10000 405.846
25.27000 403.873
25.44000 399.831
25.61000 410.286
25.78000 377.644
25.95000 400.169
26.12000 375.501
26.29000 387.398
26.46000 378.232
26.63000 382.349
26.80000 375.674
26.97000 368.165
27.14000 382.096
27.31000 377.103
27.48000 375.926
27.65000 377.559
27.82000 357.942
27.99000 367.099
28.16000 373.851
28.33000 372.399
28.50000 357.324
28.67000 376.070
28.84000 342.090
29.01000 357.247
29.18000 354.053
29.35000 342.435
29.52000 347.026
29.69000 352.760
29.86000 407.215
30.03000 405.961
30.20000 420.241
30.37000 373.580
30.54000 354.306
30.71000 378.141
30.88000 409.851
31.05000 645.400
31.22000 1569.208
31.39000 2218.868
31.56000 1197.913
31.73000 505.961
31.90000 375.869
32.07000 339.536
32.24000 345.235
32.41000 312.616
32.58000 321.528
32.75000 308.633
32.92000 320.799
33.09000 297.599
33.26000 304.886
33.43000 299.502
33.60000 281.040
33.77000 303.728
33.94000 307.047
34.11000 311.579
34.28000 321.686
34.45000 336.183
34.62000 313.506
34.79000 288.451
34.96000 280.806
35.13000 268.221
35.30000 279.454
35.47000 260.364
35.64000 258.720
35.81000 252.223
35.98000 260.953
36.15000 275.643
36.32000 262.622
36.49000 263.768
36.66000 265.879
36.83000 259.890
37.00000 276.274
37.17000 273.129
37.34000 248.474
37.51000 263.187
37.68000 250.466
37.85000 261.103
38.02000 260.451
38.19000 269.179
38.36000 388.729
38.53000 696.685
38.70000 953.572
38.87000 683.192
39.04000 323.518
39.21000 250.440
39.38000 234.119
39.55000 236.915
39.72000 228.116
39.89000 219.762
40.06000 230.963
40.23000 225.372
40.40000 222.418
40.57000 206.965
40.74000 220.545
40.91000 203.268
41.08000 197.797
41.25000 211.368
41.42000 209.370
41.59000 202.808
41.76000 202.316
41.93000 209.302
42.10000 212.409
42.27000 210.231
42.44000 206.250
42.61000 212.506
42.78000 193.481
42.95000 204.266
43.12000 203.198
43.29000 201.041
43.46000 194.628
43.63000 207.858
43.80000 188.976
43.97000 205.578
44.14000 194.817
44.31000 203.114
44.48000 208.253
44.65000 224.607
44.82000 270.112
44.99000 309.832
45.16000 277.554
45.33000 246.902
45.50000 222.476
45.67000 204.452
45.84000 193.404
46.01000 189.354
46.18000 175.887
46.35000 163.889
46.52000 175.919
46.69000 182.182
46.86000 172.831
47.03000 162.074
47.20000 165.375
47.37000 171.450
47.54000 162.740
47.71000 166.928
47.88000 159.101
48.05000 156.845
48.22000 172.116
48.39000 160.625
48.56000 150.979
48.73000 167.207
48.90000 145.128
49.07000 149.607
49.24000 145.604
49.41000 155.271
49.58000 157.852
49.75000 148.166
49.92000 148.740
50.09000 154.937
50.26000 165.788
50.43000 185.776
50.60000 201.695
50.77000 200.176
50.94000 171.941
51.11000 155.991
51.28000 156.910
51.45000 136.584
51.62000 152.127
51.79000 140.328
51.96000 130.489
52.13000 143.813
52.30000 138.881
52.47000 141.468
52.64000 145.152
52.81000 131.065
52.98000 134.544
53.15000 154.892
53.32000 155.725
53.49000 160.898
53.66000 146.028
53.83000 145.782
54.00000 134.156
54.17000 143.762
54.34000 139.178
54.51000 139.326
54.68000 140.913
54.85000 154.031
55.02000 140.442
55.19000 157.696
55.36000 187.996
55.53000 303.750
55.70000 530.949
55.87000 692.458
56.04000 539.583
56.21000 331.078
56.38000 195.712
56.55000 152.435
56.72000 142.174
56.89000 131.883
57.06000 136.263
57.23000 131.131
57.40000 129.619
57.57000 119.694
57.74000 124.482
57.91000 115.132
58.08000 123.047
58.25000 125.082
58.42000 122.525
58.59000 126.984
58.76000 122.169
58.93000 113.736
59.10000 122.997
59.27000 122.046
59.44000 111.680
59.61000 115.769
59.78000 116.598
59.95000 112.999
60.12000 119.714
60.29000 112.844
60.46000 120.236
60.63000 120.280
60.80000 109.668
60.97000 119.301
61.14000 121.298
61.31000 111.990
61.48000 125.527
61.65000 295.098
61.82000 225.681
61.99000 134.667
62.16000 132.825
62.33000 122.467
62.50000 127.447
62.67000 129.038
62.84000 136.596
63.01000 137.164
63.18000 137.233
63.35000 139.233
63.52000 141.778
63.69000 140.795
63.86000 130.672
64.03000 148.881
64.20000 145.513
64.37000 162.745
64.54000 164.778
64.71000 171.765
64.88000 197.423
65.05000 205.131
65.22000 255.927
65.39000 323.505
65.56000 392.436
65.73000 965.324
65.90000 2182.892
66.07000 635.632
66.24000 376.972
66.41000 651.298
66.58000 461.157
66.75000 351.745
66.92000 366.867
67.09000 389.136
67.26000 403.044
67.43000 433.802
67.60000 434.339
67.77000 456.147
67.94000 511.202
68.11000 524.476
68.28000 569.948
68.45000 648.771
68.62000 863.048
68.79000 1633.596
68.96000 6908.833
69.13000 48257.230
69.30000 29319.027
69.47000 9135.225
69.64000 994.183
69.81000 661.410
69.98000 535.562
70.00000 526.313