File: XRD/XRD/08-10-2025 Dep 7/XY Data/BTO_Mapping_Theta2Theta_08-10-2025_001_58_9-135_-4-067.xy
20.00000 492.237
20.17000 490.759
20.34000 471.993
20.51000 476.504
20.68000 470.408
20.85000 456.632
21.02000 475.501
21.19000 466.022
21.36000 477.782
21.53000 495.554
21.70000 485.195
21.87000 513.494
22.04000 538.352
22.21000 504.158
22.38000 482.731
22.55000 449.194
22.72000 441.756
22.89000 446.785
23.06000 447.061
23.23000 441.952
23.40000 433.349
23.57000 445.248
23.74000 462.292
23.91000 512.796
24.08000 518.334
24.25000 481.744
24.42000 442.871
24.59000 429.476
24.76000 394.710
24.93000 402.508
25.10000 391.283
25.27000 397.381
25.44000 397.699
25.61000 384.331
25.78000 369.501
25.95000 389.603
26.12000 377.737
26.29000 383.903
26.46000 389.871
26.63000 372.207
26.80000 382.241
26.97000 386.360
27.14000 371.585
27.31000 350.094
27.48000 382.096
27.65000 371.635
27.82000 362.618
27.99000 399.339
28.16000 367.899
28.33000 357.379
28.50000 371.164
28.67000 351.563
28.84000 355.100
29.01000 359.406
29.18000 351.639
29.35000 349.213
29.52000 362.516
29.69000 359.089
29.86000 384.531
30.03000 396.147
30.20000 398.187
30.37000 400.764
30.54000 374.240
30.71000 377.305
30.88000 409.064
31.05000 510.917
31.22000 895.056
31.39000 1229.806
31.56000 846.690
31.73000 466.214
31.90000 353.250
32.07000 349.128
32.24000 351.301
32.41000 340.464
32.58000 319.756
32.75000 306.684
32.92000 325.136
33.09000 310.722
33.26000 312.628
33.43000 294.645
33.60000 325.770
33.77000 301.893
33.94000 312.964
34.11000 333.237
34.28000 348.442
34.45000 358.429
34.62000 326.272
34.79000 322.804
34.96000 268.837
35.13000 270.241
35.30000 269.792
35.47000 258.334
35.64000 267.126
35.81000 257.369
35.98000 268.115
36.15000 245.345
36.32000 252.204
36.49000 263.624
36.66000 263.552
36.83000 258.270
37.00000 278.612
37.17000 271.780
37.34000 252.646
37.51000 267.082
37.68000 253.579
37.85000 252.117
38.02000 264.617
38.19000 268.033
38.36000 322.255
38.53000 616.877
38.70000 1048.868
38.87000 762.741
39.04000 325.880
39.21000 237.883
39.38000 243.296
39.55000 226.123
39.72000 240.367
39.89000 227.056
40.06000 229.024
40.23000 231.777
40.40000 230.319
40.57000 200.430
40.74000 207.742
40.91000 213.169
41.08000 220.510
41.25000 213.591
41.42000 203.549
41.59000 200.640
41.76000 208.466
41.93000 209.354
42.10000 219.911
42.27000 194.882
42.44000 207.177
42.61000 223.068
42.78000 206.557
42.95000 212.771
43.12000 215.356
43.29000 197.278
43.46000 189.622
43.63000 174.364
43.80000 193.805
43.97000 194.859
44.14000 194.096
44.31000 197.949
44.48000 209.596
44.65000 225.100
44.82000 235.612
44.99000 238.683
45.16000 236.764
45.33000 229.747
45.50000 203.775
45.67000 196.127
45.84000 190.582
46.01000 171.394
46.18000 182.658
46.35000 177.891
46.52000 162.597
46.69000 177.396
46.86000 163.803
47.03000 170.574
47.20000 173.162
47.37000 163.457
47.54000 163.989
47.71000 160.500
47.88000 165.035
48.05000 150.952
48.22000 157.949
48.39000 161.116
48.56000 156.615
48.73000 160.894
48.90000 156.600
49.07000 154.188
49.24000 155.303
49.41000 157.384
49.58000 156.384
49.75000 155.083
49.92000 157.208
50.09000 153.915
50.26000 144.674
50.43000 153.181
50.60000 160.767
50.77000 159.737
50.94000 152.366
51.11000 147.326
51.28000 161.679
51.45000 139.267
51.62000 148.304
51.79000 143.168
51.96000 139.348
52.13000 143.461
52.30000 145.401
52.47000 139.317
52.64000 148.876
52.81000 143.225
52.98000 135.515
53.15000 144.518
53.32000 156.841
53.49000 153.140
53.66000 145.406
53.83000 141.764
54.00000 138.621
54.17000 144.051
54.34000 138.967
54.51000 135.490
54.68000 139.184
54.85000 127.938
55.02000 145.455
55.19000 151.075
55.36000 176.680
55.53000 231.639
55.70000 366.695
55.87000 570.224
56.04000 561.985
56.21000 337.903
56.38000 204.020
56.55000 152.950
56.72000 143.268
56.89000 128.331
57.06000 138.619
57.23000 130.833
57.40000 131.929
57.57000 122.783
57.74000 132.394
57.91000 126.861
58.08000 125.253
58.25000 125.277
58.42000 126.100
58.59000 115.929
58.76000 116.776
58.93000 116.148
59.10000 125.022
59.27000 125.080
59.44000 116.643
59.61000 119.149
59.78000 125.680
59.95000 113.578
60.12000 117.775
60.29000 111.117
60.46000 122.315
60.63000 110.263
60.80000 123.288
60.97000 118.149
61.14000 123.701
61.31000 129.327
61.48000 141.076
61.65000 274.363
61.82000 188.600
61.99000 121.441
62.16000 131.547
62.33000 126.123
62.50000 129.663
62.67000 131.635
62.84000 146.743
63.01000 128.625
63.18000 137.275
63.35000 133.122
63.52000 133.519
63.69000 138.833
63.86000 139.149
64.03000 147.527
64.20000 155.990
64.37000 160.243
64.54000 159.463
64.71000 157.430
64.88000 175.981
65.05000 190.918
65.22000 209.791
65.39000 256.257
65.56000 330.744
65.73000 981.129
65.90000 1888.221
66.07000 474.432
66.24000 387.659
66.41000 616.518
66.58000 412.337
66.75000 342.502
66.92000 346.511
67.09000 371.846
67.26000 384.221
67.43000 395.222
67.60000 423.795
67.77000 456.015
67.94000 485.658
68.11000 514.578
68.28000 572.509
68.45000 618.293
68.62000 867.927
68.79000 1555.527
68.96000 8863.783
69.13000 42038.035
69.30000 22618.783
69.47000 5554.979
69.64000 877.512
69.81000 612.757
69.98000 504.040
70.00000 496.848