File: XRD/XRD/08-10-2025 Dep 7/XY Data/BTO_Mapping_Theta2Theta_08-10-2025_001_22_-5-000_8-660.xy
20.00000 472.661
20.17000 471.327
20.34000 496.291
20.51000 457.167
20.68000 458.933
20.85000 460.563
21.02000 456.967
21.19000 470.811
21.36000 476.577
21.53000 485.753
21.70000 495.088
21.87000 489.566
22.04000 535.880
22.21000 531.499
22.38000 477.537
22.55000 462.385
22.72000 437.446
22.89000 443.463
23.06000 414.671
23.23000 438.851
23.40000 433.672
23.57000 434.049
23.74000 450.708
23.91000 490.019
24.08000 489.439
24.25000 455.952
24.42000 421.201
24.59000 410.827
24.76000 405.466
24.93000 411.477
25.10000 409.293
25.27000 402.870
25.44000 388.957
25.61000 368.847
25.78000 386.195
25.95000 389.571
26.12000 397.868
26.29000 387.866
26.46000 388.070
26.63000 376.375
26.80000 373.153
26.97000 359.516
27.14000 387.445
27.31000 377.101
27.48000 367.401
27.65000 362.714
27.82000 368.162
27.99000 346.343
28.16000 362.073
28.33000 352.789
28.50000 367.813
28.67000 360.897
28.84000 386.606
29.01000 339.728
29.18000 338.976
29.35000 349.391
29.52000 345.080
29.69000 353.292
29.86000 358.814
30.03000 377.216
30.20000 363.553
30.37000 361.613
30.54000 342.013
30.71000 353.093
30.88000 376.087
31.05000 449.112
31.22000 775.658
31.39000 1096.323
31.56000 735.517
31.73000 452.698
31.90000 378.133
32.07000 351.180
32.24000 324.924
32.41000 324.040
32.58000 314.417
32.75000 328.952
32.92000 311.000
33.09000 313.482
33.26000 290.187
33.43000 270.757
33.60000 288.309
33.77000 296.793
33.94000 305.769
34.11000 321.837
34.28000 329.628
34.45000 350.881
34.62000 321.260
34.79000 289.999
34.96000 298.128
35.13000 281.477
35.30000 273.211
35.47000 275.800
35.64000 260.154
35.81000 262.723
35.98000 262.453
36.15000 258.823
36.32000 263.201
36.49000 254.420
36.66000 270.401
36.83000 262.551
37.00000 284.763
37.17000 271.855
37.34000 273.106
37.51000 265.063
37.68000 272.722
37.85000 253.998
38.02000 252.642
38.19000 264.489
38.36000 340.846
38.53000 668.907
38.70000 1146.368
38.87000 868.465
39.04000 357.750
39.21000 253.639
39.38000 234.090
39.55000 240.301
39.72000 236.671
39.89000 221.621
40.06000 221.084
40.23000 225.807
40.40000 207.812
40.57000 229.458
40.74000 222.583
40.91000 202.224
41.08000 220.124
41.25000 211.541
41.42000 201.044
41.59000 204.317
41.76000 206.595
41.93000 207.027
42.10000 216.647
42.27000 216.776
42.44000 211.376
42.61000 206.698
42.78000 202.725
42.95000 200.218
43.12000 209.260
43.29000 199.829
43.46000 197.925
43.63000 194.985
43.80000 205.351
43.97000 187.346
44.14000 205.431
44.31000 203.412
44.48000 204.551
44.65000 220.837
44.82000 229.327
44.99000 243.660
45.16000 247.154
45.33000 244.931
45.50000 217.193
45.67000 204.969
45.84000 185.586
46.01000 186.342
46.18000 176.500
46.35000 171.685
46.52000 168.634
46.69000 175.981
46.86000 175.751
47.03000 182.077
47.20000 176.970
47.37000 160.160
47.54000 158.941
47.71000 167.630
47.88000 159.109
48.05000 161.815
48.22000 151.611
48.39000 155.245
48.56000 165.373
48.73000 152.086
48.90000 152.464
49.07000 147.435
49.24000 153.462
49.41000 154.972
49.58000 154.804
49.75000 142.949
49.92000 150.392
50.09000 146.203
50.26000 158.030
50.43000 157.398
50.60000 165.869
50.77000 169.395
50.94000 148.565
51.11000 155.074
51.28000 147.594
51.45000 147.867
51.62000 139.036
51.79000 146.422
51.96000 142.891
52.13000 139.365
52.30000 135.099
52.47000 157.186
52.64000 136.574
52.81000 142.585
52.98000 141.717
53.15000 140.662
53.32000 158.122
53.49000 153.308
53.66000 144.021
53.83000 152.648
54.00000 137.436
54.17000 144.406
54.34000 138.906
54.51000 135.089
54.68000 139.971
54.85000 138.808
55.02000 148.230
55.19000 154.396
55.36000 171.211
55.53000 233.319
55.70000 393.287
55.87000 661.084
56.04000 646.457
56.21000 377.009
56.38000 213.522
56.55000 154.858
56.72000 137.191
56.89000 127.362
57.06000 129.546
57.23000 133.675
57.40000 134.164
57.57000 135.727
57.74000 125.952
57.91000 123.912
58.08000 121.191
58.25000 121.574
58.42000 114.585
58.59000 115.967
58.76000 117.904
58.93000 106.666
59.10000 121.416
59.27000 116.036
59.44000 115.798
59.61000 122.550
59.78000 118.598
59.95000 119.908
60.12000 133.079
60.29000 123.899
60.46000 107.668
60.63000 119.555
60.80000 122.458
60.97000 116.111
61.14000 129.553
61.31000 127.449
61.48000 120.234
61.65000 295.880
61.82000 217.987
61.99000 122.701
62.16000 124.937
62.33000 124.458
62.50000 131.508
62.67000 127.304
62.84000 128.260
63.01000 129.859
63.18000 135.277
63.35000 132.561
63.52000 134.396
63.69000 141.965
63.86000 135.819
64.03000 149.403
64.20000 148.038
64.37000 143.522
64.54000 159.452
64.71000 157.745
64.88000 175.414
65.05000 175.385
65.22000 212.008
65.39000 256.787
65.56000 316.686
65.73000 905.331
65.90000 1916.390
66.07000 530.573
66.24000 387.443
66.41000 619.297
66.58000 431.617
66.75000 354.420
66.92000 348.859
67.09000 355.785
67.26000 379.600
67.43000 397.222
67.60000 428.246
67.77000 458.206
67.94000 484.011
68.11000 518.018
68.28000 561.628
68.45000 623.806
68.62000 880.668
68.79000 1542.110
68.96000 7497.869
69.13000 43546.660
69.30000 24899.021
69.47000 6891.208
69.64000 919.116
69.81000 615.673
69.98000 502.047
70.00000 505.323