File: XRD/XRD/08-10-2025 Dep 7/XY Data/BTO_Mapping_Theta2Theta_08-10-2025_001_25_-20-000_34-641.xy
20.00000 477.933
20.17000 484.775
20.34000 457.632
20.51000 466.774
20.68000 481.079
20.85000 471.537
21.02000 454.415
21.19000 458.921
21.36000 472.765
21.53000 464.161
21.70000 461.848
21.87000 483.211
22.04000 544.628
22.21000 540.124
22.38000 502.048
22.55000 443.346
22.72000 451.530
22.89000 449.718
23.06000 444.769
23.23000 414.057
23.40000 423.322
23.57000 425.627
23.74000 432.952
23.91000 472.419
24.08000 492.410
24.25000 444.360
24.42000 435.328
24.59000 411.592
24.76000 410.485
24.93000 425.311
25.10000 396.522
25.27000 402.935
25.44000 410.154
25.61000 382.748
25.78000 406.694
25.95000 385.505
26.12000 390.927
26.29000 380.205
26.46000 389.314
26.63000 379.950
26.80000 373.017
26.97000 372.471
27.14000 377.675
27.31000 377.406
27.48000 372.371
27.65000 369.011
27.82000 362.395
27.99000 368.037
28.16000 354.919
28.33000 341.332
28.50000 361.495
28.67000 360.125
28.84000 359.922
29.01000 358.889
29.18000 344.207
29.35000 344.147
29.52000 354.999
29.69000 346.401
29.86000 355.735
30.03000 372.847
30.20000 371.915
30.37000 371.125
30.54000 351.777
30.71000 345.198
30.88000 357.508
31.05000 436.215
31.22000 699.136
31.39000 1095.093
31.56000 883.563
31.73000 476.923
31.90000 362.719
32.07000 340.867
32.24000 315.913
32.41000 352.539
32.58000 315.722
32.75000 312.536
32.92000 305.293
33.09000 308.388
33.26000 302.790
33.43000 296.826
33.60000 267.053
33.77000 302.433
33.94000 303.146
34.11000 301.471
34.28000 321.345
34.45000 346.394
34.62000 322.993
34.79000 284.300
34.96000 269.758
35.13000 288.017
35.30000 265.555
35.47000 266.625
35.64000 260.160
35.81000 267.108
35.98000 257.272
36.15000 250.203
36.32000 266.352
36.49000 260.331
36.66000 257.699
36.83000 261.780
37.00000 289.491
37.17000 276.846
37.34000 258.856
37.51000 255.739
37.68000 248.314
37.85000 258.959
38.02000 269.768
38.19000 257.969
38.36000 288.284
38.53000 556.872
38.70000 1027.952
38.87000 892.950
39.04000 381.928
39.21000 253.489
39.38000 243.673
39.55000 222.926
39.72000 225.428
39.89000 212.017
40.06000 230.507
40.23000 225.891
40.40000 222.225
40.57000 222.148
40.74000 214.624
40.91000 216.959
41.08000 209.348
41.25000 212.512
41.42000 205.520
41.59000 198.969
41.76000 217.933
41.93000 213.048
42.10000 204.666
42.27000 221.586
42.44000 217.802
42.61000 209.463
42.78000 200.592
42.95000 196.987
43.12000 197.241
43.29000 189.466
43.46000 200.740
43.63000 206.453
43.80000 201.560
43.97000 197.916
44.14000 192.426
44.31000 194.358
44.48000 196.670
44.65000 209.811
44.82000 232.301
44.99000 268.756
45.16000 284.559
45.33000 245.287
45.50000 213.418
45.67000 204.975
45.84000 186.646
46.01000 183.330
46.18000 175.370
46.35000 174.960
46.52000 175.460
46.69000 168.395
46.86000 178.085
47.03000 156.952
47.20000 159.588
47.37000 172.616
47.54000 158.072
47.71000 159.645
47.88000 153.828
48.05000 161.755
48.22000 158.977
48.39000 158.580
48.56000 161.300
48.73000 154.734
48.90000 165.791
49.07000 162.715
49.24000 147.655
49.41000 151.008
49.58000 154.955
49.75000 160.924
49.92000 153.868
50.09000 150.288
50.26000 155.352
50.43000 158.454
50.60000 164.672
50.77000 176.963
50.94000 166.835
51.11000 137.899
51.28000 153.511
51.45000 152.458
51.62000 149.455
51.79000 136.659
51.96000 145.810
52.13000 145.941
52.30000 139.909
52.47000 136.744
52.64000 142.763
52.81000 137.561
52.98000 134.883
53.15000 143.281
53.32000 155.378
53.49000 151.085
53.66000 145.661
53.83000 145.938
54.00000 148.824
54.17000 141.378
54.34000 136.909
54.51000 146.025
54.68000 142.118
54.85000 141.328
55.02000 144.554
55.19000 154.770
55.36000 167.446
55.53000 187.915
55.70000 349.947
55.87000 617.881
56.04000 653.714
56.21000 420.642
56.38000 216.252
56.55000 161.132
56.72000 139.982
56.89000 135.450
57.06000 126.619
57.23000 126.603
57.40000 133.617
57.57000 131.578
57.74000 129.702
57.91000 123.461
58.08000 123.492
58.25000 133.145
58.42000 123.859
58.59000 117.533
58.76000 123.351
58.93000 125.650
59.10000 111.134
59.27000 114.425
59.44000 115.268
59.61000 118.382
59.78000 118.046
59.95000 112.558
60.12000 107.942
60.29000 110.819
60.46000 116.993
60.63000 107.998
60.80000 119.648
60.97000 117.335
61.14000 123.038
61.31000 119.840
61.48000 126.917
61.65000 263.428
61.82000 221.419
61.99000 127.177
62.16000 121.187
62.33000 124.654
62.50000 118.967
62.67000 122.274
62.84000 125.640
63.01000 126.668
63.18000 143.883
63.35000 128.678
63.52000 132.326
63.69000 130.032
63.86000 135.032
64.03000 140.027
64.20000 148.961
64.37000 150.928
64.54000 151.880
64.71000 176.656
64.88000 162.053
65.05000 182.686
65.22000 211.007
65.39000 244.468
65.56000 299.415
65.73000 765.903
65.90000 1938.838
66.07000 601.490
66.24000 369.398
66.41000 616.273
66.58000 433.876
66.75000 341.071
66.92000 351.562
67.09000 371.891
67.26000 381.031
67.43000 393.492
67.60000 435.812
67.77000 436.729
67.94000 486.634
68.11000 507.809
68.28000 575.261
68.45000 634.499
68.62000 834.726
68.79000 1495.166
68.96000 5242.424
69.13000 42548.719
69.30000 27470.836
69.47000 9199.284
69.64000 987.763
69.81000 638.918
69.98000 520.493
70.00000 507.593