File: XRD/XRD/08-10-2025 Dep 7/XY Data/BTO_Mapping_Theta2Theta_08-10-2025_001_08_27-406_12-202.xy
20.00000 488.278
20.17000 490.174
20.34000 478.720
20.51000 470.056
20.68000 470.697
20.85000 458.802
21.02000 459.644
21.19000 456.407
21.36000 476.140
21.53000 462.950
21.70000 472.431
21.87000 493.663
22.04000 506.673
22.21000 482.818
22.38000 471.233
22.55000 454.658
22.72000 443.999
22.89000 420.457
23.06000 455.344
23.23000 443.234
23.40000 447.002
23.57000 455.331
23.74000 483.077
23.91000 525.296
24.08000 519.702
24.25000 475.646
24.42000 448.958
24.59000 421.689
24.76000 414.245
24.93000 398.624
25.10000 397.304
25.27000 402.731
25.44000 406.812
25.61000 417.706
25.78000 402.138
25.95000 393.836
26.12000 406.917
26.29000 390.498
26.46000 397.787
26.63000 393.293
26.80000 369.333
26.97000 384.259
27.14000 389.204
27.31000 369.501
27.48000 368.592
27.65000 380.142
27.82000 373.604
27.99000 378.077
28.16000 372.934
28.33000 358.745
28.50000 357.097
28.67000 360.942
28.84000 370.091
29.01000 377.966
29.18000 360.672
29.35000 377.060
29.52000 361.757
29.69000 366.318
29.86000 380.116
30.03000 393.765
30.20000 371.787
30.37000 384.378
30.54000 375.769
30.71000 383.861
30.88000 401.417
31.05000 527.378
31.22000 824.877
31.39000 1012.048
31.56000 731.144
31.73000 478.026
31.90000 384.049
32.07000 368.524
32.24000 353.518
32.41000 338.613
32.58000 341.310
32.75000 327.891
32.92000 340.770
33.09000 305.699
33.26000 299.052
33.43000 302.008
33.60000 290.568
33.77000 303.734
33.94000 315.689
34.11000 310.104
34.28000 329.780
34.45000 308.398
34.62000 292.828
34.79000 285.176
34.96000 281.023
35.13000 274.337
35.30000 267.746
35.47000 266.069
35.64000 276.850
35.81000 273.235
35.98000 272.374
36.15000 249.354
36.32000 255.724
36.49000 244.539
36.66000 272.499
36.83000 266.203
37.00000 270.020
37.17000 261.669
37.34000 265.177
37.51000 249.634
37.68000 248.580
37.85000 232.869
38.02000 254.329
38.19000 257.684
38.36000 307.270
38.53000 496.426
38.70000 697.237
38.87000 477.474
39.04000 282.144
39.21000 232.575
39.38000 258.234
39.55000 239.902
39.72000 230.173
39.89000 228.135
40.06000 219.958
40.23000 233.159
40.40000 227.560
40.57000 223.985
40.74000 222.187
40.91000 203.444
41.08000 199.359
41.25000 204.222
41.42000 220.485
41.59000 218.910
41.76000 208.107
41.93000 224.618
42.10000 225.778
42.27000 225.060
42.44000 211.609
42.61000 211.510
42.78000 209.599
42.95000 210.030
43.12000 207.856
43.29000 207.806
43.46000 198.891
43.63000 198.386
43.80000 192.362
43.97000 187.144
44.14000 205.767
44.31000 192.952
44.48000 213.386
44.65000 223.853
44.82000 223.768
44.99000 240.492
45.16000 241.082
45.33000 227.526
45.50000 214.695
45.67000 185.415
45.84000 177.968
46.01000 186.429
46.18000 187.118
46.35000 172.126
46.52000 176.895
46.69000 174.042
46.86000 159.109
47.03000 178.345
47.20000 168.478
47.37000 171.416
47.54000 162.260
47.71000 169.967
47.88000 159.159
48.05000 161.244
48.22000 175.139
48.39000 156.100
48.56000 163.403
48.73000 152.572
48.90000 153.541
49.07000 164.819
49.24000 152.362
49.41000 153.870
49.58000 156.843
49.75000 148.146
49.92000 161.196
50.09000 157.611
50.26000 158.297
50.43000 168.322
50.60000 158.773
50.77000 164.553
50.94000 158.503
51.11000 155.641
51.28000 149.604
51.45000 153.825
51.62000 135.886
51.79000 149.044
51.96000 142.924
52.13000 146.807
52.30000 142.951
52.47000 130.316
52.64000 145.335
52.81000 144.398
52.98000 142.966
53.15000 144.421
53.32000 146.096
53.49000 143.866
53.66000 153.385
53.83000 149.784
54.00000 139.546
54.17000 148.215
54.34000 136.836
54.51000 143.524
54.68000 142.592
54.85000 135.411
55.02000 144.569
55.19000 143.415
55.36000 167.683
55.53000 206.185
55.70000 250.715
55.87000 297.989
56.04000 292.389
56.21000 234.894
56.38000 178.009
56.55000 154.303
56.72000 146.938
56.89000 140.390
57.06000 137.164
57.23000 118.819
57.40000 136.512
57.57000 127.938
57.74000 122.977
57.91000 121.562
58.08000 132.292
58.25000 120.707
58.42000 124.550
58.59000 120.824
58.76000 124.676
58.93000 121.973
59.10000 124.631
59.27000 114.367
59.44000 121.300
59.61000 116.305
59.78000 120.604
59.95000 120.560
60.12000 113.286
60.29000 124.265
60.46000 124.868
60.63000 114.594
60.80000 122.567
60.97000 120.296
61.14000 131.835
61.31000 125.423
61.48000 137.983
61.65000 276.013
61.82000 182.020
61.99000 131.190
62.16000 132.746
62.33000 133.399
62.50000 131.244
62.67000 129.252
62.84000 136.982
63.01000 138.084
63.18000 132.453
63.35000 136.531
63.52000 141.322
63.69000 141.478
63.86000 148.302
64.03000 141.568
64.20000 154.751
64.37000 159.890
64.54000 180.703
64.71000 166.000
64.88000 184.576
65.05000 196.750
65.22000 219.595
65.39000 250.843
65.56000 335.208
65.73000 1093.559
65.90000 1902.138
66.07000 468.637
66.24000 412.590
66.41000 665.688
66.58000 399.781
66.75000 358.114
66.92000 363.624
67.09000 380.536
67.26000 386.942
67.43000 406.809
67.60000 427.580
67.77000 472.299
67.94000 485.983
68.11000 527.320
68.28000 589.658
68.45000 672.318
68.62000 932.215
68.79000 1669.807
68.96000 11323.433
69.13000 45527.508
69.30000 23175.289
69.47000 4978.709
69.64000 900.679
69.81000 617.332
69.98000 511.129
70.00000 508.719