File: XRD/XRD/08-10-2025 Dep 7/XY Data/BTO_Mapping_Theta2Theta_08-10-2025_001_05_40-000_0-000.xy
20.00000 464.221
20.17000 493.463
20.34000 463.432
20.51000 466.947
20.68000 460.645
20.85000 467.978
21.02000 481.909
21.19000 469.343
21.36000 468.788
21.53000 465.038
21.70000 476.233
21.87000 489.591
22.04000 493.925
22.21000 490.588
22.38000 464.422
22.55000 452.831
22.72000 440.493
22.89000 451.115
23.06000 442.915
23.23000 447.321
23.40000 452.075
23.57000 469.193
23.74000 498.061
23.91000 515.392
24.08000 510.470
24.25000 477.813
24.42000 423.945
24.59000 410.272
24.76000 425.025
24.93000 399.283
25.10000 404.641
25.27000 409.206
25.44000 413.921
25.61000 403.389
25.78000 414.496
25.95000 399.163
26.12000 401.684
26.29000 382.146
26.46000 399.157
26.63000 388.168
26.80000 370.957
26.97000 391.064
27.14000 372.013
27.31000 371.179
27.48000 381.243
27.65000 400.043
27.82000 378.294
27.99000 370.043
28.16000 380.507
28.33000 364.912
28.50000 389.025
28.67000 372.321
28.84000 369.376
29.01000 367.760
29.18000 372.146
29.35000 388.920
29.52000 356.746
29.69000 376.341
29.86000 377.349
30.03000 367.696
30.20000 370.380
30.37000 385.475
30.54000 393.412
30.71000 398.667
30.88000 427.267
31.05000 551.179
31.22000 848.879
31.39000 947.006
31.56000 656.069
31.73000 449.905
31.90000 382.609
32.07000 371.876
32.24000 359.446
32.41000 329.529
32.58000 326.209
32.75000 320.174
32.92000 332.962
33.09000 298.475
33.26000 288.351
33.43000 295.364
33.60000 299.715
33.77000 306.810
33.94000 319.392
34.11000 323.552
34.28000 334.923
34.45000 305.111
34.62000 302.815
34.79000 283.651
34.96000 286.265
35.13000 271.154
35.30000 271.091
35.47000 269.361
35.64000 266.036
35.81000 265.374
35.98000 270.938
36.15000 268.616
36.32000 263.143
36.49000 237.990
36.66000 253.321
36.83000 271.924
37.00000 254.397
37.17000 249.324
37.34000 265.355
37.51000 264.039
37.68000 250.273
37.85000 264.141
38.02000 262.608
38.19000 270.498
38.36000 312.512
38.53000 456.332
38.70000 570.595
38.87000 371.039
39.04000 269.690
39.21000 249.010
39.38000 241.170
39.55000 224.322
39.72000 237.150
39.89000 240.197
40.06000 233.324
40.23000 225.768
40.40000 220.734
40.57000 218.904
40.74000 219.740
40.91000 224.674
41.08000 221.367
41.25000 204.848
41.42000 202.231
41.59000 212.582
41.76000 212.538
41.93000 218.702
42.10000 222.641
42.27000 216.441
42.44000 214.908
42.61000 216.024
42.78000 213.392
42.95000 204.128
43.12000 205.544
43.29000 196.662
43.46000 195.500
43.63000 191.201
43.80000 208.971
43.97000 210.104
44.14000 193.600
44.31000 191.387
44.48000 217.549
44.65000 217.098
44.82000 215.107
44.99000 226.530
45.16000 227.703
45.33000 208.303
45.50000 214.414
45.67000 194.371
45.84000 184.506
46.01000 173.120
46.18000 177.736
46.35000 168.921
46.52000 179.368
46.69000 184.773
46.86000 166.732
47.03000 162.509
47.20000 178.077
47.37000 167.544
47.54000 166.019
47.71000 169.540
47.88000 160.394
48.05000 153.909
48.22000 156.912
48.39000 161.851
48.56000 170.069
48.73000 149.666
48.90000 157.537
49.07000 163.396
49.24000 154.620
49.41000 160.750
49.58000 166.927
49.75000 150.915
49.92000 145.316
50.09000 155.497
50.26000 149.552
50.43000 167.948
50.60000 174.691
50.77000 161.536
50.94000 159.920
51.11000 161.536
51.28000 144.667
51.45000 151.575
51.62000 144.532
51.79000 147.624
51.96000 133.447
52.13000 154.382
52.30000 143.902
52.47000 140.173
52.64000 137.192
52.81000 145.729
52.98000 147.429
53.15000 143.053
53.32000 143.255
53.49000 147.634
53.66000 132.224
53.83000 146.168
54.00000 149.462
54.17000 132.762
54.34000 147.072
54.51000 137.924
54.68000 140.866
54.85000 145.746
55.02000 145.293
55.19000 156.487
55.36000 180.094
55.53000 162.706
55.70000 230.157
55.87000 264.144
56.04000 236.933
56.21000 188.206
56.38000 167.716
56.55000 144.804
56.72000 145.734
56.89000 126.048
57.06000 135.434
57.23000 130.609
57.40000 132.999
57.57000 136.296
57.74000 130.128
57.91000 121.580
58.08000 131.921
58.25000 129.065
58.42000 121.725
58.59000 117.159
58.76000 119.174
58.93000 115.716
59.10000 125.497
59.27000 123.330
59.44000 121.352
59.61000 113.022
59.78000 112.185
59.95000 123.581
60.12000 113.798
60.29000 118.937
60.46000 128.369
60.63000 116.647
60.80000 129.002
60.97000 115.163
61.14000 123.645
61.31000 130.798
61.48000 143.495
61.65000 284.606
61.82000 164.361
61.99000 133.528
62.16000 125.715
62.33000 138.688
62.50000 130.172
62.67000 139.691
62.84000 136.001
63.01000 126.276
63.18000 142.584
63.35000 133.240
63.52000 145.882
63.69000 147.278
63.86000 141.234
64.03000 149.144
64.20000 158.279
64.37000 151.906
64.54000 168.879
64.71000 169.981
64.88000 182.379
65.05000 197.320
65.22000 213.346
65.39000 263.473
65.56000 329.136
65.73000 1229.291
65.90000 1984.868
66.07000 463.599
66.24000 389.529
66.41000 631.809
66.58000 404.965
66.75000 350.973
66.92000 354.791
67.09000 389.999
67.26000 408.904
67.43000 439.188
67.60000 470.148
67.77000 472.331
67.94000 517.417
68.11000 542.486
68.28000 583.014
68.45000 675.209
68.62000 977.720
68.79000 1695.750
68.96000 13595.463
69.13000 46592.016
69.30000 22890.975
69.47000 4215.412
69.64000 906.045
69.81000 618.039
69.98000 486.169
70.00000 476.751