File: XRD/XRD/08-10-2025 Dep 7/XY Data/BTO_Mapping_Theta2Theta_08-10-2025_001_38_-8-090_-5-878.xy
20.00000 468.178
20.17000 466.815
20.34000 463.846
20.51000 471.237
20.68000 468.169
20.85000 475.621
21.02000 461.029
21.19000 451.462
21.36000 463.613
21.53000 461.908
21.70000 488.666
21.87000 496.031
22.04000 532.689
22.21000 537.578
22.38000 484.194
22.55000 462.541
22.72000 430.101
22.89000 438.035
23.06000 449.092
23.23000 416.729
23.40000 427.397
23.57000 446.209
23.74000 444.558
23.91000 467.823
24.08000 474.426
24.25000 430.552
24.42000 436.501
24.59000 401.812
24.76000 415.315
24.93000 403.833
25.10000 407.876
25.27000 392.301
25.44000 409.284
25.61000 412.174
25.78000 379.624
25.95000 397.197
26.12000 395.276
26.29000 380.161
26.46000 370.949
26.63000 391.511
26.80000 380.073
26.97000 365.449
27.14000 368.734
27.31000 374.887
27.48000 378.973
27.65000 352.298
27.82000 362.311
27.99000 365.568
28.16000 363.633
28.33000 368.092
28.50000 363.177
28.67000 360.270
28.84000 345.974
29.01000 333.055
29.18000 359.663
29.35000 356.107
29.52000 356.511
29.69000 355.657
29.86000 383.916
30.03000 397.498
30.20000 382.999
30.37000 363.356
30.54000 377.846
30.71000 365.054
30.88000 419.626
31.05000 547.204
31.22000 1067.817
31.39000 1374.427
31.56000 794.922
31.73000 426.273
31.90000 363.891
32.07000 351.759
32.24000 326.482
32.41000 321.128
32.58000 311.730
32.75000 313.472
32.92000 329.510
33.09000 311.544
33.26000 314.603
33.43000 303.936
33.60000 303.763
33.77000 294.580
33.94000 311.730
34.11000 317.901
34.28000 339.304
34.45000 339.119
34.62000 316.167
34.79000 295.317
34.96000 270.519
35.13000 264.076
35.30000 278.327
35.47000 260.130
35.64000 265.753
35.81000 266.972
35.98000 254.001
36.15000 255.180
36.32000 260.522
36.49000 252.017
36.66000 256.072
36.83000 274.947
37.00000 294.457
37.17000 282.051
37.34000 273.335
37.51000 256.522
37.68000 253.201
37.85000 255.771
38.02000 265.929
38.19000 273.868
38.36000 380.216
38.53000 787.546
38.70000 1221.297
38.87000 828.192
39.04000 358.180
39.21000 245.186
39.38000 239.467
39.55000 222.516
39.72000 229.206
39.89000 226.020
40.06000 228.184
40.23000 218.425
40.40000 226.237
40.57000 223.015
40.74000 230.935
40.91000 199.168
41.08000 222.196
41.25000 210.871
41.42000 216.477
41.59000 202.807
41.76000 196.752
41.93000 220.684
42.10000 201.863
42.27000 197.052
42.44000 204.043
42.61000 204.600
42.78000 204.849
42.95000 211.651
43.12000 210.684
43.29000 187.341
43.46000 187.971
43.63000 203.425
43.80000 202.331
43.97000 202.339
44.14000 193.516
44.31000 194.394
44.48000 203.063
44.65000 218.635
44.82000 242.732
44.99000 261.430
45.16000 259.805
45.33000 234.189
45.50000 211.371
45.67000 203.619
45.84000 202.660
46.01000 189.989
46.18000 183.191
46.35000 175.653
46.52000 174.458
46.69000 168.010
46.86000 173.945
47.03000 175.869
47.20000 158.465
47.37000 160.839
47.54000 158.426
47.71000 169.821
47.88000 166.515
48.05000 154.890
48.22000 147.634
48.39000 163.623
48.56000 164.390
48.73000 159.812
48.90000 151.663
49.07000 157.313
49.24000 150.502
49.41000 149.044
49.58000 157.180
49.75000 157.683
49.92000 144.952
50.09000 151.512
50.26000 153.224
50.43000 171.947
50.60000 188.502
50.77000 170.255
50.94000 161.314
51.11000 151.341
51.28000 151.456
51.45000 144.401
51.62000 146.783
51.79000 142.541
51.96000 142.864
52.13000 133.196
52.30000 140.810
52.47000 140.808
52.64000 144.818
52.81000 155.073
52.98000 137.174
53.15000 149.491
53.32000 157.844
53.49000 152.478
53.66000 149.641
53.83000 142.383
54.00000 146.266
54.17000 136.102
54.34000 157.035
54.51000 144.495
54.68000 149.536
54.85000 144.402
55.02000 146.073
55.19000 154.348
55.36000 175.214
55.53000 285.461
55.70000 505.738
55.87000 705.205
56.04000 604.968
56.21000 346.583
56.38000 196.056
56.55000 151.598
56.72000 141.103
56.89000 136.068
57.06000 131.585
57.23000 119.886
57.40000 128.331
57.57000 131.081
57.74000 130.469
57.91000 122.843
58.08000 125.848
58.25000 118.795
58.42000 118.041
58.59000 124.919
58.76000 122.609
58.93000 133.548
59.10000 122.180
59.27000 113.054
59.44000 114.672
59.61000 117.223
59.78000 120.036
59.95000 110.742
60.12000 108.077
60.29000 112.619
60.46000 115.402
60.63000 114.092
60.80000 121.441
60.97000 126.605
61.14000 125.050
61.31000 125.935
61.48000 124.975
61.65000 284.640
61.82000 206.135
61.99000 126.147
62.16000 128.627
62.33000 127.473
62.50000 123.297
62.67000 123.440
62.84000 134.419
63.01000 131.971
63.18000 137.676
63.35000 135.032
63.52000 142.761
63.69000 130.553
63.86000 141.171
64.03000 147.265
64.20000 150.735
64.37000 154.147
64.54000 155.864
64.71000 158.234
64.88000 175.511
65.05000 200.084
65.22000 221.035
65.39000 262.279
65.56000 344.620
65.73000 958.372
65.90000 2051.846
66.07000 550.954
66.24000 388.889
66.41000 624.156
66.58000 415.320
66.75000 359.474
66.92000 351.447
67.09000 371.813
67.26000 401.476
67.43000 395.374
67.60000 436.485
67.77000 452.597
67.94000 481.663
68.11000 525.681
68.28000 581.944
68.45000 632.291
68.62000 887.009
68.79000 1595.094
68.96000 8003.236
69.13000 46005.531
69.30000 26253.514
69.47000 7241.030
69.64000 949.008
69.81000 642.637
69.98000 512.239
70.00000 500.799