File: XRD/XRD/08-10-2025 Dep 7/XY Data/BTO_Mapping_Theta2Theta_08-10-2025_001_52_9-271_-28-532.xy
20.00000 461.541
20.17000 476.014
20.34000 487.561
20.51000 461.006
20.68000 471.592
20.85000 469.827
21.02000 464.704
21.19000 476.848
21.36000 452.140
21.53000 459.505
21.70000 475.102
21.87000 508.990
22.04000 543.488
22.21000 526.793
22.38000 471.492
22.55000 466.540
22.72000 452.747
22.89000 443.624
23.06000 456.984
23.23000 459.410
23.40000 443.030
23.57000 453.818
23.74000 496.946
23.91000 530.737
24.08000 489.748
24.25000 455.986
24.42000 444.770
24.59000 429.798
24.76000 403.438
24.93000 393.512
25.10000 408.807
25.27000 423.841
25.44000 389.263
25.61000 405.590
25.78000 388.053
25.95000 409.702
26.12000 394.782
26.29000 377.717
26.46000 383.827
26.63000 371.587
26.80000 387.526
26.97000 379.072
27.14000 389.713
27.31000 376.207
27.48000 370.233
27.65000 364.514
27.82000 370.578
27.99000 368.255
28.16000 365.729
28.33000 377.353
28.50000 375.547
28.67000 334.159
28.84000 349.004
29.01000 367.868
29.18000 356.072
29.35000 339.750
29.52000 334.443
29.69000 363.653
29.86000 368.038
30.03000 381.195
30.20000 364.315
30.37000 354.272
30.54000 357.620
30.71000 376.799
30.88000 397.201
31.05000 513.362
31.22000 912.925
31.39000 1243.487
31.56000 800.916
31.73000 476.092
31.90000 362.423
32.07000 342.716
32.24000 338.003
32.41000 333.871
32.58000 312.538
32.75000 304.312
32.92000 321.260
33.09000 305.295
33.26000 299.619
33.43000 273.724
33.60000 282.585
33.77000 313.283
33.94000 297.020
34.11000 318.179
34.28000 361.965
34.45000 347.631
34.62000 321.510
34.79000 306.962
34.96000 279.758
35.13000 272.189
35.30000 265.540
35.47000 266.219
35.64000 266.234
35.81000 269.428
35.98000 274.757
36.15000 271.761
36.32000 256.472
36.49000 250.258
36.66000 254.090
36.83000 276.850
37.00000 278.581
37.17000 284.135
37.34000 269.841
37.51000 263.449
37.68000 253.907
37.85000 256.558
38.02000 255.531
38.19000 267.741
38.36000 341.057
38.53000 714.340
38.70000 1113.979
38.87000 745.562
39.04000 334.508
39.21000 246.827
39.38000 251.727
39.55000 225.887
39.72000 240.897
39.89000 234.224
40.06000 239.491
40.23000 219.215
40.40000 214.142
40.57000 222.493
40.74000 211.573
40.91000 219.390
41.08000 214.416
41.25000 220.726
41.42000 214.870
41.59000 222.722
41.76000 200.501
41.93000 211.768
42.10000 221.253
42.27000 210.786
42.44000 211.120
42.61000 208.356
42.78000 208.185
42.95000 221.633
43.12000 204.934
43.29000 202.202
43.46000 199.323
43.63000 191.388
43.80000 193.200
43.97000 190.268
44.14000 194.696
44.31000 192.748
44.48000 214.707
44.65000 220.975
44.82000 241.832
44.99000 273.581
45.16000 249.208
45.33000 230.247
45.50000 213.791
45.67000 195.410
45.84000 182.493
46.01000 189.300
46.18000 180.093
46.35000 168.763
46.52000 164.398
46.69000 184.408
46.86000 173.268
47.03000 174.434
47.20000 163.871
47.37000 165.677
47.54000 163.503
47.71000 152.380
47.88000 166.943
48.05000 169.763
48.22000 156.793
48.39000 157.522
48.56000 158.856
48.73000 152.602
48.90000 151.426
49.07000 155.632
49.24000 159.584
49.41000 164.429
49.58000 146.717
49.75000 150.866
49.92000 145.689
50.09000 160.378
50.26000 160.578
50.43000 156.992
50.60000 168.922
50.77000 170.678
50.94000 155.119
51.11000 155.178
51.28000 156.008
51.45000 141.411
51.62000 137.879
51.79000 145.457
51.96000 145.241
52.13000 141.023
52.30000 135.240
52.47000 133.461
52.64000 135.697
52.81000 144.757
52.98000 139.364
53.15000 159.484
53.32000 169.809
53.49000 159.070
53.66000 144.741
53.83000 146.203
54.00000 150.929
54.17000 149.054
54.34000 146.051
54.51000 142.772
54.68000 139.978
54.85000 147.030
55.02000 148.217
55.19000 160.283
55.36000 176.736
55.53000 242.544
55.70000 424.083
55.87000 626.154
56.04000 618.548
56.21000 335.460
56.38000 195.971
56.55000 157.461
56.72000 140.057
56.89000 132.106
57.06000 137.380
57.23000 126.848
57.40000 133.030
57.57000 129.801
57.74000 120.807
57.91000 129.203
58.08000 119.405
58.25000 115.635
58.42000 124.103
58.59000 124.132
58.76000 124.461
58.93000 114.231
59.10000 125.104
59.27000 119.277
59.44000 123.924
59.61000 122.308
59.78000 111.238
59.95000 111.631
60.12000 118.692
60.29000 122.079
60.46000 123.287
60.63000 123.155
60.80000 117.934
60.97000 127.169
61.14000 121.185
61.31000 119.223
61.48000 143.286
61.65000 268.629
61.82000 187.416
61.99000 121.006
62.16000 126.400
62.33000 117.833
62.50000 130.765
62.67000 134.318
62.84000 132.046
63.01000 128.904
63.18000 136.927
63.35000 137.443
63.52000 132.887
63.69000 135.539
63.86000 143.107
64.03000 147.504
64.20000 149.415
64.37000 156.354
64.54000 155.140
64.71000 162.874
64.88000 177.874
65.05000 191.839
65.22000 216.230
65.39000 255.947
65.56000 315.069
65.73000 1014.360
65.90000 1855.889
66.07000 451.360
66.24000 379.224
66.41000 599.478
66.58000 394.928
66.75000 327.541
66.92000 360.279
67.09000 354.981
67.26000 381.175
67.43000 401.865
67.60000 423.059
67.77000 450.763
67.94000 452.630
68.11000 507.847
68.28000 555.990
68.45000 609.521
68.62000 857.811
68.79000 1529.967
68.96000 9890.718
69.13000 42017.777
69.30000 21913.605
69.47000 4882.382
69.64000 830.979
69.81000 594.684
69.98000 504.481
70.00000 490.521