File: XRD/XRD/08-10-2025 Dep 7/XY Data/BTO_Mapping_Theta2Theta_08-10-2025_001_32_-29-344_6-237.xy
20.00000 470.472
20.17000 500.923
20.34000 469.294
20.51000 468.719
20.68000 462.904
20.85000 460.538
21.02000 465.406
21.19000 464.522
21.36000 460.907
21.53000 488.401
21.70000 478.656
21.87000 611.622
22.04000 709.032
22.21000 596.637
22.38000 512.207
22.55000 469.769
22.72000 429.700
22.89000 427.221
23.06000 426.667
23.23000 426.481
23.40000 431.975
23.57000 420.742
23.74000 429.588
23.91000 420.955
24.08000 429.187
24.25000 407.172
24.42000 416.261
24.59000 424.688
24.76000 404.836
24.93000 402.178
25.10000 417.144
25.27000 406.126
25.44000 403.343
25.61000 385.108
25.78000 378.898
25.95000 383.020
26.12000 384.907
26.29000 392.062
26.46000 383.492
26.63000 379.584
26.80000 380.441
26.97000 386.714
27.14000 368.452
27.31000 376.553
27.48000 362.193
27.65000 367.511
27.82000 365.965
27.99000 366.417
28.16000 382.945
28.33000 374.932
28.50000 371.572
28.67000 343.579
28.84000 359.264
29.01000 361.845
29.18000 341.461
29.35000 372.404
29.52000 345.528
29.69000 364.391
29.86000 428.571
30.03000 456.591
30.20000 421.110
30.37000 379.849
30.54000 399.021
30.71000 383.813
30.88000 439.966
31.05000 772.983
31.22000 1925.798
31.39000 2758.245
31.56000 1448.712
31.73000 536.424
31.90000 385.623
32.07000 353.565
32.24000 333.286
32.41000 319.690
32.58000 315.160
32.75000 322.087
32.92000 321.655
33.09000 302.974
33.26000 291.384
33.43000 303.164
33.60000 291.456
33.77000 280.450
33.94000 291.365
34.11000 308.940
34.28000 333.232
34.45000 307.695
34.62000 317.982
34.79000 288.937
34.96000 292.271
35.13000 269.520
35.30000 269.640
35.47000 267.125
35.64000 252.838
35.81000 276.278
35.98000 263.264
36.15000 264.068
36.32000 239.888
36.49000 252.410
36.66000 258.334
36.83000 262.488
37.00000 265.715
37.17000 265.750
37.34000 256.637
37.51000 255.523
37.68000 254.373
37.85000 242.979
38.02000 254.234
38.19000 274.477
38.36000 327.575
38.53000 533.044
38.70000 658.279
38.87000 493.515
39.04000 285.126
39.21000 246.984
39.38000 237.405
39.55000 216.362
39.72000 213.127
39.89000 218.227
40.06000 226.925
40.23000 228.354
40.40000 220.020
40.57000 213.586
40.74000 215.232
40.91000 209.912
41.08000 215.011
41.25000 215.474
41.42000 201.864
41.59000 209.895
41.76000 205.561
41.93000 199.816
42.10000 212.267
42.27000 201.957
42.44000 199.995
42.61000 195.486
42.78000 196.562
42.95000 209.418
43.12000 199.293
43.29000 195.462
43.46000 204.571
43.63000 191.220
43.80000 202.412
43.97000 197.967
44.14000 203.740
44.31000 192.055
44.48000 225.181
44.65000 254.906
44.82000 334.012
44.99000 399.579
45.16000 343.007
45.33000 266.554
45.50000 242.192
45.67000 222.208
45.84000 206.830
46.01000 190.143
46.18000 186.962
46.35000 180.295
46.52000 181.449
46.69000 160.668
46.86000 183.212
47.03000 167.912
47.20000 159.664
47.37000 166.050
47.54000 166.778
47.71000 162.608
47.88000 164.986
48.05000 152.093
48.22000 152.879
48.39000 164.196
48.56000 165.912
48.73000 158.460
48.90000 157.936
49.07000 154.404
49.24000 148.493
49.41000 158.909
49.58000 149.365
49.75000 156.393
49.92000 153.416
50.09000 156.565
50.26000 188.456
50.43000 214.314
50.60000 246.525
50.77000 219.464
50.94000 176.662
51.11000 151.677
51.28000 160.387
51.45000 144.084
51.62000 145.092
51.79000 140.746
51.96000 143.566
52.13000 133.848
52.30000 145.752
52.47000 146.709
52.64000 145.626
52.81000 153.827
52.98000 139.900
53.15000 157.778
53.32000 161.360
53.49000 163.131
53.66000 148.241
53.83000 149.907
54.00000 138.872
54.17000 143.017
54.34000 139.957
54.51000 148.852
54.68000 136.531
54.85000 141.176
55.02000 144.376
55.19000 163.995
55.36000 209.491
55.53000 321.618
55.70000 549.978
55.87000 649.914
56.04000 477.555
56.21000 299.988
56.38000 189.238
56.55000 142.816
56.72000 136.222
56.89000 135.445
57.06000 128.513
57.23000 131.946
57.40000 134.101
57.57000 129.154
57.74000 124.885
57.91000 123.261
58.08000 127.007
58.25000 124.970
58.42000 112.359
58.59000 124.620
58.76000 113.917
58.93000 114.748
59.10000 127.348
59.27000 119.100
59.44000 124.620
59.61000 125.020
59.78000 117.276
59.95000 113.032
60.12000 113.343
60.29000 115.633
60.46000 118.070
60.63000 116.939
60.80000 120.818
60.97000 126.343
61.14000 123.945
61.31000 126.719
61.48000 140.710
61.65000 312.787
61.82000 255.958
61.99000 139.876
62.16000 131.673
62.33000 126.191
62.50000 130.510
62.67000 135.307
62.84000 128.742
63.01000 138.088
63.18000 140.532
63.35000 124.268
63.52000 141.398
63.69000 137.748
63.86000 147.470
64.03000 150.292
64.20000 158.699
64.37000 160.488
64.54000 173.268
64.71000 188.272
64.88000 201.638
65.05000 242.386
65.22000 275.582
65.39000 350.530
65.56000 424.206
65.73000 954.527
65.90000 2387.336
66.07000 714.293
66.24000 418.424
66.41000 718.246
66.58000 503.246
66.75000 374.624
66.92000 372.747
67.09000 399.890
67.26000 420.482
67.43000 432.249
67.60000 451.047
67.77000 501.019
67.94000 505.091
68.11000 554.576
68.28000 587.497
68.45000 671.669
68.62000 925.318
68.79000 1746.641
68.96000 6801.460
69.13000 52515.789
69.30000 34043.363
69.47000 11367.413
69.64000 1102.543
69.81000 669.319
69.98000 535.175
70.00000 518.035