File: XRD/XRD/08-10-2025 Dep 7/XY Data/BTO_Mapping_Theta2Theta_08-10-2025_001_41_-32-361_-23-511.xy
20.00000 464.588
20.17000 469.530
20.34000 460.844
20.51000 461.126
20.68000 478.497
20.85000 467.104
21.02000 488.867
21.19000 475.932
21.36000 461.890
21.53000 483.363
21.70000 546.939
21.87000 754.255
22.04000 829.232
22.21000 594.760
22.38000 494.414
22.55000 457.344
22.72000 446.902
22.89000 446.918
23.06000 437.367
23.23000 425.039
23.40000 407.761
23.57000 419.146
23.74000 430.631
23.91000 419.235
24.08000 417.439
24.25000 412.013
24.42000 403.224
24.59000 396.821
24.76000 414.294
24.93000 408.773
25.10000 392.258
25.27000 387.920
25.44000 393.497
25.61000 391.843
25.78000 382.027
25.95000 368.426
26.12000 405.326
26.29000 374.148
26.46000 388.736
26.63000 381.386
26.80000 372.545
26.97000 384.527
27.14000 366.724
27.31000 383.952
27.48000 390.745
27.65000 364.625
27.82000 371.572
27.99000 376.137
28.16000 378.700
28.33000 355.833
28.50000 372.346
28.67000 348.997
28.84000 378.905
29.01000 342.285
29.18000 360.096
29.35000 357.427
29.52000 366.114
29.69000 385.516
29.86000 475.880
30.03000 491.942
30.20000 438.701
30.37000 389.564
30.54000 405.105
30.71000 433.109
30.88000 525.327
31.05000 1191.654
31.22000 3191.613
31.39000 3431.642
31.56000 1483.802
31.73000 594.095
31.90000 371.982
32.07000 333.549
32.24000 344.107
32.41000 337.827
32.58000 333.934
32.75000 304.592
32.92000 334.678
33.09000 315.986
33.26000 298.798
33.43000 305.643
33.60000 286.693
33.77000 296.778
33.94000 292.278
34.11000 290.132
34.28000 283.920
34.45000 282.885
34.62000 280.250
34.79000 267.816
34.96000 274.203
35.13000 265.796
35.30000 258.244
35.47000 278.590
35.64000 269.797
35.81000 271.775
35.98000 255.667
36.15000 254.118
36.32000 263.757
36.49000 264.672
36.66000 265.865
36.83000 253.307
37.00000 262.449
37.17000 255.968
37.34000 235.901
37.51000 256.196
37.68000 249.928
37.85000 249.299
38.02000 249.592
38.19000 267.419
38.36000 314.645
38.53000 443.623
38.70000 458.283
38.87000 333.015
39.04000 267.309
39.21000 221.048
39.38000 243.781
39.55000 245.624
39.72000 222.313
39.89000 217.458
40.06000 219.400
40.23000 229.286
40.40000 231.203
40.57000 225.336
40.74000 203.290
40.91000 213.561
41.08000 225.260
41.25000 208.239
41.42000 213.266
41.59000 202.429
41.76000 220.421
41.93000 201.510
42.10000 189.509
42.27000 211.912
42.44000 203.370
42.61000 201.013
42.78000 220.932
42.95000 216.204
43.12000 201.706
43.29000 204.537
43.46000 210.765
43.63000 194.511
43.80000 197.082
43.97000 208.265
44.14000 206.310
44.31000 212.423
44.48000 268.180
44.65000 376.762
44.82000 491.569
44.99000 474.343
45.16000 364.256
45.33000 264.461
45.50000 251.362
45.67000 215.196
45.84000 197.932
46.01000 191.909
46.18000 180.341
46.35000 184.075
46.52000 170.802
46.69000 169.905
46.86000 186.339
47.03000 173.071
47.20000 167.371
47.37000 167.149
47.54000 167.819
47.71000 167.682
47.88000 159.973
48.05000 169.600
48.22000 160.189
48.39000 160.613
48.56000 161.031
48.73000 155.841
48.90000 156.011
49.07000 158.997
49.24000 159.809
49.41000 149.515
49.58000 162.100
49.75000 166.885
49.92000 154.009
50.09000 171.025
50.26000 196.208
50.43000 255.437
50.60000 274.565
50.77000 224.224
50.94000 178.863
51.11000 157.175
51.28000 159.673
51.45000 148.059
51.62000 150.344
51.79000 140.531
51.96000 138.902
52.13000 145.789
52.30000 136.393
52.47000 145.537
52.64000 137.661
52.81000 150.213
52.98000 155.493
53.15000 151.119
53.32000 152.715
53.49000 153.313
53.66000 139.439
53.83000 136.620
54.00000 138.037
54.17000 152.038
54.34000 140.883
54.51000 145.722
54.68000 148.429
54.85000 145.556
55.02000 148.464
55.19000 169.503
55.36000 244.663
55.53000 436.123
55.70000 607.910
55.87000 584.938
56.04000 435.519
56.21000 267.365
56.38000 183.923
56.55000 157.445
56.72000 138.459
56.89000 141.013
57.06000 123.254
57.23000 131.769
57.40000 128.441
57.57000 121.799
57.74000 122.414
57.91000 128.440
58.08000 137.344
58.25000 130.942
58.42000 126.626
58.59000 137.301
58.76000 112.018
58.93000 114.402
59.10000 116.348
59.27000 109.839
59.44000 118.734
59.61000 115.676
59.78000 113.662
59.95000 114.478
60.12000 113.878
60.29000 113.255
60.46000 124.554
60.63000 119.365
60.80000 116.132
60.97000 107.489
61.14000 119.124
61.31000 127.692
61.48000 129.232
61.65000 358.202
61.82000 291.261
61.99000 144.703
62.16000 135.589
62.33000 141.318
62.50000 126.771
62.67000 137.068
62.84000 139.866
63.01000 133.145
63.18000 134.333
63.35000 129.305
63.52000 138.227
63.69000 152.439
63.86000 145.997
64.03000 152.497
64.20000 149.997
64.37000 170.886
64.54000 176.541
64.71000 200.224
64.88000 220.279
65.05000 287.034
65.22000 373.668
65.39000 434.129
65.56000 484.223
65.73000 1190.493
65.90000 2884.867
66.07000 844.385
66.24000 476.881
66.41000 847.873
66.58000 560.568
66.75000 413.234
66.92000 415.784
67.09000 439.723
67.26000 450.312
67.43000 493.046
67.60000 491.354
67.77000 533.029
67.94000 574.871
68.11000 603.492
68.28000 633.466
68.45000 746.479
68.62000 1046.721
68.79000 2033.797
68.96000 9751.467
69.13000 64386.527
69.30000 41851.230
69.47000 13705.630
69.64000 1244.431
69.81000 749.621
69.98000 553.557
70.00000 531.279