File: XRD/XRD/08-10-2025 Dep 7/XY Data/BTO_Mapping_Theta2Theta_08-10-2025_001_12_20-074_22-294.xy
20.00000 480.811
20.17000 478.021
20.34000 463.784
20.51000 457.281
20.68000 469.767
20.85000 446.531
21.02000 454.499
21.19000 466.554
21.36000 478.851
21.53000 453.227
21.70000 456.953
21.87000 481.196
22.04000 506.565
22.21000 507.839
22.38000 475.957
22.55000 457.550
22.72000 457.249
22.89000 456.270
23.06000 442.873
23.23000 464.905
23.40000 437.653
23.57000 438.804
23.74000 477.822
23.91000 540.750
24.08000 522.975
24.25000 498.897
24.42000 424.236
24.59000 443.429
24.76000 411.398
24.93000 416.987
25.10000 412.804
25.27000 401.711
25.44000 401.696
25.61000 403.532
25.78000 420.444
25.95000 392.908
26.12000 393.934
26.29000 393.144
26.46000 384.057
26.63000 379.390
26.80000 378.336
26.97000 385.418
27.14000 375.817
27.31000 375.326
27.48000 381.866
27.65000 386.575
27.82000 378.694
27.99000 354.144
28.16000 367.775
28.33000 356.347
28.50000 359.464
28.67000 356.236
28.84000 367.356
29.01000 362.993
29.18000 357.900
29.35000 361.946
29.52000 373.304
29.69000 361.555
29.86000 395.348
30.03000 383.949
30.20000 363.856
30.37000 362.559
30.54000 371.962
30.71000 388.221
30.88000 417.653
31.05000 495.322
31.22000 802.898
31.39000 1036.589
31.56000 740.569
31.73000 478.975
31.90000 372.354
32.07000 353.768
32.24000 370.473
32.41000 334.738
32.58000 337.821
32.75000 321.352
32.92000 327.661
33.09000 306.486
33.26000 304.564
33.43000 304.810
33.60000 291.322
33.77000 304.277
33.94000 298.453
34.11000 333.998
34.28000 331.657
34.45000 337.301
34.62000 306.969
34.79000 271.250
34.96000 297.846
35.13000 269.100
35.30000 275.318
35.47000 269.762
35.64000 267.289
35.81000 272.185
35.98000 259.917
36.15000 265.606
36.32000 252.095
36.49000 259.974
36.66000 262.637
36.83000 268.596
37.00000 269.096
37.17000 249.716
37.34000 260.487
37.51000 260.795
37.68000 248.217
37.85000 260.406
38.02000 271.518
38.19000 274.503
38.36000 310.001
38.53000 493.270
38.70000 727.469
38.87000 495.070
39.04000 300.414
39.21000 250.540
39.38000 242.264
39.55000 225.575
39.72000 243.857
39.89000 237.467
40.06000 227.501
40.23000 219.668
40.40000 224.640
40.57000 215.378
40.74000 212.876
40.91000 201.507
41.08000 200.639
41.25000 215.681
41.42000 215.668
41.59000 221.081
41.76000 214.023
41.93000 219.001
42.10000 214.021
42.27000 231.519
42.44000 216.678
42.61000 211.712
42.78000 211.444
42.95000 200.977
43.12000 204.338
43.29000 191.380
43.46000 195.416
43.63000 192.659
43.80000 191.887
43.97000 201.458
44.14000 200.943
44.31000 209.055
44.48000 209.066
44.65000 211.724
44.82000 226.254
44.99000 228.396
45.16000 240.074
45.33000 218.030
45.50000 188.213
45.67000 208.066
45.84000 192.321
46.01000 177.995
46.18000 189.994
46.35000 180.976
46.52000 166.098
46.69000 184.352
46.86000 172.998
47.03000 171.325
47.20000 167.103
47.37000 158.464
47.54000 173.663
47.71000 162.003
47.88000 152.293
48.05000 166.690
48.22000 166.452
48.39000 167.845
48.56000 164.390
48.73000 155.740
48.90000 159.053
49.07000 157.747
49.24000 152.344
49.41000 154.604
49.58000 145.561
49.75000 153.733
49.92000 160.493
50.09000 151.812
50.26000 159.467
50.43000 161.493
50.60000 164.983
50.77000 174.685
50.94000 148.682
51.11000 145.545
51.28000 140.841
51.45000 146.867
51.62000 135.630
51.79000 142.209
51.96000 143.285
52.13000 148.647
52.30000 142.493
52.47000 135.274
52.64000 145.130
52.81000 136.517
52.98000 132.244
53.15000 145.722
53.32000 148.788
53.49000 144.449
53.66000 142.968
53.83000 141.467
54.00000 143.211
54.17000 132.055
54.34000 153.149
54.51000 140.634
54.68000 130.748
54.85000 139.725
55.02000 145.966
55.19000 148.374
55.36000 160.422
55.53000 203.632
55.70000 268.920
55.87000 350.745
56.04000 344.233
56.21000 238.199
56.38000 178.650
56.55000 156.943
56.72000 149.144
56.89000 132.806
57.06000 133.785
57.23000 131.563
57.40000 130.870
57.57000 122.573
57.74000 122.972
57.91000 126.899
58.08000 119.926
58.25000 121.060
58.42000 121.566
58.59000 115.514
58.76000 129.856
58.93000 114.045
59.10000 118.653
59.27000 119.155
59.44000 122.353
59.61000 121.377
59.78000 114.930
59.95000 113.607
60.12000 119.383
60.29000 114.513
60.46000 113.205
60.63000 125.618
60.80000 123.118
60.97000 125.763
61.14000 123.918
61.31000 136.052
61.48000 139.077
61.65000 286.752
61.82000 189.024
61.99000 130.128
62.16000 135.546
62.33000 125.170
62.50000 121.335
62.67000 136.177
62.84000 129.563
63.01000 127.809
63.18000 149.578
63.35000 130.567
63.52000 139.133
63.69000 138.483
63.86000 143.612
64.03000 142.761
64.20000 150.004
64.37000 159.373
64.54000 157.826
64.71000 167.787
64.88000 174.741
65.05000 202.152
65.22000 219.135
65.39000 247.657
65.56000 317.983
65.73000 1053.582
65.90000 1922.400
66.07000 474.952
66.24000 384.090
66.41000 612.621
66.58000 409.592
66.75000 360.775
66.92000 347.155
67.09000 368.023
67.26000 413.807
67.43000 422.445
67.60000 436.361
67.77000 438.436
67.94000 500.989
68.11000 531.470
68.28000 586.464
68.45000 669.202
68.62000 898.463
68.79000 1649.474
68.96000 9943.278
69.13000 44638.648
69.30000 23572.822
69.47000 5510.192
69.64000 914.279
69.81000 622.403
69.98000 492.865
70.00000 490.742