File: XRD/XRD/08-10-2025 Dep 7/XY Data/BTO_Mapping_Theta2Theta_08-10-2025_001_18_-1-045_9-945.xy
20.00000 487.947
20.17000 476.770
20.34000 482.486
20.51000 460.370
20.68000 455.077
20.85000 473.427
21.02000 481.364
21.19000 469.540
21.36000 489.171
21.53000 476.327
21.70000 464.546
21.87000 499.938
22.04000 534.856
22.21000 516.900
22.38000 476.634
22.55000 450.020
22.72000 453.699
22.89000 448.004
23.06000 434.634
23.23000 441.808
23.40000 441.017
23.57000 432.273
23.74000 448.344
23.91000 488.746
24.08000 478.688
24.25000 459.053
24.42000 443.034
24.59000 423.962
24.76000 409.178
24.93000 396.177
25.10000 399.483
25.27000 401.532
25.44000 390.543
25.61000 396.628
25.78000 378.502
25.95000 393.334
26.12000 390.693
26.29000 382.156
26.46000 376.232
26.63000 381.542
26.80000 380.500
26.97000 384.438
27.14000 373.623
27.31000 379.237
27.48000 369.563
27.65000 382.470
27.82000 355.791
27.99000 357.232
28.16000 350.196
28.33000 352.726
28.50000 369.549
28.67000 357.564
28.84000 352.731
29.01000 352.285
29.18000 329.346
29.35000 350.496
29.52000 339.917
29.69000 363.845
29.86000 364.682
30.03000 379.152
30.20000 371.968
30.37000 368.946
30.54000 364.092
30.71000 360.109
30.88000 364.429
31.05000 468.031
31.22000 767.948
31.39000 1123.069
31.56000 800.779
31.73000 457.815
31.90000 358.977
32.07000 349.991
32.24000 348.397
32.41000 334.362
32.58000 312.965
32.75000 327.326
32.92000 325.415
33.09000 300.279
33.26000 296.715
33.43000 306.927
33.60000 303.604
33.77000 285.764
33.94000 306.334
34.11000 330.522
34.28000 345.468
34.45000 359.776
34.62000 329.531
34.79000 284.104
34.96000 279.512
35.13000 272.199
35.30000 266.360
35.47000 260.297
35.64000 260.104
35.81000 263.018
35.98000 256.085
36.15000 252.322
36.32000 263.444
36.49000 246.454
36.66000 255.816
36.83000 263.494
37.00000 274.282
37.17000 287.688
37.34000 252.138
37.51000 257.898
37.68000 238.917
37.85000 252.515
38.02000 264.806
38.19000 252.668
38.36000 331.447
38.53000 631.809
38.70000 1111.437
38.87000 802.699
39.04000 347.334
39.21000 249.469
39.38000 231.969
39.55000 223.824
39.72000 246.209
39.89000 243.967
40.06000 231.094
40.23000 212.729
40.40000 221.401
40.57000 213.501
40.74000 211.668
40.91000 209.567
41.08000 220.008
41.25000 218.373
41.42000 209.684
41.59000 208.581
41.76000 203.258
41.93000 202.043
42.10000 212.478
42.27000 210.669
42.44000 209.742
42.61000 205.785
42.78000 203.045
42.95000 208.110
43.12000 202.345
43.29000 196.187
43.46000 208.124
43.63000 201.494
43.80000 202.655
43.97000 195.332
44.14000 196.906
44.31000 188.080
44.48000 210.432
44.65000 232.199
44.82000 243.780
44.99000 261.738
45.16000 275.757
45.33000 230.399
45.50000 219.237
45.67000 197.884
45.84000 188.262
46.01000 172.095
46.18000 182.877
46.35000 184.132
46.52000 193.151
46.69000 188.974
46.86000 175.744
47.03000 167.030
47.20000 162.197
47.37000 164.686
47.54000 173.713
47.71000 161.163
47.88000 149.933
48.05000 158.818
48.22000 168.806
48.39000 144.178
48.56000 161.951
48.73000 158.562
48.90000 155.048
49.07000 160.943
49.24000 159.837
49.41000 152.401
49.58000 134.902
49.75000 152.417
49.92000 151.236
50.09000 148.891
50.26000 157.491
50.43000 152.044
50.60000 153.383
50.77000 166.281
50.94000 150.273
51.11000 156.567
51.28000 154.382
51.45000 148.719
51.62000 146.392
51.79000 143.374
51.96000 137.988
52.13000 133.356
52.30000 134.158
52.47000 128.267
52.64000 137.348
52.81000 138.307
52.98000 147.823
53.15000 155.331
53.32000 159.218
53.49000 158.810
53.66000 145.018
53.83000 137.148
54.00000 147.212
54.17000 135.043
54.34000 134.641
54.51000 136.271
54.68000 138.396
54.85000 139.293
55.02000 150.688
55.19000 152.893
55.36000 174.958
55.53000 220.601
55.70000 385.083
55.87000 605.526
56.04000 629.828
56.21000 361.303
56.38000 198.894
56.55000 156.733
56.72000 135.500
56.89000 136.069
57.06000 132.662
57.23000 120.033
57.40000 136.520
57.57000 131.014
57.74000 127.521
57.91000 122.455
58.08000 131.913
58.25000 132.199
58.42000 128.438
58.59000 120.920
58.76000 116.291
58.93000 125.167
59.10000 114.130
59.27000 119.938
59.44000 116.125
59.61000 121.471
59.78000 113.901
59.95000 107.099
60.12000 110.670
60.29000 119.701
60.46000 106.433
60.63000 117.286
60.80000 115.756
60.97000 121.694
61.14000 127.831
61.31000 125.374
61.48000 122.313
61.65000 290.965
61.82000 193.815
61.99000 139.063
62.16000 130.649
62.33000 133.399
62.50000 124.134
62.67000 122.500
62.84000 127.924
63.01000 122.741
63.18000 134.582
63.35000 132.578
63.52000 129.682
63.69000 129.902
63.86000 139.202
64.03000 139.361
64.20000 150.232
64.37000 155.172
64.54000 159.703
64.71000 159.426
64.88000 169.467
65.05000 181.381
65.22000 203.883
65.39000 244.740
65.56000 312.428
65.73000 889.378
65.90000 1890.711
66.07000 505.599
66.24000 361.087
66.41000 593.282
66.58000 416.484
66.75000 354.326
66.92000 339.595
67.09000 369.279
67.26000 390.007
67.43000 393.530
67.60000 426.314
67.77000 432.164
67.94000 471.789
68.11000 502.940
68.28000 541.129
68.45000 638.395
68.62000 853.598
68.79000 1566.691
68.96000 7584.057
69.13000 42048.785
69.30000 23761.920
69.47000 6413.021
69.64000 906.880
69.81000 614.012
69.98000 497.732
70.00000 489.421