File: XRD/XRD/08-10-2025 Dep 7/XY Data/BTO_Mapping_Theta2Theta_08-10-2025_001_45_-20-000_-34-641.xy
20.00000 479.095
20.17000 490.467
20.34000 477.069
20.51000 472.653
20.68000 467.648
20.85000 460.771
21.02000 456.472
21.19000 472.276
21.36000 470.718
21.53000 462.294
21.70000 501.081
21.87000 633.350
22.04000 702.947
22.21000 564.784
22.38000 496.419
22.55000 460.715
22.72000 459.347
22.89000 430.949
23.06000 441.421
23.23000 437.542
23.40000 441.314
23.57000 440.821
23.74000 445.434
23.91000 453.596
24.08000 452.718
24.25000 422.690
24.42000 417.920
24.59000 412.814
24.76000 425.668
24.93000 408.476
25.10000 398.322
25.27000 417.525
25.44000 403.156
25.61000 374.779
25.78000 385.320
25.95000 399.873
26.12000 387.111
26.29000 389.624
26.46000 383.408
26.63000 378.843
26.80000 389.685
26.97000 386.605
27.14000 363.821
27.31000 384.839
27.48000 363.375
27.65000 366.576
27.82000 375.693
27.99000 377.350
28.16000 380.211
28.33000 369.255
28.50000 360.880
28.67000 368.998
28.84000 369.240
29.01000 353.913
29.18000 349.235
29.35000 362.281
29.52000 365.324
29.69000 380.094
29.86000 415.374
30.03000 445.059
30.20000 395.191
30.37000 400.620
30.54000 392.936
30.71000 392.696
30.88000 481.790
31.05000 916.259
31.22000 2150.315
31.39000 2580.704
31.56000 1190.296
31.73000 496.435
31.90000 363.695
32.07000 351.682
32.24000 336.989
32.41000 339.867
32.58000 326.761
32.75000 307.414
32.92000 343.543
33.09000 308.611
33.26000 299.513
33.43000 291.747
33.60000 296.506
33.77000 285.598
33.94000 297.679
34.11000 295.207
34.28000 316.335
34.45000 313.658
34.62000 315.853
34.79000 290.066
34.96000 274.143
35.13000 266.004
35.30000 268.625
35.47000 256.624
35.64000 263.498
35.81000 246.883
35.98000 256.255
36.15000 247.210
36.32000 275.956
36.49000 259.233
36.66000 255.090
36.83000 254.242
37.00000 257.613
37.17000 254.991
37.34000 259.195
37.51000 244.224
37.68000 250.693
37.85000 262.255
38.02000 260.515
38.19000 268.731
38.36000 360.022
38.53000 563.500
38.70000 691.643
38.87000 455.944
39.04000 284.723
39.21000 245.950
39.38000 223.990
39.55000 229.658
39.72000 224.432
39.89000 234.286
40.06000 221.182
40.23000 227.103
40.40000 217.634
40.57000 224.314
40.74000 209.780
40.91000 206.247
41.08000 217.631
41.25000 204.039
41.42000 201.605
41.59000 206.650
41.76000 210.391
41.93000 208.953
42.10000 204.032
42.27000 210.457
42.44000 204.265
42.61000 189.291
42.78000 201.172
42.95000 200.478
43.12000 204.879
43.29000 201.676
43.46000 199.986
43.63000 186.798
43.80000 198.884
43.97000 199.562
44.14000 198.418
44.31000 214.390
44.48000 239.122
44.65000 277.139
44.82000 392.884
44.99000 396.462
45.16000 329.861
45.33000 264.790
45.50000 213.836
45.67000 208.541
45.84000 189.648
46.01000 185.711
46.18000 183.017
46.35000 171.251
46.52000 173.427
46.69000 165.972
46.86000 165.328
47.03000 176.576
47.20000 165.376
47.37000 176.257
47.54000 150.436
47.71000 158.549
47.88000 164.628
48.05000 163.034
48.22000 168.067
48.39000 162.323
48.56000 163.806
48.73000 160.604
48.90000 157.839
49.07000 150.563
49.24000 155.092
49.41000 158.862
49.58000 151.354
49.75000 153.301
49.92000 163.162
50.09000 167.765
50.26000 191.376
50.43000 227.124
50.60000 245.564
50.77000 216.284
50.94000 180.934
51.11000 163.588
51.28000 161.016
51.45000 155.647
51.62000 143.636
51.79000 137.315
51.96000 154.033
52.13000 140.729
52.30000 138.933
52.47000 142.128
52.64000 136.857
52.81000 139.133
52.98000 146.737
53.15000 150.148
53.32000 160.494
53.49000 153.051
53.66000 150.521
53.83000 151.010
54.00000 149.419
54.17000 142.463
54.34000 138.559
54.51000 144.876
54.68000 140.167
54.85000 146.974
55.02000 162.411
55.19000 168.338
55.36000 245.255
55.53000 396.584
55.70000 590.239
55.87000 665.557
56.04000 486.999
56.21000 290.054
56.38000 189.284
56.55000 154.109
56.72000 141.278
56.89000 133.386
57.06000 115.567
57.23000 133.079
57.40000 129.595
57.57000 121.505
57.74000 123.988
57.91000 123.882
58.08000 133.249
58.25000 124.003
58.42000 127.008
58.59000 120.727
58.76000 120.661
58.93000 114.183
59.10000 126.711
59.27000 112.461
59.44000 122.723
59.61000 123.285
59.78000 121.864
59.95000 124.357
60.12000 127.260
60.29000 123.404
60.46000 110.840
60.63000 123.282
60.80000 121.521
60.97000 117.579
61.14000 125.865
61.31000 115.255
61.48000 125.389
61.65000 327.228
61.82000 236.944
61.99000 141.175
62.16000 127.006
62.33000 135.664
62.50000 125.022
62.67000 134.571
62.84000 131.665
63.01000 133.558
63.18000 130.515
63.35000 125.954
63.52000 146.048
63.69000 136.913
63.86000 146.876
64.03000 145.147
64.20000 151.015
64.37000 164.380
64.54000 168.348
64.71000 167.183
64.88000 202.857
65.05000 244.011
65.22000 287.294
65.39000 356.671
65.56000 414.294
65.73000 1093.754
65.90000 2366.782
66.07000 624.836
66.24000 419.425
66.41000 711.703
66.58000 487.551
66.75000 371.338
66.92000 376.804
67.09000 388.714
67.26000 407.677
67.43000 430.261
67.60000 464.743
67.77000 475.331
67.94000 514.286
68.11000 551.727
68.28000 592.109
68.45000 705.144
68.62000 900.044
68.79000 1787.357
68.96000 8952.081
69.13000 53416.375
69.30000 31556.664
69.47000 9265.757
69.64000 1055.889
69.81000 676.796
69.98000 534.185
70.00000 538.132