File: XRD/XRD/08-10-2025 Dep 7/XY Data/BTO_Mapping_Theta2Theta_08-10-2025_001_29_-32-361_23-511.xy
20.00000 479.872
20.17000 472.069
20.34000 465.590
20.51000 479.251
20.68000 483.399
20.85000 473.965
21.02000 468.911
21.19000 468.594
21.36000 477.506
21.53000 452.504
21.70000 458.426
21.87000 515.146
22.04000 584.511
22.21000 556.263
22.38000 497.300
22.55000 458.967
22.72000 436.573
22.89000 436.957
23.06000 433.590
23.23000 416.137
23.40000 426.345
23.57000 422.635
23.74000 429.452
23.91000 443.457
24.08000 447.357
24.25000 425.880
24.42000 410.946
24.59000 407.348
24.76000 400.150
24.93000 405.414
25.10000 414.828
25.27000 408.158
25.44000 405.415
25.61000 398.929
25.78000 379.773
25.95000 395.651
26.12000 385.482
26.29000 382.314
26.46000 370.655
26.63000 382.715
26.80000 365.534
26.97000 374.534
27.14000 388.636
27.31000 369.785
27.48000 391.089
27.65000 384.723
27.82000 377.773
27.99000 366.233
28.16000 357.494
28.33000 355.993
28.50000 355.657
28.67000 346.785
28.84000 347.299
29.01000 348.675
29.18000 361.413
29.35000 347.851
29.52000 353.013
29.69000 356.423
29.86000 397.072
30.03000 408.598
30.20000 398.155
30.37000 378.310
30.54000 379.073
30.71000 365.507
30.88000 414.524
31.05000 561.555
31.22000 1320.989
31.39000 2052.933
31.56000 1254.327
31.73000 495.388
31.90000 376.390
32.07000 341.980
32.24000 317.136
32.41000 321.847
32.58000 323.260
32.75000 317.137
32.92000 327.979
33.09000 299.828
33.26000 313.309
33.43000 301.232
33.60000 301.804
33.77000 293.552
33.94000 311.822
34.11000 306.678
34.28000 323.001
34.45000 328.942
34.62000 327.712
34.79000 292.242
34.96000 284.444
35.13000 278.588
35.30000 251.807
35.47000 274.186
35.64000 264.828
35.81000 264.015
35.98000 255.806
36.15000 256.600
36.32000 243.751
36.49000 269.731
36.66000 260.014
36.83000 251.991
37.00000 266.387
37.17000 271.786
37.34000 256.284
37.51000 243.330
37.68000 248.393
37.85000 243.916
38.02000 270.158
38.19000 264.222
38.36000 316.450
38.53000 593.899
38.70000 912.520
38.87000 707.916
39.04000 343.229
39.21000 232.925
39.38000 227.503
39.55000 242.479
39.72000 214.853
39.89000 231.834
40.06000 218.662
40.23000 214.124
40.40000 212.098
40.57000 219.222
40.74000 211.925
40.91000 203.577
41.08000 211.181
41.25000 207.956
41.42000 206.290
41.59000 197.083
41.76000 201.316
41.93000 199.736
42.10000 205.120
42.27000 202.441
42.44000 194.565
42.61000 201.872
42.78000 200.040
42.95000 207.300
43.12000 199.559
43.29000 185.217
43.46000 197.751
43.63000 189.981
43.80000 181.140
43.97000 192.768
44.14000 193.467
44.31000 189.471
44.48000 202.595
44.65000 222.386
44.82000 266.126
44.99000 311.321
45.16000 280.499
45.33000 257.134
45.50000 238.222
45.67000 206.801
45.84000 217.901
46.01000 186.241
46.18000 182.917
46.35000 184.397
46.52000 176.289
46.69000 180.199
46.86000 175.160
47.03000 166.270
47.20000 168.570
47.37000 165.752
47.54000 169.375
47.71000 161.542
47.88000 149.370
48.05000 156.430
48.22000 165.671
48.39000 149.116
48.56000 165.471
48.73000 154.958
48.90000 159.882
49.07000 151.900
49.24000 153.038
49.41000 144.899
49.58000 145.991
49.75000 145.754
49.92000 160.196
50.09000 165.272
50.26000 164.251
50.43000 184.317
50.60000 212.124
50.77000 201.605
50.94000 173.407
51.11000 160.211
51.28000 149.539
51.45000 150.294
51.62000 151.043
51.79000 136.811
51.96000 147.288
52.13000 146.573
52.30000 130.602
52.47000 133.609
52.64000 142.959
52.81000 131.409
52.98000 139.686
53.15000 151.179
53.32000 160.405
53.49000 164.304
53.66000 154.199
53.83000 139.363
54.00000 142.607
54.17000 135.596
54.34000 141.649
54.51000 152.241
54.68000 142.476
54.85000 140.066
55.02000 148.565
55.19000 165.196
55.36000 178.876
55.53000 266.158
55.70000 497.358
55.87000 672.880
56.04000 578.304
56.21000 352.941
56.38000 199.966
56.55000 160.331
56.72000 146.147
56.89000 133.456
57.06000 124.644
57.23000 135.211
57.40000 122.988
57.57000 126.642
57.74000 121.483
57.91000 123.345
58.08000 128.732
58.25000 126.114
58.42000 121.634
58.59000 122.267
58.76000 109.096
58.93000 128.140
59.10000 116.677
59.27000 120.290
59.44000 112.503
59.61000 124.732
59.78000 120.522
59.95000 114.745
60.12000 123.582
60.29000 109.900
60.46000 112.312
60.63000 115.381
60.80000 121.761
60.97000 114.112
61.14000 119.639
61.31000 127.980
61.48000 124.835
61.65000 269.249
61.82000 249.621
61.99000 131.495
62.16000 127.607
62.33000 129.488
62.50000 132.950
62.67000 124.815
62.84000 131.448
63.01000 127.396
63.18000 126.477
63.35000 145.235
63.52000 124.573
63.69000 136.471
63.86000 139.037
64.03000 145.043
64.20000 139.186
64.37000 150.233
64.54000 155.207
64.71000 162.105
64.88000 176.052
65.05000 213.418
65.22000 236.420
65.39000 309.034
65.56000 364.521
65.73000 844.333
65.90000 2211.830
66.07000 663.126
66.24000 381.749
66.41000 668.171
66.58000 472.244
66.75000 364.945
66.92000 369.890
67.09000 390.693
67.26000 403.618
67.43000 419.737
67.60000 424.934
67.77000 457.397
67.94000 493.844
68.11000 538.228
68.28000 568.061
68.45000 646.308
68.62000 832.714
68.79000 1600.477
68.96000 5456.232
69.13000 47840.582
69.30000 32063.943
69.47000 11237.902
69.64000 1096.123
69.81000 676.403
69.98000 517.573
70.00000 510.277