File: XRD/XRD/08-10-2025 Dep 7/XY Data/BTO_Mapping_Theta2Theta_08-10-2025_001_33_-39-126_8-316.xy
20.00000 481.063
20.17000 460.736
20.34000 468.859
20.51000 470.101
20.68000 478.126
20.85000 470.153
21.02000 465.901
21.19000 468.501
21.36000 478.317
21.53000 470.143
21.70000 515.959
21.87000 658.626
22.04000 821.674
22.21000 633.166
22.38000 495.702
22.55000 476.237
22.72000 448.341
22.89000 449.578
23.06000 451.588
23.23000 436.953
23.40000 424.236
23.57000 424.703
23.74000 426.387
23.91000 405.486
24.08000 412.946
24.25000 419.782
24.42000 417.086
24.59000 416.955
24.76000 402.812
24.93000 399.976
25.10000 405.344
25.27000 400.522
25.44000 388.270
25.61000 406.838
25.78000 389.016
25.95000 392.070
26.12000 405.394
26.29000 378.772
26.46000 374.941
26.63000 386.613
26.80000 383.075
26.97000 388.526
27.14000 400.227
27.31000 368.355
27.48000 368.767
27.65000 371.813
27.82000 361.137
27.99000 371.773
28.16000 374.692
28.33000 372.129
28.50000 363.204
28.67000 359.632
28.84000 362.719
29.01000 375.841
29.18000 342.132
29.35000 350.893
29.52000 361.928
29.69000 371.338
29.86000 412.587
30.03000 466.165
30.20000 443.520
30.37000 372.544
30.54000 407.825
30.71000 398.490
30.88000 463.254
31.05000 831.000
31.22000 2261.614
31.39000 3201.098
31.56000 1692.564
31.73000 617.457
31.90000 396.413
32.07000 353.392
32.24000 338.273
32.41000 340.604
32.58000 325.764
32.75000 313.963
32.92000 320.285
33.09000 314.085
33.26000 302.941
33.43000 297.388
33.60000 289.466
33.77000 287.166
33.94000 287.416
34.11000 279.609
34.28000 278.046
34.45000 303.507
34.62000 269.382
34.79000 280.699
34.96000 272.157
35.13000 285.055
35.30000 273.166
35.47000 252.444
35.64000 268.080
35.81000 254.658
35.98000 269.582
36.15000 266.428
36.32000 262.322
36.49000 260.378
36.66000 261.001
36.83000 253.430
37.00000 258.053
37.17000 266.498
37.34000 252.149
37.51000 236.642
37.68000 259.388
37.85000 257.163
38.02000 249.481
38.19000 262.864
38.36000 313.968
38.53000 439.435
38.70000 510.455
38.87000 395.969
39.04000 278.471
39.21000 233.449
39.38000 230.522
39.55000 229.673
39.72000 235.264
39.89000 235.800
40.06000 234.682
40.23000 214.270
40.40000 214.396
40.57000 216.079
40.74000 229.169
40.91000 204.568
41.08000 213.397
41.25000 209.655
41.42000 214.448
41.59000 209.479
41.76000 208.911
41.93000 216.470
42.10000 203.529
42.27000 208.300
42.44000 195.708
42.61000 195.629
42.78000 198.236
42.95000 217.511
43.12000 221.301
43.29000 200.287
43.46000 197.704
43.63000 193.990
43.80000 190.737
43.97000 196.712
44.14000 198.573
44.31000 199.774
44.48000 223.393
44.65000 298.321
44.82000 434.565
44.99000 480.323
45.16000 392.650
45.33000 291.701
45.50000 250.063
45.67000 219.362
45.84000 202.511
46.01000 187.914
46.18000 181.695
46.35000 175.109
46.52000 183.290
46.69000 178.292
46.86000 176.828
47.03000 176.853
47.20000 171.404
47.37000 173.138
47.54000 164.388
47.71000 163.464
47.88000 163.589
48.05000 159.817
48.22000 159.528
48.39000 175.160
48.56000 157.279
48.73000 148.719
48.90000 150.876
49.07000 150.196
49.24000 146.767
49.41000 162.372
49.58000 146.408
49.75000 143.416
49.92000 156.095
50.09000 160.892
50.26000 187.409
50.43000 233.487
50.60000 258.624
50.77000 233.961
50.94000 183.891
51.11000 161.377
51.28000 162.390
51.45000 141.042
51.62000 139.108
51.79000 144.656
51.96000 145.321
52.13000 138.488
52.30000 138.953
52.47000 152.244
52.64000 137.481
52.81000 143.823
52.98000 147.453
53.15000 152.710
53.32000 157.084
53.49000 141.400
53.66000 137.751
53.83000 137.494
54.00000 136.927
54.17000 150.906
54.34000 137.849
54.51000 137.335
54.68000 144.335
54.85000 141.771
55.02000 147.261
55.19000 159.195
55.36000 208.003
55.53000 333.414
55.70000 505.096
55.87000 593.362
56.04000 467.448
56.21000 296.741
56.38000 197.340
56.55000 157.291
56.72000 146.049
56.89000 138.958
57.06000 127.337
57.23000 133.934
57.40000 132.027
57.57000 127.183
57.74000 118.798
57.91000 121.811
58.08000 121.078
58.25000 129.788
58.42000 148.360
58.59000 123.804
58.76000 120.350
58.93000 107.400
59.10000 117.418
59.27000 124.409
59.44000 110.875
59.61000 114.892
59.78000 107.720
59.95000 120.860
60.12000 116.701
60.29000 113.616
60.46000 112.697
60.63000 115.731
60.80000 125.506
60.97000 120.018
61.14000 114.423
61.31000 121.215
61.48000 119.986
61.65000 323.450
61.82000 285.226
61.99000 141.812
62.16000 126.129
62.33000 134.605
62.50000 125.538
62.67000 137.461
62.84000 122.393
63.01000 138.180
63.18000 124.600
63.35000 124.986
63.52000 130.586
63.69000 144.360
63.86000 142.926
64.03000 147.347
64.20000 149.125
64.37000 167.135
64.54000 182.975
64.71000 181.252
64.88000 196.688
65.05000 257.349
65.22000 307.959
65.39000 381.483
65.56000 474.871
65.73000 1005.670
65.90000 2626.779
66.07000 866.553
66.24000 431.314
66.41000 776.874
66.58000 562.987
66.75000 409.008
66.92000 400.287
67.09000 415.585
67.26000 455.581
67.43000 469.930
67.60000 487.251
67.77000 524.835
67.94000 523.483
68.11000 590.640
68.28000 633.161
68.45000 710.762
68.62000 978.495
68.79000 1902.567
68.96000 7339.679
69.13000 58496.055
69.30000 41080.617
69.47000 14406.357
69.64000 1248.678
69.81000 721.168
69.98000 566.016
70.00000 547.335