File: XRD/XRD/08-10-2025 Dep 7/XY Data/BTO_Mapping_Theta2Theta_08-10-2025_001_06_9-135_4-067.xy
20.00000 477.055
20.17000 487.998
20.34000 466.207
20.51000 474.191
20.68000 457.483
20.85000 455.286
21.02000 454.380
21.19000 473.328
21.36000 467.728
21.53000 448.021
21.70000 469.408
21.87000 479.164
22.04000 522.233
22.21000 503.763
22.38000 472.694
22.55000 451.542
22.72000 430.824
22.89000 454.444
23.06000 434.392
23.23000 429.830
23.40000 459.918
23.57000 437.540
23.74000 467.576
23.91000 521.334
24.08000 511.177
24.25000 484.515
24.42000 441.844
24.59000 414.154
24.76000 421.942
24.93000 408.546
25.10000 405.787
25.27000 426.383
25.44000 416.733
25.61000 408.142
25.78000 375.500
25.95000 376.517
26.12000 396.973
26.29000 389.405
26.46000 379.936
26.63000 384.596
26.80000 380.470
26.97000 383.618
27.14000 362.785
27.31000 372.659
27.48000 376.984
27.65000 357.060
27.82000 385.115
27.99000 377.549
28.16000 354.036
28.33000 359.122
28.50000 370.864
28.67000 358.696
28.84000 354.312
29.01000 357.611
29.18000 333.222
29.35000 349.418
29.52000 344.164
29.69000 354.066
29.86000 367.323
30.03000 399.504
30.20000 379.431
30.37000 359.554
30.54000 361.070
30.71000 383.025
30.88000 419.694
31.05000 517.281
31.22000 876.842
31.39000 1237.557
31.56000 838.401
31.73000 443.487
31.90000 374.370
32.07000 350.371
32.24000 347.402
32.41000 328.453
32.58000 340.192
32.75000 317.304
32.92000 324.190
33.09000 299.279
33.26000 293.912
33.43000 295.611
33.60000 293.298
33.77000 307.623
33.94000 319.230
34.11000 317.064
34.28000 341.601
34.45000 349.527
34.62000 303.047
34.79000 310.348
34.96000 272.729
35.13000 274.641
35.30000 260.783
35.47000 267.706
35.64000 265.965
35.81000 257.610
35.98000 262.553
36.15000 270.554
36.32000 261.341
36.49000 252.541
36.66000 248.230
36.83000 261.693
37.00000 260.106
37.17000 278.093
37.34000 253.666
37.51000 258.281
37.68000 262.020
37.85000 262.697
38.02000 266.402
38.19000 247.724
38.36000 323.102
38.53000 610.247
38.70000 992.351
38.87000 698.816
39.04000 307.829
39.21000 252.453
39.38000 227.466
39.55000 246.904
39.72000 240.895
39.89000 231.760
40.06000 228.518
40.23000 225.047
40.40000 219.139
40.57000 219.592
40.74000 218.337
40.91000 218.004
41.08000 213.095
41.25000 210.946
41.42000 198.617
41.59000 207.617
41.76000 215.864
41.93000 214.497
42.10000 206.770
42.27000 213.248
42.44000 213.480
42.61000 214.341
42.78000 219.617
42.95000 209.585
43.12000 205.153
43.29000 203.846
43.46000 196.459
43.63000 200.968
43.80000 200.729
43.97000 191.352
44.14000 196.395
44.31000 187.284
44.48000 205.674
44.65000 227.141
44.82000 224.892
44.99000 238.581
45.16000 230.949
45.33000 214.162
45.50000 200.870
45.67000 199.048
45.84000 187.519
46.01000 179.382
46.18000 178.679
46.35000 180.761
46.52000 181.631
46.69000 182.395
46.86000 167.312
47.03000 171.766
47.20000 166.872
47.37000 169.423
47.54000 161.927
47.71000 165.403
47.88000 153.645
48.05000 167.194
48.22000 142.684
48.39000 155.224
48.56000 163.076
48.73000 151.047
48.90000 152.750
49.07000 158.668
49.24000 158.702
49.41000 147.494
49.58000 156.002
49.75000 161.075
49.92000 163.375
50.09000 145.873
50.26000 151.131
50.43000 163.317
50.60000 162.753
50.77000 154.499
50.94000 157.592
51.11000 154.703
51.28000 148.346
51.45000 145.653
51.62000 150.560
51.79000 138.967
51.96000 140.862
52.13000 138.597
52.30000 135.451
52.47000 138.854
52.64000 147.069
52.81000 142.896
52.98000 138.351
53.15000 149.738
53.32000 148.302
53.49000 156.868
53.66000 150.896
53.83000 144.670
54.00000 140.338
54.17000 139.891
54.34000 135.422
54.51000 137.871
54.68000 138.550
54.85000 144.476
55.02000 146.634
55.19000 149.584
55.36000 167.143
55.53000 214.247
55.70000 340.999
55.87000 517.326
56.04000 529.934
56.21000 312.614
56.38000 200.678
56.55000 164.135
56.72000 146.087
56.89000 131.155
57.06000 137.239
57.23000 128.839
57.40000 127.949
57.57000 133.257
57.74000 127.037
57.91000 120.080
58.08000 123.437
58.25000 124.403
58.42000 126.101
58.59000 124.480
58.76000 124.305
58.93000 116.198
59.10000 117.821
59.27000 114.078
59.44000 114.591
59.61000 124.988
59.78000 117.087
59.95000 128.296
60.12000 116.410
60.29000 121.918
60.46000 115.419
60.63000 111.957
60.80000 113.957
60.97000 117.532
61.14000 124.596
61.31000 134.659
61.48000 134.145
61.65000 260.775
61.82000 212.825
61.99000 139.553
62.16000 129.954
62.33000 122.869
62.50000 126.538
62.67000 129.535
62.84000 131.832
63.01000 125.243
63.18000 136.026
63.35000 130.636
63.52000 123.724
63.69000 139.572
63.86000 137.807
64.03000 141.201
64.20000 142.289
64.37000 154.100
64.54000 149.659
64.71000 158.211
64.88000 171.396
65.05000 185.025
65.22000 216.614
65.39000 255.046
65.56000 315.423
65.73000 990.247
65.90000 1878.511
66.07000 460.192
66.24000 359.539
66.41000 598.830
66.58000 411.197
66.75000 346.951
66.92000 343.672
67.09000 367.426
67.26000 391.753
67.43000 397.727
67.60000 423.570
67.77000 436.679
67.94000 491.274
68.11000 500.158
68.28000 551.461
68.45000 636.256
68.62000 855.789
68.79000 1533.776
68.96000 8625.729
69.13000 42292.313
69.30000 22917.500
69.47000 5682.081
69.64000 891.741
69.81000 607.791
69.98000 512.598
70.00000 507.193