File: XRD/XRD/08-10-2025 Dep 7/XY Data/BTO_Mapping_Theta2Theta_08-10-2025_001_54_6-691_-7-431.xy
20.00000 472.277
20.17000 475.185
20.34000 466.189
20.51000 474.018
20.68000 473.403
20.85000 467.588
21.02000 475.921
21.19000 463.569
21.36000 459.995
21.53000 479.276
21.70000 473.691
21.87000 499.753
22.04000 541.000
22.21000 523.786
22.38000 469.324
22.55000 462.104
22.72000 430.309
22.89000 433.569
23.06000 443.746
23.23000 451.914
23.40000 437.096
23.57000 440.223
23.74000 464.736
23.91000 517.468
24.08000 496.622
24.25000 440.218
24.42000 426.887
24.59000 433.017
24.76000 400.743
24.93000 403.708
25.10000 396.144
25.27000 396.822
25.44000 389.785
25.61000 417.867
25.78000 405.100
25.95000 407.848
26.12000 398.377
26.29000 394.778
26.46000 385.843
26.63000 386.059
26.80000 370.831
26.97000 362.792
27.14000 394.844
27.31000 381.417
27.48000 378.192
27.65000 363.430
27.82000 385.037
27.99000 357.840
28.16000 358.321
28.33000 375.443
28.50000 375.048
28.67000 368.017
28.84000 344.880
29.01000 368.982
29.18000 336.796
29.35000 336.367
29.52000 346.580
29.69000 364.649
29.86000 372.880
30.03000 365.558
30.20000 385.089
30.37000 360.518
30.54000 346.519
30.71000 372.995
30.88000 386.254
31.05000 505.526
31.22000 867.376
31.39000 1214.977
31.56000 811.197
31.73000 454.178
31.90000 366.174
32.07000 316.207
32.24000 347.244
32.41000 331.184
32.58000 325.892
32.75000 327.075
32.92000 328.980
33.09000 309.120
33.26000 291.093
33.43000 301.480
33.60000 276.727
33.77000 313.205
33.94000 321.267
34.11000 329.520
34.28000 358.237
34.45000 363.470
34.62000 334.690
34.79000 307.575
34.96000 285.587
35.13000 268.564
35.30000 279.584
35.47000 275.822
35.64000 265.405
35.81000 265.246
35.98000 267.198
36.15000 271.434
36.32000 268.712
36.49000 261.434
36.66000 263.876
36.83000 264.837
37.00000 277.428
37.17000 260.617
37.34000 269.176
37.51000 253.743
37.68000 257.762
37.85000 250.692
38.02000 243.120
38.19000 273.462
38.36000 329.908
38.53000 663.372
38.70000 1118.657
38.87000 785.666
39.04000 342.057
39.21000 244.321
39.38000 245.040
39.55000 246.362
39.72000 239.182
39.89000 239.239
40.06000 229.446
40.23000 223.973
40.40000 224.733
40.57000 219.495
40.74000 215.051
40.91000 209.881
41.08000 208.691
41.25000 209.763
41.42000 218.863
41.59000 209.256
41.76000 210.144
41.93000 218.810
42.10000 221.687
42.27000 219.377
42.44000 197.457
42.61000 208.825
42.78000 198.584
42.95000 213.887
43.12000 198.119
43.29000 196.462
43.46000 200.547
43.63000 193.104
43.80000 189.997
43.97000 193.288
44.14000 182.663
44.31000 211.488
44.48000 204.696
44.65000 224.045
44.82000 241.248
44.99000 258.967
45.16000 251.425
45.33000 227.562
45.50000 203.231
45.67000 204.577
45.84000 195.314
46.01000 188.042
46.18000 179.122
46.35000 172.910
46.52000 185.640
46.69000 168.784
46.86000 180.798
47.03000 178.478
47.20000 171.543
47.37000 158.287
47.54000 170.383
47.71000 168.467
47.88000 153.838
48.05000 156.064
48.22000 158.186
48.39000 160.148
48.56000 161.354
48.73000 154.464
48.90000 167.474
49.07000 147.859
49.24000 159.725
49.41000 161.252
49.58000 157.481
49.75000 147.510
49.92000 150.315
50.09000 152.636
50.26000 151.214
50.43000 154.983
50.60000 154.247
50.77000 162.127
50.94000 161.929
51.11000 151.780
51.28000 138.827
51.45000 148.331
51.62000 149.408
51.79000 142.520
51.96000 137.372
52.13000 143.568
52.30000 136.509
52.47000 136.835
52.64000 132.127
52.81000 135.774
52.98000 128.648
53.15000 147.515
53.32000 159.020
53.49000 160.947
53.66000 154.689
53.83000 137.527
54.00000 140.729
54.17000 139.527
54.34000 153.010
54.51000 136.731
54.68000 137.437
54.85000 147.402
55.02000 152.527
55.19000 155.934
55.36000 175.232
55.53000 231.898
55.70000 390.379
55.87000 621.789
56.04000 583.193
56.21000 351.208
56.38000 200.408
56.55000 158.926
56.72000 137.417
56.89000 121.734
57.06000 129.659
57.23000 133.686
57.40000 135.899
57.57000 125.653
57.74000 138.132
57.91000 125.434
58.08000 118.326
58.25000 116.748
58.42000 112.710
58.59000 120.493
58.76000 110.883
58.93000 124.310
59.10000 111.143
59.27000 129.445
59.44000 116.273
59.61000 126.027
59.78000 124.375
59.95000 122.313
60.12000 119.157
60.29000 108.146
60.46000 122.625
60.63000 131.127
60.80000 122.494
60.97000 125.147
61.14000 120.271
61.31000 125.059
61.48000 134.592
61.65000 280.994
61.82000 195.170
61.99000 130.069
62.16000 126.758
62.33000 130.341
62.50000 120.792
62.67000 130.365
62.84000 129.735
63.01000 124.010
63.18000 116.073
63.35000 138.969
63.52000 129.191
63.69000 138.161
63.86000 141.446
64.03000 142.721
64.20000 141.898
64.37000 158.909
64.54000 165.255
64.71000 164.448
64.88000 186.280
65.05000 191.141
65.22000 209.871
65.39000 243.275
65.56000 324.661
65.73000 968.673
65.90000 1852.508
66.07000 492.177
66.24000 382.082
66.41000 598.093
66.58000 384.470
66.75000 339.867
66.92000 353.339
67.09000 357.835
67.26000 368.382
67.43000 377.528
67.60000 433.357
67.77000 464.289
67.94000 466.031
68.11000 501.093
68.28000 563.902
68.45000 606.470
68.62000 847.033
68.79000 1548.603
68.96000 8715.184
69.13000 42155.473
69.30000 22551.203
69.47000 5536.473
69.64000 853.436
69.81000 600.434
69.98000 504.482
70.00000 505.832