File: XRD/XRD/08-10-2025 Dep 7/XY Data/BTO_Mapping_Theta2Theta_08-10-2025_001_02_10-000_0-000.xy
20.00000 480.218
20.17000 468.694
20.34000 477.267
20.51000 462.305
20.68000 463.519
20.85000 450.741
21.02000 459.006
21.19000 469.271
21.36000 472.428
21.53000 448.858
21.70000 472.692
21.87000 489.452
22.04000 509.455
22.21000 501.831
22.38000 497.034
22.55000 445.822
22.72000 447.062
22.89000 446.199
23.06000 445.539
23.23000 446.926
23.40000 453.688
23.57000 456.557
23.74000 472.385
23.91000 527.161
24.08000 550.676
24.25000 466.541
24.42000 443.002
24.59000 413.720
24.76000 427.171
24.93000 413.471
25.10000 409.973
25.27000 404.403
25.44000 381.429
25.61000 394.711
25.78000 399.309
25.95000 388.140
26.12000 382.306
26.29000 388.720
26.46000 390.916
26.63000 375.653
26.80000 387.058
26.97000 387.527
27.14000 373.137
27.31000 377.018
27.48000 390.662
27.65000 369.722
27.82000 361.800
27.99000 374.567
28.16000 360.549
28.33000 360.248
28.50000 355.190
28.67000 359.386
28.84000 349.088
29.01000 371.099
29.18000 332.151
29.35000 355.446
29.52000 360.819
29.69000 364.725
29.86000 380.941
30.03000 382.129
30.20000 377.004
30.37000 364.215
30.54000 368.754
30.71000 367.919
30.88000 405.771
31.05000 515.939
31.22000 900.140
31.39000 1244.052
31.56000 831.187
31.73000 502.269
31.90000 386.630
32.07000 353.962
32.24000 341.298
32.41000 329.515
32.58000 325.406
32.75000 315.427
32.92000 329.476
33.09000 308.548
33.26000 296.176
33.43000 300.015
33.60000 303.574
33.77000 302.219
33.94000 313.167
34.11000 339.267
34.28000 335.302
34.45000 347.272
34.62000 321.288
34.79000 293.755
34.96000 287.435
35.13000 293.663
35.30000 266.595
35.47000 273.166
35.64000 264.709
35.81000 280.453
35.98000 259.422
36.15000 258.278
36.32000 263.306
36.49000 261.611
36.66000 255.088
36.83000 267.018
37.00000 291.009
37.17000 278.435
37.34000 258.857
37.51000 263.623
37.68000 255.351
37.85000 259.145
38.02000 247.720
38.19000 260.186
38.36000 329.188
38.53000 614.201
38.70000 980.829
38.87000 686.732
39.04000 306.570
39.21000 253.866
39.38000 230.136
39.55000 244.178
39.72000 248.812
39.89000 221.305
40.06000 219.055
40.23000 224.174
40.40000 205.027
40.57000 211.834
40.74000 211.204
40.91000 219.552
41.08000 212.173
41.25000 215.820
41.42000 202.713
41.59000 210.937
41.76000 214.551
41.93000 218.199
42.10000 218.165
42.27000 221.101
42.44000 213.410
42.61000 222.025
42.78000 205.850
42.95000 194.429
43.12000 189.402
43.29000 194.918
43.46000 191.970
43.63000 199.425
43.80000 186.906
43.97000 183.671
44.14000 202.131
44.31000 191.933
44.48000 215.255
44.65000 223.130
44.82000 231.362
44.99000 240.588
45.16000 235.664
45.33000 244.719
45.50000 205.153
45.67000 200.913
45.84000 177.435
46.01000 179.122
46.18000 186.034
46.35000 173.672
46.52000 180.549
46.69000 176.807
46.86000 178.022
47.03000 169.451
47.20000 177.081
47.37000 165.044
47.54000 163.042
47.71000 167.811
47.88000 164.669
48.05000 153.014
48.22000 149.264
48.39000 147.087
48.56000 158.648
48.73000 157.983
48.90000 152.300
49.07000 153.572
49.24000 161.242
49.41000 151.200
49.58000 151.703
49.75000 154.417
49.92000 141.245
50.09000 155.005
50.26000 152.933
50.43000 155.560
50.60000 165.413
50.77000 164.864
50.94000 151.614
51.11000 154.143
51.28000 143.815
51.45000 157.376
51.62000 144.020
51.79000 138.285
51.96000 145.914
52.13000 134.202
52.30000 142.000
52.47000 142.559
52.64000 160.042
52.81000 138.450
52.98000 142.267
53.15000 156.154
53.32000 154.916
53.49000 145.881
53.66000 149.477
53.83000 141.421
54.00000 157.554
54.17000 140.775
54.34000 137.604
54.51000 135.263
54.68000 140.127
54.85000 143.890
55.02000 153.919
55.19000 151.868
55.36000 174.154
55.53000 223.113
55.70000 360.042
55.87000 566.230
56.04000 518.318
56.21000 320.907
56.38000 195.873
56.55000 158.350
56.72000 146.685
56.89000 139.717
57.06000 127.380
57.23000 126.363
57.40000 123.385
57.57000 125.853
57.74000 125.700
57.91000 126.803
58.08000 129.902
58.25000 129.095
58.42000 121.987
58.59000 125.420
58.76000 119.061
58.93000 120.441
59.10000 117.143
59.27000 126.232
59.44000 121.452
59.61000 116.350
59.78000 113.602
59.95000 122.586
60.12000 123.151
60.29000 120.342
60.46000 109.826
60.63000 118.534
60.80000 120.978
60.97000 119.838
61.14000 128.973
61.31000 129.633
61.48000 142.963
61.65000 263.705
61.82000 202.655
61.99000 122.225
62.16000 131.719
62.33000 127.126
62.50000 127.824
62.67000 129.262
62.84000 124.676
63.01000 128.201
63.18000 139.233
63.35000 137.583
63.52000 135.566
63.69000 142.801
63.86000 141.813
64.03000 151.998
64.20000 139.012
64.37000 154.564
64.54000 153.643
64.71000 169.911
64.88000 183.817
65.05000 201.868
65.22000 220.134
65.39000 251.443
65.56000 315.284
65.73000 995.492
65.90000 1865.735
66.07000 461.231
66.24000 355.069
66.41000 622.490
66.58000 399.676
66.75000 351.578
66.92000 345.941
67.09000 380.666
67.26000 363.889
67.43000 418.823
67.60000 429.479
67.77000 450.767
67.94000 492.373
68.11000 489.815
68.28000 552.118
68.45000 650.492
68.62000 879.533
68.79000 1552.569
68.96000 9000.220
69.13000 42752.633
69.30000 22725.508
69.47000 5474.251
69.64000 875.529
69.81000 624.048
69.98000 496.083
70.00000 489.039