File: XRD/XRD/08-10-2025 Dep 7/XY Data/BTO_Mapping_Theta2Theta_08-10-2025_001_23_-10-000_17-321.xy
20.00000 500.496
20.17000 454.654
20.34000 481.132
20.51000 457.244
20.68000 447.651
20.85000 473.738
21.02000 447.834
21.19000 459.292
21.36000 464.887
21.53000 456.068
21.70000 493.835
21.87000 488.610
22.04000 545.699
22.21000 537.702
22.38000 468.710
22.55000 451.812
22.72000 448.004
22.89000 451.080
23.06000 442.106
23.23000 433.623
23.40000 441.148
23.57000 425.463
23.74000 434.678
23.91000 493.907
24.08000 484.259
24.25000 458.355
24.42000 450.477
24.59000 414.590
24.76000 409.826
24.93000 400.974
25.10000 392.359
25.27000 398.591
25.44000 380.125
25.61000 372.976
25.78000 372.284
25.95000 411.579
26.12000 376.462
26.29000 390.608
26.46000 386.554
26.63000 371.866
26.80000 356.597
26.97000 387.165
27.14000 376.974
27.31000 370.328
27.48000 363.587
27.65000 389.286
27.82000 378.935
27.99000 353.358
28.16000 361.709
28.33000 358.295
28.50000 350.920
28.67000 361.317
28.84000 346.100
29.01000 347.792
29.18000 343.342
29.35000 353.049
29.52000 346.037
29.69000 350.469
29.86000 362.679
30.03000 381.708
30.20000 359.255
30.37000 376.050
30.54000 368.700
30.71000 339.752
30.88000 375.824
31.05000 444.497
31.22000 749.549
31.39000 1074.455
31.56000 796.992
31.73000 430.942
31.90000 351.954
32.07000 338.737
32.24000 313.568
32.41000 314.013
32.58000 314.267
32.75000 313.253
32.92000 300.024
33.09000 295.546
33.26000 291.846
33.43000 284.643
33.60000 274.688
33.77000 289.412
33.94000 300.719
34.11000 317.192
34.28000 352.757
34.45000 332.797
34.62000 326.620
34.79000 301.304
34.96000 285.880
35.13000 270.388
35.30000 275.261
35.47000 263.909
35.64000 269.657
35.81000 265.045
35.98000 267.955
36.15000 245.479
36.32000 264.279
36.49000 254.583
36.66000 257.139
36.83000 274.701
37.00000 291.279
37.17000 279.087
37.34000 254.690
37.51000 247.073
37.68000 249.946
37.85000 259.718
38.02000 260.180
38.19000 263.977
38.36000 331.731
38.53000 652.221
38.70000 1117.868
38.87000 853.805
39.04000 367.489
39.21000 244.306
39.38000 223.728
39.55000 245.279
39.72000 229.084
39.89000 239.945
40.06000 230.935
40.23000 229.620
40.40000 216.305
40.57000 211.634
40.74000 219.798
40.91000 197.704
41.08000 216.557
41.25000 214.229
41.42000 198.806
41.59000 206.935
41.76000 214.131
41.93000 217.498
42.10000 206.963
42.27000 209.016
42.44000 206.708
42.61000 213.207
42.78000 200.505
42.95000 208.704
43.12000 196.485
43.29000 198.277
43.46000 187.097
43.63000 191.799
43.80000 186.031
43.97000 188.134
44.14000 184.144
44.31000 201.575
44.48000 210.384
44.65000 230.806
44.82000 233.049
44.99000 252.512
45.16000 242.703
45.33000 242.618
45.50000 209.152
45.67000 214.903
45.84000 209.815
46.01000 184.238
46.18000 181.746
46.35000 163.638
46.52000 191.366
46.69000 187.133
46.86000 165.717
47.03000 174.571
47.20000 160.908
47.37000 160.363
47.54000 162.755
47.71000 162.275
47.88000 155.365
48.05000 165.172
48.22000 143.852
48.39000 165.093
48.56000 158.028
48.73000 152.377
48.90000 162.373
49.07000 157.600
49.24000 155.393
49.41000 150.101
49.58000 148.272
49.75000 150.863
49.92000 146.896
50.09000 152.422
50.26000 152.692
50.43000 162.683
50.60000 165.239
50.77000 169.431
50.94000 167.172
51.11000 149.698
51.28000 144.207
51.45000 146.852
51.62000 146.245
51.79000 144.335
51.96000 139.983
52.13000 134.028
52.30000 137.186
52.47000 133.933
52.64000 140.533
52.81000 149.671
52.98000 143.181
53.15000 152.517
53.32000 166.400
53.49000 161.058
53.66000 146.493
53.83000 146.631
54.00000 134.361
54.17000 141.595
54.34000 136.617
54.51000 137.849
54.68000 153.207
54.85000 144.941
55.02000 152.402
55.19000 147.498
55.36000 172.566
55.53000 228.015
55.70000 381.520
55.87000 631.672
56.04000 629.619
56.21000 396.941
56.38000 214.046
56.55000 152.049
56.72000 136.583
56.89000 133.994
57.06000 131.686
57.23000 126.939
57.40000 124.854
57.57000 127.087
57.74000 130.058
57.91000 127.377
58.08000 130.597
58.25000 120.861
58.42000 115.889
58.59000 119.673
58.76000 115.588
58.93000 126.547
59.10000 112.846
59.27000 113.153
59.44000 113.191
59.61000 128.337
59.78000 108.222
59.95000 117.812
60.12000 111.515
60.29000 111.590
60.46000 119.231
60.63000 126.121
60.80000 113.110
60.97000 117.981
61.14000 125.042
61.31000 116.166
61.48000 128.586
61.65000 294.947
61.82000 210.761
61.99000 128.162
62.16000 129.577
62.33000 124.913
62.50000 125.711
62.67000 125.865
62.84000 128.189
63.01000 133.662
63.18000 141.730
63.35000 124.476
63.52000 127.772
63.69000 128.566
63.86000 128.450
64.03000 144.720
64.20000 154.366
64.37000 136.454
64.54000 143.023
64.71000 169.708
64.88000 179.974
65.05000 182.201
65.22000 206.137
65.39000 248.540
65.56000 303.057
65.73000 881.752
65.90000 1971.347
66.07000 552.171
66.24000 354.873
66.41000 617.523
66.58000 428.206
66.75000 357.985
66.92000 366.404
67.09000 375.935
67.26000 385.950
67.43000 406.895
67.60000 431.990
67.77000 454.268
67.94000 472.270
68.11000 517.003
68.28000 563.425
68.45000 635.686
68.62000 845.805
68.79000 1544.004
68.96000 6657.496
69.13000 43554.570
69.30000 25924.781
69.47000 7811.550
69.64000 956.536
69.81000 631.756
69.98000 511.019
70.00000 507.215