File: XRD/XRD/08-10-2025 Dep 7/XY Data/BTO_Mapping_Theta2Theta_08-10-2025_001_15_6-180_19-021.xy
20.00000 491.961
20.17000 471.842
20.34000 470.588
20.51000 458.422
20.68000 469.693
20.85000 455.059
21.02000 465.674
21.19000 473.349
21.36000 454.599
21.53000 458.601
21.70000 481.605
21.87000 471.221
22.04000 480.673
22.21000 507.216
22.38000 469.424
22.55000 451.422
22.72000 443.627
22.89000 451.531
23.06000 453.037
23.23000 436.058
23.40000 441.794
23.57000 447.400
23.74000 473.016
23.91000 518.948
24.08000 517.803
24.25000 471.539
24.42000 446.931
24.59000 418.269
24.76000 416.409
24.93000 416.605
25.10000 398.698
25.27000 400.485
25.44000 391.797
25.61000 390.060
25.78000 388.883
25.95000 375.695
26.12000 408.595
26.29000 381.940
26.46000 386.402
26.63000 382.963
26.80000 384.033
26.97000 380.601
27.14000 381.234
27.31000 367.178
27.48000 374.093
27.65000 376.534
27.82000 372.044
27.99000 374.344
28.16000 361.129
28.33000 355.290
28.50000 375.530
28.67000 351.526
28.84000 341.725
29.01000 357.211
29.18000 353.798
29.35000 346.721
29.52000 347.543
29.69000 369.953
29.86000 387.553
30.03000 395.973
30.20000 380.309
30.37000 382.461
30.54000 364.667
30.71000 392.968
30.88000 412.894
31.05000 506.440
31.22000 868.232
31.39000 1236.076
31.56000 833.309
31.73000 481.289
31.90000 360.855
32.07000 365.405
32.24000 353.722
32.41000 322.800
32.58000 320.665
32.75000 322.061
32.92000 322.362
33.09000 297.904
33.26000 305.957
33.43000 304.390
33.60000 288.009
33.77000 299.998
33.94000 309.647
34.11000 331.654
34.28000 338.371
34.45000 346.764
34.62000 328.091
34.79000 281.882
34.96000 266.907
35.13000 273.762
35.30000 266.154
35.47000 264.315
35.64000 259.666
35.81000 265.415
35.98000 258.652
36.15000 254.391
36.32000 254.397
36.49000 258.028
36.66000 263.921
36.83000 272.388
37.00000 276.194
37.17000 275.134
37.34000 258.639
37.51000 256.553
37.68000 237.882
37.85000 243.216
38.02000 249.279
38.19000 259.474
38.36000 300.788
38.53000 524.264
38.70000 916.608
38.87000 658.654
39.04000 322.182
39.21000 247.409
39.38000 235.757
39.55000 231.614
39.72000 230.463
39.89000 232.614
40.06000 235.302
40.23000 232.068
40.40000 220.774
40.57000 221.779
40.74000 215.862
40.91000 206.925
41.08000 192.260
41.25000 204.539
41.42000 207.828
41.59000 216.801
41.76000 220.052
41.93000 219.125
42.10000 229.741
42.27000 211.569
42.44000 215.195
42.61000 208.126
42.78000 201.906
42.95000 205.954
43.12000 194.738
43.29000 198.125
43.46000 193.676
43.63000 186.212
43.80000 191.954
43.97000 183.244
44.14000 196.175
44.31000 194.834
44.48000 209.855
44.65000 219.265
44.82000 225.100
44.99000 233.056
45.16000 231.453
45.33000 215.933
45.50000 214.878
45.67000 206.445
45.84000 186.009
46.01000 176.988
46.18000 178.359
46.35000 177.242
46.52000 165.843
46.69000 178.522
46.86000 178.102
47.03000 165.629
47.20000 167.016
47.37000 173.092
47.54000 168.245
47.71000 157.239
47.88000 161.519
48.05000 160.468
48.22000 169.466
48.39000 168.385
48.56000 152.776
48.73000 166.203
48.90000 149.444
49.07000 152.240
49.24000 151.749
49.41000 163.941
49.58000 166.309
49.75000 144.897
49.92000 152.582
50.09000 147.855
50.26000 162.690
50.43000 152.981
50.60000 162.908
50.77000 156.117
50.94000 154.643
51.11000 150.121
51.28000 155.757
51.45000 140.939
51.62000 144.665
51.79000 141.853
51.96000 138.999
52.13000 139.166
52.30000 149.809
52.47000 142.060
52.64000 132.702
52.81000 139.325
52.98000 139.154
53.15000 144.561
53.32000 149.702
53.49000 150.343
53.66000 142.824
53.83000 138.603
54.00000 151.031
54.17000 137.160
54.34000 138.072
54.51000 150.193
54.68000 142.632
54.85000 136.259
55.02000 154.125
55.19000 162.715
55.36000 167.431
55.53000 208.006
55.70000 313.389
55.87000 485.293
56.04000 479.561
56.21000 314.031
56.38000 196.540
56.55000 149.045
56.72000 136.211
56.89000 138.006
57.06000 127.644
57.23000 132.986
57.40000 124.956
57.57000 134.148
57.74000 133.139
57.91000 124.525
58.08000 138.371
58.25000 120.377
58.42000 121.070
58.59000 115.669
58.76000 105.913
58.93000 122.824
59.10000 115.208
59.27000 120.000
59.44000 108.533
59.61000 127.204
59.78000 122.605
59.95000 116.730
60.12000 132.707
60.29000 115.587
60.46000 113.909
60.63000 117.379
60.80000 112.098
60.97000 121.271
61.14000 126.462
61.31000 132.195
61.48000 139.496
61.65000 275.986
61.82000 198.747
61.99000 139.010
62.16000 126.084
62.33000 128.276
62.50000 128.117
62.67000 135.148
62.84000 134.396
63.01000 127.453
63.18000 129.529
63.35000 128.024
63.52000 128.515
63.69000 148.039
63.86000 137.899
64.03000 145.274
64.20000 150.675
64.37000 155.107
64.54000 158.070
64.71000 166.215
64.88000 184.565
65.05000 202.192
65.22000 218.697
65.39000 256.428
65.56000 321.722
65.73000 941.065
65.90000 1964.655
66.07000 515.859
66.24000 362.501
66.41000 598.651
66.58000 406.674
66.75000 344.760
66.92000 344.476
67.09000 372.714
67.26000 390.542
67.43000 388.317
67.60000 435.621
67.77000 436.075
67.94000 483.644
68.11000 512.817
68.28000 555.082
68.45000 645.815
68.62000 865.719
68.79000 1552.568
68.96000 7880.438
69.13000 42586.758
69.30000 23849.758
69.47000 6286.677
69.64000 927.574
69.81000 622.030
69.98000 498.068
70.00000 497.385