File: XRD/XRD/08-10-2025 Dep 7/XY Data/BTO_Mapping_Theta2Theta_08-10-2025_001_19_-2-091_19-890.xy
20.00000 486.251
20.17000 452.453
20.34000 470.033
20.51000 472.843
20.68000 470.481
20.85000 454.844
21.02000 463.188
21.19000 459.291
21.36000 461.871
21.53000 459.219
21.70000 463.373
21.87000 502.780
22.04000 530.030
22.21000 530.811
22.38000 478.835
22.55000 442.017
22.72000 442.312
22.89000 453.436
23.06000 435.442
23.23000 433.573
23.40000 435.009
23.57000 448.962
23.74000 459.342
23.91000 500.268
24.08000 479.966
24.25000 465.533
24.42000 424.052
24.59000 426.001
24.76000 411.740
24.93000 412.159
25.10000 405.023
25.27000 397.927
25.44000 393.757
25.61000 398.000
25.78000 378.583
25.95000 402.028
26.12000 398.758
26.29000 393.770
26.46000 376.983
26.63000 384.308
26.80000 375.865
26.97000 366.913
27.14000 368.786
27.31000 382.604
27.48000 380.036
27.65000 372.866
27.82000 362.382
27.99000 379.247
28.16000 352.648
28.33000 356.478
28.50000 371.286
28.67000 364.935
28.84000 353.679
29.01000 346.982
29.18000 344.098
29.35000 354.384
29.52000 345.051
29.69000 357.101
29.86000 370.567
30.03000 390.972
30.20000 366.728
30.37000 366.992
30.54000 376.883
30.71000 341.906
30.88000 380.484
31.05000 477.188
31.22000 805.654
31.39000 1219.227
31.56000 889.816
31.73000 475.656
31.90000 361.855
32.07000 357.457
32.24000 333.804
32.41000 319.267
32.58000 319.074
32.75000 315.579
32.92000 317.896
33.09000 309.543
33.26000 310.171
33.43000 310.205
33.60000 308.884
33.77000 307.383
33.94000 312.024
34.11000 324.606
34.28000 351.650
34.45000 337.890
34.62000 313.938
34.79000 300.051
34.96000 275.590
35.13000 275.689
35.30000 276.648
35.47000 276.600
35.64000 264.683
35.81000 263.429
35.98000 262.348
36.15000 253.609
36.32000 263.543
36.49000 259.972
36.66000 250.249
36.83000 252.208
37.00000 271.061
37.17000 258.907
37.34000 259.340
37.51000 257.937
37.68000 263.028
37.85000 248.748
38.02000 254.131
38.19000 264.507
38.36000 300.845
38.53000 549.929
38.70000 1039.246
38.87000 768.949
39.04000 330.963
39.21000 235.922
39.38000 249.273
39.55000 240.907
39.72000 224.182
39.89000 231.136
40.06000 229.401
40.23000 229.484
40.40000 217.419
40.57000 225.372
40.74000 210.876
40.91000 204.011
41.08000 205.839
41.25000 205.934
41.42000 208.118
41.59000 208.896
41.76000 195.674
41.93000 207.347
42.10000 201.358
42.27000 226.937
42.44000 208.363
42.61000 220.739
42.78000 203.366
42.95000 202.641
43.12000 203.894
43.29000 193.979
43.46000 189.163
43.63000 185.167
43.80000 195.321
43.97000 201.008
44.14000 192.081
44.31000 199.511
44.48000 206.821
44.65000 209.517
44.82000 211.058
44.99000 241.465
45.16000 242.106
45.33000 226.110
45.50000 214.083
45.67000 201.383
45.84000 197.614
46.01000 181.792
46.18000 183.694
46.35000 179.815
46.52000 177.406
46.69000 183.984
46.86000 170.939
47.03000 171.779
47.20000 167.824
47.37000 161.863
47.54000 164.279
47.71000 164.717
47.88000 167.012
48.05000 160.547
48.22000 158.125
48.39000 160.106
48.56000 164.669
48.73000 159.348
48.90000 157.880
49.07000 158.442
49.24000 152.384
49.41000 152.652
49.58000 150.049
49.75000 159.007
49.92000 147.725
50.09000 159.973
50.26000 157.720
50.43000 158.314
50.60000 167.930
50.77000 168.249
50.94000 164.178
51.11000 152.857
51.28000 137.050
51.45000 140.913
51.62000 139.781
51.79000 140.392
51.96000 141.623
52.13000 137.213
52.30000 133.934
52.47000 138.407
52.64000 140.176
52.81000 128.097
52.98000 154.487
53.15000 152.362
53.32000 151.501
53.49000 158.655
53.66000 142.973
53.83000 146.665
54.00000 148.684
54.17000 135.691
54.34000 141.144
54.51000 139.872
54.68000 134.996
54.85000 143.792
55.02000 149.824
55.19000 140.576
55.36000 177.281
55.53000 191.511
55.70000 339.494
55.87000 577.920
56.04000 595.171
56.21000 353.941
56.38000 206.240
56.55000 142.514
56.72000 131.461
56.89000 140.280
57.06000 129.786
57.23000 122.342
57.40000 129.524
57.57000 135.672
57.74000 123.483
57.91000 135.201
58.08000 132.194
58.25000 117.194
58.42000 121.326
58.59000 110.752
58.76000 129.445
58.93000 121.307
59.10000 115.379
59.27000 123.006
59.44000 117.983
59.61000 122.735
59.78000 116.930
59.95000 112.357
60.12000 119.143
60.29000 111.669
60.46000 125.382
60.63000 118.295
60.80000 121.227
60.97000 112.322
61.14000 124.833
61.31000 118.170
61.48000 123.976
61.65000 281.529
61.82000 201.098
61.99000 138.060
62.16000 127.990
62.33000 122.118
62.50000 125.608
62.67000 135.163
62.84000 139.611
63.01000 137.251
63.18000 130.110
63.35000 128.410
63.52000 138.476
63.69000 139.630
63.86000 141.132
64.03000 140.338
64.20000 146.385
64.37000 147.306
64.54000 160.779
64.71000 171.825
64.88000 173.723
65.05000 185.177
65.22000 219.612
65.39000 269.202
65.56000 318.549
65.73000 898.587
65.90000 1894.863
66.07000 508.587
66.24000 348.087
66.41000 613.609
66.58000 402.772
66.75000 350.525
66.92000 370.728
67.09000 360.227
67.26000 386.153
67.43000 409.627
67.60000 439.121
67.77000 431.332
67.94000 463.627
68.11000 507.376
68.28000 539.205
68.45000 612.639
68.62000 837.961
68.79000 1494.338
68.96000 7147.942
69.13000 42106.559
69.30000 24359.623
69.47000 6765.774
69.64000 917.833
69.81000 625.191
69.98000 514.160
70.00000 501.579