File: XRD/XRD/08-10-2025 Dep 7/XY Data/BTO_Mapping_Theta2Theta_08-10-2025_001_04_30-000_0-000.xy
20.00000 466.285
20.17000 478.044
20.34000 465.786
20.51000 481.145
20.68000 485.681
20.85000 464.043
21.02000 486.440
21.19000 475.233
21.36000 437.071
21.53000 475.005
21.70000 479.030
21.87000 488.159
22.04000 518.939
22.21000 492.634
22.38000 460.759
22.55000 463.400
22.72000 456.981
22.89000 451.439
23.06000 460.977
23.23000 461.166
23.40000 453.449
23.57000 455.564
23.74000 495.838
23.91000 562.490
24.08000 521.827
24.25000 465.597
24.42000 434.598
24.59000 428.801
24.76000 408.421
24.93000 436.566
25.10000 404.865
25.27000 413.568
25.44000 409.250
25.61000 403.239
25.78000 376.528
25.95000 398.049
26.12000 381.118
26.29000 398.209
26.46000 406.182
26.63000 380.211
26.80000 387.536
26.97000 395.458
27.14000 372.872
27.31000 366.542
27.48000 370.240
27.65000 381.161
27.82000 359.444
27.99000 383.197
28.16000 358.299
28.33000 387.321
28.50000 357.686
28.67000 366.940
28.84000 374.498
29.01000 369.961
29.18000 358.026
29.35000 357.004
29.52000 364.258
29.69000 360.365
29.86000 378.181
30.03000 386.627
30.20000 374.004
30.37000 383.499
30.54000 377.424
30.71000 373.978
30.88000 445.563
31.05000 536.544
31.22000 869.439
31.39000 988.435
31.56000 698.177
31.73000 458.246
31.90000 381.118
32.07000 375.036
32.24000 377.621
32.41000 352.311
32.58000 329.411
32.75000 325.767
32.92000 322.838
33.09000 312.084
33.26000 306.721
33.43000 306.608
33.60000 300.674
33.77000 313.010
33.94000 326.637
34.11000 310.424
34.28000 331.961
34.45000 331.322
34.62000 297.244
34.79000 293.324
34.96000 283.185
35.13000 257.551
35.30000 266.479
35.47000 256.939
35.64000 258.705
35.81000 255.413
35.98000 260.810
36.15000 258.043
36.32000 256.377
36.49000 250.105
36.66000 269.276
36.83000 259.652
37.00000 275.560
37.17000 252.793
37.34000 252.702
37.51000 260.067
37.68000 249.109
37.85000 246.123
38.02000 248.414
38.19000 270.396
38.36000 321.063
38.53000 524.225
38.70000 725.399
38.87000 458.919
39.04000 278.376
39.21000 247.382
39.38000 252.585
39.55000 247.138
39.72000 233.323
39.89000 238.809
40.06000 235.397
40.23000 229.351
40.40000 216.175
40.57000 211.176
40.74000 206.048
40.91000 218.200
41.08000 212.566
41.25000 212.139
41.42000 213.228
41.59000 226.964
41.76000 208.711
41.93000 213.813
42.10000 215.990
42.27000 226.324
42.44000 215.334
42.61000 229.053
42.78000 207.916
42.95000 209.173
43.12000 207.490
43.29000 199.029
43.46000 192.187
43.63000 179.037
43.80000 193.388
43.97000 194.124
44.14000 206.537
44.31000 207.885
44.48000 210.023
44.65000 216.697
44.82000 239.246
44.99000 245.855
45.16000 233.236
45.33000 223.222
45.50000 209.522
45.67000 202.320
45.84000 186.033
46.01000 194.681
46.18000 178.351
46.35000 180.968
46.52000 190.131
46.69000 161.159
46.86000 169.000
47.03000 169.724
47.20000 166.683
47.37000 168.820
47.54000 173.649
47.71000 158.077
47.88000 165.330
48.05000 164.909
48.22000 184.474
48.39000 166.853
48.56000 156.042
48.73000 166.140
48.90000 157.254
49.07000 160.509
49.24000 158.755
49.41000 164.289
49.58000 162.093
49.75000 166.589
49.92000 154.394
50.09000 153.512
50.26000 152.550
50.43000 164.995
50.60000 164.920
50.77000 168.202
50.94000 163.232
51.11000 156.800
51.28000 152.340
51.45000 149.047
51.62000 142.226
51.79000 135.723
51.96000 143.516
52.13000 145.622
52.30000 156.006
52.47000 146.937
52.64000 141.389
52.81000 144.151
52.98000 150.676
53.15000 133.079
53.32000 143.756
53.49000 141.682
53.66000 151.328
53.83000 143.234
54.00000 151.204
54.17000 133.815
54.34000 147.974
54.51000 138.938
54.68000 143.244
54.85000 139.922
55.02000 156.128
55.19000 153.413
55.36000 165.258
55.53000 193.737
55.70000 258.550
55.87000 319.932
56.04000 306.605
56.21000 232.085
56.38000 172.514
56.55000 163.060
56.72000 135.872
56.89000 136.364
57.06000 125.167
57.23000 138.248
57.40000 125.928
57.57000 127.539
57.74000 122.873
57.91000 124.379
58.08000 128.862
58.25000 122.101
58.42000 122.952
58.59000 121.277
58.76000 112.977
58.93000 120.809
59.10000 132.298
59.27000 121.995
59.44000 129.844
59.61000 117.752
59.78000 124.660
59.95000 118.116
60.12000 126.120
60.29000 124.770
60.46000 117.871
60.63000 118.036
60.80000 120.538
60.97000 123.004
61.14000 137.229
61.31000 125.110
61.48000 135.562
61.65000 283.691
61.82000 186.966
61.99000 130.675
62.16000 128.528
62.33000 131.387
62.50000 136.224
62.67000 137.110
62.84000 136.973
63.01000 145.683
63.18000 128.925
63.35000 129.155
63.52000 144.057
63.69000 137.030
63.86000 145.998
64.03000 151.784
64.20000 152.874
64.37000 154.433
64.54000 159.804
64.71000 166.502
64.88000 195.759
65.05000 210.097
65.22000 220.758
65.39000 255.948
65.56000 325.781
65.73000 1151.661
65.90000 1945.884
66.07000 444.620
66.24000 389.277
66.41000 618.466
66.58000 397.924
66.75000 345.404
66.92000 366.484
67.09000 390.906
67.26000 402.220
67.43000 405.823
67.60000 445.555
67.77000 471.353
67.94000 491.415
68.11000 527.271
68.28000 562.708
68.45000 655.330
68.62000 963.005
68.79000 1711.860
68.96000 12129.084
69.13000 45217.930
69.30000 22971.938
69.47000 4585.790
69.64000 892.141
69.81000 618.854
69.98000 506.443
70.00000 488.271