File: XRD/XRD/08-10-2025 Dep 7/XY Data/BTO_Mapping_Theta2Theta_08-10-2025_001_55_13-383_-14-863.xy
20.00000 478.301
20.17000 476.820
20.34000 467.135
20.51000 473.694
20.68000 471.287
20.85000 461.494
21.02000 472.560
21.19000 458.620
21.36000 482.240
21.53000 457.172
21.70000 461.980
21.87000 509.271
22.04000 515.963
22.21000 509.026
22.38000 474.104
22.55000 454.081
22.72000 460.305
22.89000 447.771
23.06000 436.988
23.23000 451.021
23.40000 446.634
23.57000 454.470
23.74000 491.710
23.91000 529.821
24.08000 541.505
24.25000 474.604
24.42000 423.251
24.59000 420.553
24.76000 429.464
24.93000 410.256
25.10000 409.585
25.27000 402.604
25.44000 417.454
25.61000 380.427
25.78000 385.676
25.95000 376.335
26.12000 378.779
26.29000 389.632
26.46000 385.118
26.63000 382.072
26.80000 378.575
26.97000 377.301
27.14000 374.885
27.31000 361.846
27.48000 366.077
27.65000 367.500
27.82000 358.851
27.99000 352.949
28.16000 374.081
28.33000 362.684
28.50000 375.682
28.67000 382.331
28.84000 348.372
29.01000 366.452
29.18000 360.077
29.35000 357.427
29.52000 342.133
29.69000 360.045
29.86000 389.438
30.03000 381.009
30.20000 386.197
30.37000 373.963
30.54000 384.479
30.71000 374.324
30.88000 406.545
31.05000 534.786
31.22000 933.631
31.39000 1222.631
31.56000 821.026
31.73000 459.516
31.90000 369.698
32.07000 356.683
32.24000 337.763
32.41000 330.032
32.58000 326.969
32.75000 319.794
32.92000 316.915
33.09000 301.728
33.26000 297.210
33.43000 299.158
33.60000 303.950
33.77000 310.901
33.94000 316.787
34.11000 341.230
34.28000 358.017
34.45000 349.093
34.62000 325.472
34.79000 304.579
34.96000 279.074
35.13000 275.527
35.30000 268.157
35.47000 275.216
35.64000 273.425
35.81000 261.963
35.98000 255.543
36.15000 237.956
36.32000 265.776
36.49000 268.089
36.66000 257.784
36.83000 268.203
37.00000 273.263
37.17000 265.961
37.34000 249.751
37.51000 269.255
37.68000 265.372
37.85000 251.511
38.02000 262.177
38.19000 273.017
38.36000 337.244
38.53000 648.787
38.70000 1004.807
38.87000 674.635
39.04000 312.645
39.21000 242.322
39.38000 240.656
39.55000 244.657
39.72000 238.948
39.89000 240.026
40.06000 239.358
40.23000 225.571
40.40000 224.330
40.57000 222.518
40.74000 219.104
40.91000 230.109
41.08000 205.311
41.25000 207.722
41.42000 215.407
41.59000 209.808
41.76000 212.340
41.93000 214.381
42.10000 225.619
42.27000 224.302
42.44000 215.298
42.61000 220.643
42.78000 198.125
42.95000 210.658
43.12000 191.771
43.29000 205.487
43.46000 189.574
43.63000 204.243
43.80000 189.412
43.97000 182.085
44.14000 197.426
44.31000 205.010
44.48000 214.483
44.65000 219.713
44.82000 228.661
44.99000 243.964
45.16000 244.022
45.33000 209.200
45.50000 207.029
45.67000 194.735
45.84000 183.707
46.01000 181.076
46.18000 177.184
46.35000 181.719
46.52000 169.788
46.69000 167.886
46.86000 170.374
47.03000 172.946
47.20000 159.001
47.37000 168.555
47.54000 161.557
47.71000 169.932
47.88000 160.846
48.05000 169.089
48.22000 164.986
48.39000 155.614
48.56000 156.918
48.73000 158.367
48.90000 159.765
49.07000 159.084
49.24000 157.849
49.41000 156.091
49.58000 149.196
49.75000 150.611
49.92000 145.307
50.09000 162.591
50.26000 153.644
50.43000 155.860
50.60000 163.255
50.77000 172.927
50.94000 156.939
51.11000 139.137
51.28000 158.221
51.45000 149.320
51.62000 147.629
51.79000 147.464
51.96000 143.060
52.13000 137.714
52.30000 140.106
52.47000 146.820
52.64000 135.584
52.81000 145.422
52.98000 145.170
53.15000 154.458
53.32000 159.157
53.49000 154.347
53.66000 152.640
53.83000 141.842
54.00000 146.781
54.17000 148.662
54.34000 130.526
54.51000 133.172
54.68000 136.124
54.85000 152.059
55.02000 141.073
55.19000 167.877
55.36000 169.962
55.53000 234.834
55.70000 362.986
55.87000 563.078
56.04000 518.069
56.21000 320.257
56.38000 196.575
56.55000 157.167
56.72000 131.845
56.89000 141.889
57.06000 125.008
57.23000 122.899
57.40000 117.127
57.57000 126.051
57.74000 124.771
57.91000 125.329
58.08000 126.698
58.25000 123.027
58.42000 113.268
58.59000 117.082
58.76000 124.359
58.93000 127.668
59.10000 110.353
59.27000 113.347
59.44000 127.083
59.61000 112.365
59.78000 123.726
59.95000 115.167
60.12000 116.321
60.29000 117.412
60.46000 113.139
60.63000 124.495
60.80000 120.445
60.97000 128.517
61.14000 119.906
61.31000 122.046
61.48000 143.431
61.65000 272.793
61.82000 180.398
61.99000 141.319
62.16000 131.139
62.33000 132.924
62.50000 132.031
62.67000 129.250
62.84000 133.561
63.01000 116.477
63.18000 122.508
63.35000 133.337
63.52000 139.085
63.69000 142.725
63.86000 139.120
64.03000 148.027
64.20000 158.109
64.37000 156.626
64.54000 159.443
64.71000 167.789
64.88000 191.053
65.05000 205.253
65.22000 213.359
65.39000 252.237
65.56000 339.143
65.73000 1053.003
65.90000 1837.401
66.07000 471.446
66.24000 370.794
66.41000 627.980
66.58000 394.873
66.75000 336.721
66.92000 351.165
67.09000 374.497
67.26000 388.843
67.43000 404.416
67.60000 413.206
67.77000 441.992
67.94000 479.635
68.11000 508.133
68.28000 546.366
68.45000 632.910
68.62000 865.420
68.79000 1557.234
68.96000 10129.612
69.13000 42612.598
69.30000 22193.176
69.47000 4923.707
69.64000 857.535
69.81000 588.783
69.98000 488.265
70.00000 490.271