File: XRD/XRD/08-10-2025 Dep 7/XY Data/BTO_Mapping_Theta2Theta_08-10-2025_001_37_-39-126_-8-316.xy
20.00000 479.034
20.17000 468.175
20.34000 457.752
20.51000 481.367
20.68000 472.900
20.85000 466.682
21.02000 477.817
21.19000 487.556
21.36000 477.896
21.53000 485.627
21.70000 550.149
21.87000 741.599
22.04000 806.238
22.21000 597.024
22.38000 504.238
22.55000 437.404
22.72000 444.172
22.89000 433.939
23.06000 427.214
23.23000 425.296
23.40000 426.837
23.57000 419.719
23.74000 408.818
23.91000 426.526
24.08000 430.889
24.25000 412.584
24.42000 417.062
24.59000 419.430
24.76000 399.308
24.93000 431.961
25.10000 403.964
25.27000 393.667
25.44000 395.557
25.61000 394.724
25.78000 399.234
25.95000 382.362
26.12000 391.288
26.29000 381.090
26.46000 397.064
26.63000 383.827
26.80000 400.016
26.97000 395.031
27.14000 371.533
27.31000 383.513
27.48000 377.807
27.65000 378.684
27.82000 369.813
27.99000 375.971
28.16000 372.768
28.33000 372.123
28.50000 376.450
28.67000 376.320
28.84000 380.576
29.01000 370.884
29.18000 349.299
29.35000 356.155
29.52000 364.724
29.69000 400.326
29.86000 470.095
30.03000 495.619
30.20000 443.761
30.37000 426.862
30.54000 431.262
30.71000 437.429
30.88000 544.049
31.05000 1241.305
31.22000 3486.332
31.39000 3847.859
31.56000 1595.913
31.73000 635.776
31.90000 379.650
32.07000 347.363
32.24000 332.609
32.41000 323.868
32.58000 324.753
32.75000 313.544
32.92000 331.468
33.09000 318.837
33.26000 300.260
33.43000 293.250
33.60000 286.126
33.77000 296.828
33.94000 277.611
34.11000 278.850
34.28000 283.314
34.45000 279.861
34.62000 268.793
34.79000 274.283
34.96000 270.212
35.13000 280.570
35.30000 266.357
35.47000 263.508
35.64000 267.694
35.81000 259.000
35.98000 252.561
36.15000 267.653
36.32000 269.448
36.49000 243.613
36.66000 264.111
36.83000 259.530
37.00000 258.766
37.17000 248.728
37.34000 244.332
37.51000 251.263
37.68000 245.547
37.85000 251.813
38.02000 240.211
38.19000 260.470
38.36000 322.497
38.53000 445.382
38.70000 466.799
38.87000 334.868
39.04000 263.000
39.21000 239.234
39.38000 230.608
39.55000 218.301
39.72000 225.725
39.89000 234.231
40.06000 216.445
40.23000 229.800
40.40000 219.797
40.57000 215.120
40.74000 216.263
40.91000 206.194
41.08000 204.270
41.25000 218.598
41.42000 205.201
41.59000 220.856
41.76000 202.118
41.93000 188.685
42.10000 208.298
42.27000 215.545
42.44000 202.349
42.61000 204.680
42.78000 211.445
42.95000 205.143
43.12000 219.609
43.29000 206.733
43.46000 207.963
43.63000 199.066
43.80000 200.645
43.97000 202.161
44.14000 209.803
44.31000 218.802
44.48000 259.414
44.65000 363.106
44.82000 507.129
44.99000 469.801
45.16000 371.126
45.33000 286.567
45.50000 244.715
45.67000 222.776
45.84000 203.431
46.01000 193.318
46.18000 178.811
46.35000 173.599
46.52000 182.038
46.69000 181.474
46.86000 168.281
47.03000 176.485
47.20000 171.432
47.37000 171.812
47.54000 165.710
47.71000 163.240
47.88000 168.780
48.05000 180.036
48.22000 164.923
48.39000 168.058
48.56000 161.060
48.73000 158.779
48.90000 160.528
49.07000 160.278
49.24000 160.227
49.41000 161.530
49.58000 168.114
49.75000 158.704
49.92000 154.600
50.09000 173.389
50.26000 212.547
50.43000 243.373
50.60000 273.611
50.77000 220.850
50.94000 179.998
51.11000 173.774
51.28000 157.667
51.45000 156.339
51.62000 140.504
51.79000 151.143
51.96000 155.596
52.13000 144.077
52.30000 142.618
52.47000 135.077
52.64000 144.151
52.81000 142.182
52.98000 154.935
53.15000 157.324
53.32000 154.775
53.49000 153.848
53.66000 141.430
53.83000 146.018
54.00000 155.902
54.17000 132.273
54.34000 139.470
54.51000 137.618
54.68000 150.678
54.85000 139.720
55.02000 161.023
55.19000 159.447
55.36000 231.854
55.53000 399.049
55.70000 578.527
55.87000 589.071
56.04000 415.631
56.21000 256.202
56.38000 186.894
56.55000 149.394
56.72000 147.891
56.89000 127.564
57.06000 139.126
57.23000 123.643
57.40000 124.361
57.57000 124.254
57.74000 130.642
57.91000 118.934
58.08000 121.311
58.25000 123.347
58.42000 121.332
58.59000 120.700
58.76000 120.188
58.93000 124.583
59.10000 120.868
59.27000 120.278
59.44000 118.090
59.61000 111.602
59.78000 120.683
59.95000 126.332
60.12000 122.482
60.29000 123.001
60.46000 108.137
60.63000 122.397
60.80000 120.847
60.97000 118.596
61.14000 127.640
61.31000 120.454
61.48000 137.985
61.65000 361.918
61.82000 301.740
61.99000 135.041
62.16000 143.584
62.33000 141.965
62.50000 140.808
62.67000 147.906
62.84000 141.123
63.01000 136.106
63.18000 141.825
63.35000 138.968
63.52000 138.043
63.69000 143.031
63.86000 150.435
64.03000 154.633
64.20000 151.679
64.37000 156.493
64.54000 177.824
64.71000 184.671
64.88000 237.556
65.05000 303.700
65.22000 401.029
65.39000 457.125
65.56000 497.450
65.73000 1169.292
65.90000 2976.641
66.07000 938.529
66.24000 488.747
66.41000 826.511
66.58000 605.761
66.75000 425.821
66.92000 438.378
67.09000 451.450
67.26000 462.687
67.43000 488.925
67.60000 517.283
67.77000 557.465
67.94000 576.507
68.11000 608.590
68.28000 673.725
68.45000 742.864
68.62000 1037.377
68.79000 2118.014
68.96000 9112.125
69.13000 66260.531
69.30000 45609.621
69.47000 15764.938
69.64000 1307.927
69.81000 767.944
69.98000 585.060
70.00000 578.502