File: XRD/XRD/08-10-2025 Dep 7/XY Data/BTO_Mapping_Theta2Theta_08-10-2025_001_03_20-000_0-000.xy
20.00000 481.449
20.17000 501.927
20.34000 462.136
20.51000 471.136
20.68000 476.490
20.85000 458.143
21.02000 483.903
21.19000 461.656
21.36000 457.931
21.53000 454.963
21.70000 477.524
21.87000 488.986
22.04000 506.205
22.21000 520.393
22.38000 477.302
22.55000 458.278
22.72000 427.653
22.89000 459.152
23.06000 460.247
23.23000 443.129
23.40000 454.957
23.57000 451.200
23.74000 504.728
23.91000 538.170
24.08000 541.922
24.25000 483.294
24.42000 440.263
24.59000 429.854
24.76000 415.746
24.93000 404.719
25.10000 408.132
25.27000 402.102
25.44000 399.753
25.61000 414.751
25.78000 413.769
25.95000 391.075
26.12000 402.253
26.29000 386.505
26.46000 381.181
26.63000 390.488
26.80000 393.532
26.97000 377.041
27.14000 371.038
27.31000 376.195
27.48000 360.946
27.65000 368.328
27.82000 374.352
27.99000 364.629
28.16000 370.199
28.33000 367.941
28.50000 373.862
28.67000 363.919
28.84000 370.149
29.01000 364.918
29.18000 372.487
29.35000 344.815
29.52000 355.606
29.69000 355.715
29.86000 359.341
30.03000 394.867
30.20000 392.078
30.37000 371.319
30.54000 372.948
30.71000 375.309
30.88000 413.650
31.05000 525.605
31.22000 859.172
31.39000 1045.941
31.56000 736.361
31.73000 449.804
31.90000 383.444
32.07000 370.441
32.24000 331.762
32.41000 329.592
32.58000 321.116
32.75000 317.951
32.92000 309.623
33.09000 312.072
33.26000 312.073
33.43000 304.826
33.60000 300.583
33.77000 305.065
33.94000 311.252
34.11000 334.689
34.28000 341.990
34.45000 333.780
34.62000 307.039
34.79000 287.929
34.96000 279.987
35.13000 283.946
35.30000 266.011
35.47000 276.736
35.64000 272.825
35.81000 262.080
35.98000 275.688
36.15000 265.284
36.32000 270.822
36.49000 249.315
36.66000 255.942
36.83000 271.157
37.00000 284.446
37.17000 266.806
37.34000 245.871
37.51000 248.012
37.68000 265.994
37.85000 256.633
38.02000 263.322
38.19000 277.073
38.36000 331.642
38.53000 569.537
38.70000 837.677
38.87000 569.532
39.04000 283.370
39.21000 266.336
39.38000 258.454
39.55000 237.752
39.72000 238.131
39.89000 226.245
40.06000 240.611
40.23000 221.286
40.40000 215.087
40.57000 223.261
40.74000 219.126
40.91000 221.992
41.08000 221.806
41.25000 215.314
41.42000 198.676
41.59000 218.933
41.76000 215.376
41.93000 219.039
42.10000 221.493
42.27000 222.296
42.44000 210.082
42.61000 216.743
42.78000 213.370
42.95000 205.118
43.12000 194.225
43.29000 190.750
43.46000 198.775
43.63000 187.167
43.80000 184.142
43.97000 197.439
44.14000 209.630
44.31000 204.834
44.48000 206.456
44.65000 223.795
44.82000 244.666
44.99000 241.652
45.16000 226.973
45.33000 233.481
45.50000 208.243
45.67000 199.193
45.84000 178.430
46.01000 182.253
46.18000 174.612
46.35000 180.737
46.52000 183.893
46.69000 182.259
46.86000 180.288
47.03000 170.765
47.20000 156.689
47.37000 165.955
47.54000 167.542
47.71000 163.139
47.88000 171.873
48.05000 166.612
48.22000 174.670
48.39000 161.191
48.56000 157.112
48.73000 167.822
48.90000 161.628
49.07000 164.765
49.24000 167.483
49.41000 158.341
49.58000 150.781
49.75000 165.389
49.92000 166.531
50.09000 152.445
50.26000 155.415
50.43000 154.079
50.60000 164.708
50.77000 175.483
50.94000 148.297
51.11000 154.474
51.28000 136.782
51.45000 151.334
51.62000 136.219
51.79000 140.762
51.96000 139.877
52.13000 138.369
52.30000 157.235
52.47000 146.328
52.64000 136.374
52.81000 139.909
52.98000 139.568
53.15000 156.309
53.32000 148.882
53.49000 154.462
53.66000 149.761
53.83000 146.909
54.00000 145.369
54.17000 127.179
54.34000 130.653
54.51000 139.915
54.68000 139.514
54.85000 149.527
55.02000 154.571
55.19000 155.789
55.36000 170.883
55.53000 211.211
55.70000 294.544
55.87000 413.464
56.04000 387.516
56.21000 265.273
56.38000 191.547
56.55000 149.255
56.72000 149.385
56.89000 152.041
57.06000 139.458
57.23000 127.835
57.40000 131.731
57.57000 125.536
57.74000 125.088
57.91000 117.398
58.08000 119.133
58.25000 122.093
58.42000 129.469
58.59000 130.077
58.76000 123.298
58.93000 122.742
59.10000 127.410
59.27000 113.658
59.44000 115.720
59.61000 121.814
59.78000 111.216
59.95000 117.441
60.12000 112.139
60.29000 125.426
60.46000 121.184
60.63000 115.447
60.80000 119.848
60.97000 127.363
61.14000 123.895
61.31000 136.291
61.48000 129.643
61.65000 285.753
61.82000 189.292
61.99000 135.215
62.16000 129.252
62.33000 129.477
62.50000 122.881
62.67000 135.481
62.84000 132.217
63.01000 132.376
63.18000 146.132
63.35000 136.697
63.52000 126.417
63.69000 144.872
63.86000 143.028
64.03000 145.961
64.20000 150.122
64.37000 154.827
64.54000 166.388
64.71000 170.215
64.88000 174.076
65.05000 194.695
65.22000 225.962
65.39000 252.065
65.56000 316.286
65.73000 1090.002
65.90000 1926.650
66.07000 477.212
66.24000 391.252
66.41000 641.849
66.58000 390.870
66.75000 341.231
66.92000 363.482
67.09000 372.986
67.26000 399.104
67.43000 400.078
67.60000 443.601
67.77000 444.279
67.94000 475.074
68.11000 526.500
68.28000 576.649
68.45000 665.748
68.62000 921.763
68.79000 1632.777
68.96000 10717.531
69.13000 44353.727
69.30000 22934.979
69.47000 4989.165
69.64000 902.672
69.81000 611.522
69.98000 512.562
70.00000 504.223