File: XRD/XRD/08-10-2025 Dep 7/XY Data/BTO_Mapping_Theta2Theta_08-10-2025_001_56_20-074_-22-294.xy
20.00000 484.593
20.17000 462.786
20.34000 469.784
20.51000 480.916
20.68000 460.103
20.85000 470.719
21.02000 497.190
21.19000 443.723
21.36000 457.270
21.53000 484.352
21.70000 480.122
21.87000 497.677
22.04000 519.672
22.21000 510.344
22.38000 485.261
22.55000 468.417
22.72000 450.922
22.89000 436.503
23.06000 440.106
23.23000 452.785
23.40000 456.178
23.57000 463.911
23.74000 493.777
23.91000 553.782
24.08000 561.376
24.25000 476.342
24.42000 452.806
24.59000 434.339
24.76000 411.709
24.93000 408.014
25.10000 406.363
25.27000 408.661
25.44000 402.639
25.61000 388.741
25.78000 409.760
25.95000 421.822
26.12000 400.216
26.29000 398.979
26.46000 389.172
26.63000 388.031
26.80000 389.825
26.97000 396.761
27.14000 386.917
27.31000 398.593
27.48000 384.029
27.65000 383.281
27.82000 385.217
27.99000 363.787
28.16000 365.810
28.33000 364.733
28.50000 379.293
28.67000 367.431
28.84000 356.392
29.01000 369.841
29.18000 356.670
29.35000 352.819
29.52000 366.291
29.69000 357.928
29.86000 384.470
30.03000 384.761
30.20000 392.506
30.37000 364.140
30.54000 382.709
30.71000 392.190
30.88000 404.001
31.05000 555.090
31.22000 893.194
31.39000 1125.150
31.56000 753.340
31.73000 449.368
31.90000 371.877
32.07000 337.247
32.24000 352.993
32.41000 342.382
32.58000 339.997
32.75000 336.628
32.92000 319.547
33.09000 299.020
33.26000 295.706
33.43000 284.576
33.60000 314.690
33.77000 309.152
33.94000 316.273
34.11000 324.486
34.28000 343.134
34.45000 340.997
34.62000 334.448
34.79000 297.069
34.96000 283.831
35.13000 258.412
35.30000 260.809
35.47000 277.533
35.64000 270.799
35.81000 276.259
35.98000 263.926
36.15000 262.212
36.32000 264.462
36.49000 263.549
36.66000 257.298
36.83000 276.537
37.00000 278.051
37.17000 280.629
37.34000 246.904
37.51000 242.921
37.68000 245.246
37.85000 253.713
38.02000 270.583
38.19000 270.574
38.36000 329.248
38.53000 610.316
38.70000 928.912
38.87000 608.417
39.04000 306.905
39.21000 267.413
39.38000 246.146
39.55000 229.258
39.72000 232.815
39.89000 247.684
40.06000 231.259
40.23000 216.413
40.40000 228.272
40.57000 219.673
40.74000 220.342
40.91000 208.294
41.08000 226.589
41.25000 207.300
41.42000 210.412
41.59000 213.187
41.76000 213.254
41.93000 216.566
42.10000 216.366
42.27000 242.422
42.44000 237.894
42.61000 220.111
42.78000 205.650
42.95000 211.053
43.12000 198.257
43.29000 212.819
43.46000 199.665
43.63000 195.207
43.80000 206.176
43.97000 201.878
44.14000 199.005
44.31000 201.865
44.48000 209.464
44.65000 221.983
44.82000 246.285
44.99000 232.243
45.16000 244.742
45.33000 227.329
45.50000 202.726
45.67000 198.257
45.84000 185.515
46.01000 177.058
46.18000 175.628
46.35000 180.192
46.52000 190.665
46.69000 171.152
46.86000 173.261
47.03000 174.682
47.20000 168.360
47.37000 166.116
47.54000 162.995
47.71000 165.188
47.88000 162.788
48.05000 148.629
48.22000 163.332
48.39000 160.319
48.56000 157.521
48.73000 161.978
48.90000 160.195
49.07000 165.097
49.24000 155.918
49.41000 161.034
49.58000 163.074
49.75000 144.790
49.92000 167.276
50.09000 158.850
50.26000 153.151
50.43000 169.194
50.60000 160.181
50.77000 160.062
50.94000 159.880
51.11000 158.228
51.28000 143.614
51.45000 138.932
51.62000 156.128
51.79000 150.146
51.96000 142.076
52.13000 140.034
52.30000 144.646
52.47000 140.050
52.64000 130.423
52.81000 152.255
52.98000 145.957
53.15000 145.385
53.32000 159.919
53.49000 155.113
53.66000 146.922
53.83000 153.549
54.00000 154.936
54.17000 141.728
54.34000 137.567
54.51000 146.965
54.68000 152.672
54.85000 146.864
55.02000 150.758
55.19000 154.001
55.36000 178.684
55.53000 227.427
55.70000 342.307
55.87000 446.940
56.04000 440.332
56.21000 298.645
56.38000 189.783
56.55000 149.574
56.72000 151.173
56.89000 136.576
57.06000 135.084
57.23000 128.396
57.40000 115.485
57.57000 129.529
57.74000 136.566
57.91000 123.173
58.08000 129.165
58.25000 132.157
58.42000 124.638
58.59000 124.279
58.76000 120.015
58.93000 120.341
59.10000 120.584
59.27000 115.059
59.44000 115.296
59.61000 120.921
59.78000 118.712
59.95000 121.110
60.12000 120.374
60.29000 118.451
60.46000 113.186
60.63000 116.035
60.80000 123.944
60.97000 120.549
61.14000 124.739
61.31000 122.545
61.48000 134.756
61.65000 273.125
61.82000 178.591
61.99000 133.054
62.16000 124.942
62.33000 131.483
62.50000 133.013
62.67000 126.530
62.84000 119.456
63.01000 141.798
63.18000 138.370
63.35000 137.489
63.52000 145.865
63.69000 138.480
63.86000 145.521
64.03000 142.556
64.20000 145.986
64.37000 149.978
64.54000 169.539
64.71000 160.749
64.88000 187.421
65.05000 185.129
65.22000 221.355
65.39000 259.485
65.56000 325.419
65.73000 1088.519
65.90000 1862.709
66.07000 488.131
66.24000 381.630
66.41000 610.362
66.58000 386.269
66.75000 331.567
66.92000 365.227
67.09000 366.403
67.26000 382.680
67.43000 401.777
67.60000 429.184
67.77000 459.822
67.94000 476.535
68.11000 528.845
68.28000 562.136
68.45000 642.131
68.62000 909.430
68.79000 1636.220
68.96000 11274.325
69.13000 43465.949
69.30000 21927.088
69.47000 4569.583
69.64000 876.767
69.81000 606.402
69.98000 492.620
70.00000 498.384