File: XRD/XRD/08-10-2025 Dep 7/XY Data/BTO_Mapping_Theta2Theta_08-10-2025_001_49_-4-181_-39-781.xy
20.00000 485.696
20.17000 483.501
20.34000 476.893
20.51000 471.051
20.68000 480.491
20.85000 463.102
21.02000 464.413
21.19000 475.716
21.36000 469.986
21.53000 467.598
21.70000 466.508
21.87000 523.665
22.04000 586.419
22.21000 527.317
22.38000 487.903
22.55000 456.814
22.72000 438.517
22.89000 448.848
23.06000 444.167
23.23000 436.486
23.40000 414.766
23.57000 436.102
23.74000 450.886
23.91000 471.712
24.08000 477.581
24.25000 442.390
24.42000 424.909
24.59000 410.212
24.76000 414.911
24.93000 414.735
25.10000 389.104
25.27000 400.536
25.44000 396.104
25.61000 402.740
25.78000 412.120
25.95000 395.005
26.12000 390.965
26.29000 380.221
26.46000 389.529
26.63000 383.687
26.80000 387.748
26.97000 379.289
27.14000 384.458
27.31000 371.187
27.48000 376.023
27.65000 376.032
27.82000 382.311
27.99000 351.318
28.16000 356.100
28.33000 359.212
28.50000 359.614
28.67000 352.567
28.84000 361.356
29.01000 365.716
29.18000 353.495
29.35000 347.322
29.52000 359.259
29.69000 358.211
29.86000 399.308
30.03000 374.246
30.20000 368.875
30.37000 346.523
30.54000 379.807
30.71000 357.528
30.88000 403.455
31.05000 536.004
31.22000 1048.103
31.39000 1336.520
31.56000 755.359
31.73000 414.123
31.90000 345.047
32.07000 319.385
32.24000 329.152
32.41000 323.076
32.58000 316.213
32.75000 313.794
32.92000 318.882
33.09000 299.674
33.26000 287.588
33.43000 306.426
33.60000 304.150
33.77000 290.704
33.94000 315.716
34.11000 321.442
34.28000 347.650
34.45000 346.831
34.62000 307.661
34.79000 298.409
34.96000 290.739
35.13000 282.102
35.30000 267.578
35.47000 260.770
35.64000 263.418
35.81000 261.100
35.98000 257.420
36.15000 262.324
36.32000 257.819
36.49000 265.343
36.66000 275.898
36.83000 276.553
37.00000 295.638
37.17000 276.097
37.34000 269.342
37.51000 256.311
37.68000 258.801
37.85000 253.236
38.02000 251.314
38.19000 268.042
38.36000 413.452
38.53000 858.600
38.70000 1261.897
38.87000 845.439
39.04000 365.728
39.21000 250.922
39.38000 240.509
39.55000 238.241
39.72000 223.354
39.89000 236.691
40.06000 230.377
40.23000 216.446
40.40000 222.349
40.57000 210.441
40.74000 214.475
40.91000 214.060
41.08000 200.180
41.25000 207.374
41.42000 193.162
41.59000 210.027
41.76000 204.816
41.93000 224.537
42.10000 216.534
42.27000 198.882
42.44000 209.409
42.61000 201.159
42.78000 213.345
42.95000 215.165
43.12000 204.838
43.29000 195.324
43.46000 197.096
43.63000 184.336
43.80000 196.154
43.97000 187.975
44.14000 198.038
44.31000 202.303
44.48000 214.977
44.65000 231.890
44.82000 241.302
44.99000 274.940
45.16000 262.684
45.33000 213.746
45.50000 198.876
45.67000 196.970
45.84000 194.662
46.01000 181.763
46.18000 171.961
46.35000 174.185
46.52000 172.388
46.69000 166.990
46.86000 171.482
47.03000 177.742
47.20000 172.584
47.37000 169.040
47.54000 166.794
47.71000 170.423
47.88000 175.550
48.05000 167.634
48.22000 160.542
48.39000 158.720
48.56000 164.082
48.73000 155.831
48.90000 159.988
49.07000 155.721
49.24000 151.208
49.41000 157.260
49.58000 149.973
49.75000 156.430
49.92000 151.549
50.09000 156.892
50.26000 159.531
50.43000 170.544
50.60000 191.662
50.77000 179.978
50.94000 163.978
51.11000 162.177
51.28000 153.316
51.45000 146.658
51.62000 146.749
51.79000 142.677
51.96000 132.700
52.13000 137.246
52.30000 137.488
52.47000 140.528
52.64000 141.831
52.81000 136.800
52.98000 143.883
53.15000 157.368
53.32000 166.691
53.49000 159.866
53.66000 147.683
53.83000 137.768
54.00000 144.834
54.17000 151.944
54.34000 131.388
54.51000 142.106
54.68000 135.082
54.85000 139.739
55.02000 143.263
55.19000 152.186
55.36000 186.829
55.53000 322.101
55.70000 578.837
55.87000 808.744
56.04000 642.596
56.21000 336.817
56.38000 203.386
56.55000 151.664
56.72000 138.354
56.89000 135.771
57.06000 140.533
57.23000 131.037
57.40000 130.302
57.57000 130.124
57.74000 126.390
57.91000 121.198
58.08000 122.441
58.25000 127.308
58.42000 119.243
58.59000 119.622
58.76000 128.543
58.93000 120.943
59.10000 128.287
59.27000 118.725
59.44000 114.567
59.61000 116.826
59.78000 117.398
59.95000 120.450
60.12000 113.993
60.29000 114.389
60.46000 119.706
60.63000 119.650
60.80000 119.910
60.97000 121.016
61.14000 118.629
61.31000 121.842
61.48000 132.224
61.65000 296.865
61.82000 187.098
61.99000 129.127
62.16000 132.999
62.33000 132.542
62.50000 125.223
62.67000 128.912
62.84000 129.863
63.01000 128.840
63.18000 127.025
63.35000 140.501
63.52000 143.959
63.69000 137.344
63.86000 146.002
64.03000 144.097
64.20000 140.456
64.37000 150.263
64.54000 160.988
64.71000 173.912
64.88000 171.144
65.05000 198.077
65.22000 231.259
65.39000 275.440
65.56000 327.205
65.73000 1009.904
65.90000 1976.341
66.07000 513.961
66.24000 381.094
66.41000 637.813
66.58000 406.669
66.75000 359.036
66.92000 356.579
67.09000 364.650
67.26000 386.941
67.43000 415.914
67.60000 401.216
67.77000 445.381
67.94000 481.040
68.11000 506.886
68.28000 575.814
68.45000 644.300
68.62000 891.796
68.79000 1612.016
68.96000 9031.621
69.13000 45283.445
69.30000 24688.217
69.47000 6348.064
69.64000 919.652
69.81000 624.706
69.98000 500.152
70.00000 483.147