File: XRD/XRD/08-10-2025 Dep 7/XY Data/BTO_Mapping_Theta2Theta_08-10-2025_001_11_13-383_14-863.xy
20.00000 479.276
20.17000 466.118
20.34000 487.994
20.51000 489.606
20.68000 476.815
20.85000 469.222
21.02000 471.868
21.19000 476.562
21.36000 462.549
21.53000 461.351
21.70000 492.077
21.87000 477.216
22.04000 507.993
22.21000 506.442
22.38000 472.897
22.55000 475.455
22.72000 441.960
22.89000 421.747
23.06000 445.158
23.23000 441.202
23.40000 435.410
23.57000 447.544
23.74000 487.683
23.91000 528.526
24.08000 521.055
24.25000 457.111
24.42000 438.177
24.59000 433.636
24.76000 407.560
24.93000 405.629
25.10000 399.812
25.27000 409.789
25.44000 401.824
25.61000 409.626
25.78000 385.769
25.95000 393.562
26.12000 382.615
26.29000 387.809
26.46000 375.105
26.63000 402.938
26.80000 382.400
26.97000 397.576
27.14000 379.748
27.31000 369.512
27.48000 369.297
27.65000 373.136
27.82000 364.097
27.99000 365.538
28.16000 375.131
28.33000 349.510
28.50000 364.735
28.67000 355.511
28.84000 360.751
29.01000 367.802
29.18000 340.831
29.35000 360.987
29.52000 359.696
29.69000 365.437
29.86000 376.003
30.03000 390.835
30.20000 382.825
30.37000 360.421
30.54000 353.707
30.71000 390.322
30.88000 404.429
31.05000 503.936
31.22000 843.040
31.39000 1108.565
31.56000 785.883
31.73000 478.554
31.90000 373.057
32.07000 359.453
32.24000 352.751
32.41000 335.079
32.58000 335.776
32.75000 313.554
32.92000 316.099
33.09000 295.080
33.26000 299.533
33.43000 301.692
33.60000 302.506
33.77000 309.578
33.94000 315.450
34.11000 334.699
34.28000 353.688
34.45000 341.206
34.62000 309.031
34.79000 289.728
34.96000 294.530
35.13000 262.649
35.30000 273.706
35.47000 264.875
35.64000 266.931
35.81000 262.083
35.98000 262.459
36.15000 253.999
36.32000 260.434
36.49000 252.026
36.66000 259.948
36.83000 263.399
37.00000 281.103
37.17000 268.526
37.34000 255.666
37.51000 253.553
37.68000 246.549
37.85000 266.753
38.02000 260.136
38.19000 257.066
38.36000 315.954
38.53000 528.413
38.70000 837.994
38.87000 592.794
39.04000 309.563
39.21000 247.666
39.38000 238.941
39.55000 225.642
39.72000 225.081
39.89000 230.092
40.06000 220.803
40.23000 230.894
40.40000 222.714
40.57000 222.000
40.74000 221.543
40.91000 207.639
41.08000 220.101
41.25000 211.025
41.42000 205.701
41.59000 203.968
41.76000 207.884
41.93000 218.687
42.10000 225.872
42.27000 218.953
42.44000 219.675
42.61000 224.336
42.78000 214.980
42.95000 200.782
43.12000 208.091
43.29000 198.917
43.46000 188.186
43.63000 201.134
43.80000 189.501
43.97000 191.082
44.14000 191.278
44.31000 199.300
44.48000 208.408
44.65000 209.147
44.82000 227.871
44.99000 233.790
45.16000 246.976
45.33000 221.707
45.50000 203.802
45.67000 204.028
45.84000 190.781
46.01000 176.406
46.18000 173.922
46.35000 179.743
46.52000 177.542
46.69000 178.234
46.86000 178.961
47.03000 169.643
47.20000 165.257
47.37000 164.054
47.54000 160.591
47.71000 155.842
47.88000 150.428
48.05000 166.661
48.22000 156.070
48.39000 151.364
48.56000 165.940
48.73000 166.243
48.90000 159.676
49.07000 155.836
49.24000 157.216
49.41000 151.702
49.58000 154.375
49.75000 155.759
49.92000 161.148
50.09000 149.788
50.26000 157.362
50.43000 167.608
50.60000 156.875
50.77000 167.418
50.94000 155.857
51.11000 154.643
51.28000 143.755
51.45000 140.529
51.62000 145.241
51.79000 135.999
51.96000 140.224
52.13000 136.546
52.30000 138.633
52.47000 139.432
52.64000 146.830
52.81000 137.075
52.98000 140.429
53.15000 156.225
53.32000 152.573
53.49000 147.718
53.66000 139.064
53.83000 143.727
54.00000 150.144
54.17000 137.289
54.34000 145.183
54.51000 141.517
54.68000 142.187
54.85000 147.025
55.02000 156.132
55.19000 156.839
55.36000 162.188
55.53000 202.066
55.70000 298.600
55.87000 420.690
56.04000 429.603
56.21000 283.048
56.38000 194.705
56.55000 157.837
56.72000 142.559
56.89000 136.536
57.06000 118.745
57.23000 125.941
57.40000 122.287
57.57000 120.430
57.74000 114.564
57.91000 117.150
58.08000 116.177
58.25000 121.524
58.42000 121.451
58.59000 130.202
58.76000 113.567
58.93000 117.400
59.10000 127.396
59.27000 123.622
59.44000 120.215
59.61000 122.782
59.78000 127.981
59.95000 119.111
60.12000 109.582
60.29000 125.749
60.46000 131.451
60.63000 125.767
60.80000 122.427
60.97000 120.907
61.14000 130.989
61.31000 133.593
61.48000 129.918
61.65000 289.935
61.82000 198.058
61.99000 137.828
62.16000 131.339
62.33000 125.689
62.50000 137.304
62.67000 135.174
62.84000 139.350
63.01000 130.951
63.18000 132.010
63.35000 131.981
63.52000 132.847
63.69000 140.082
63.86000 139.140
64.03000 142.435
64.20000 144.746
64.37000 144.948
64.54000 165.288
64.71000 175.361
64.88000 182.705
65.05000 202.013
65.22000 219.144
65.39000 248.115
65.56000 315.571
65.73000 1006.925
65.90000 1886.268
66.07000 477.003
66.24000 388.466
66.41000 629.908
66.58000 402.787
66.75000 358.372
66.92000 357.859
67.09000 383.257
67.26000 396.912
67.43000 424.004
67.60000 437.563
67.77000 464.114
67.94000 488.421
68.11000 521.787
68.28000 579.085
68.45000 647.776
68.62000 894.439
68.79000 1611.454
68.96000 9169.495
69.13000 44065.344
69.30000 23537.250
69.47000 5755.592
69.64000 891.279
69.81000 627.191
69.98000 493.054
70.00000 487.929