File: XRD/XRD/08-10-2025 Dep 7/XY Data/BTO_Mapping_Theta2Theta_08-10-2025_001_07_18-271_8-135.xy
20.00000 500.913
20.17000 457.888
20.34000 461.094
20.51000 473.480
20.68000 463.722
20.85000 464.282
21.02000 491.583
21.19000 476.786
21.36000 457.497
21.53000 452.940
21.70000 479.071
21.87000 497.084
22.04000 504.685
22.21000 499.322
22.38000 466.543
22.55000 446.242
22.72000 439.097
22.89000 456.839
23.06000 445.583
23.23000 452.941
23.40000 436.317
23.57000 469.820
23.74000 484.794
23.91000 531.361
24.08000 528.536
24.25000 470.015
24.42000 444.188
24.59000 418.434
24.76000 421.273
24.93000 406.650
25.10000 395.475
25.27000 402.938
25.44000 410.544
25.61000 396.370
25.78000 374.545
25.95000 384.123
26.12000 395.510
26.29000 385.587
26.46000 395.573
26.63000 392.841
26.80000 405.199
26.97000 372.986
27.14000 385.884
27.31000 377.267
27.48000 353.411
27.65000 377.365
27.82000 360.311
27.99000 374.320
28.16000 378.563
28.33000 358.046
28.50000 372.383
28.67000 360.482
28.84000 353.409
29.01000 357.806
29.18000 366.320
29.35000 352.127
29.52000 364.831
29.69000 362.470
29.86000 388.844
30.03000 377.210
30.20000 388.438
30.37000 366.380
30.54000 359.381
30.71000 389.919
30.88000 404.223
31.05000 510.100
31.22000 829.159
31.39000 1058.434
31.56000 731.692
31.73000 462.408
31.90000 374.134
32.07000 356.993
32.24000 347.968
32.41000 344.577
32.58000 326.761
32.75000 322.040
32.92000 328.188
33.09000 306.188
33.26000 313.258
33.43000 299.533
33.60000 285.897
33.77000 300.690
33.94000 323.617
34.11000 326.905
34.28000 348.671
34.45000 326.271
34.62000 309.578
34.79000 287.224
34.96000 286.575
35.13000 289.580
35.30000 277.919
35.47000 266.989
35.64000 258.332
35.81000 263.141
35.98000 260.471
36.15000 267.662
36.32000 270.921
36.49000 258.451
36.66000 244.635
36.83000 270.108
37.00000 273.059
37.17000 250.306
37.34000 252.492
37.51000 246.732
37.68000 243.800
37.85000 257.995
38.02000 231.912
38.19000 263.397
38.36000 307.126
38.53000 548.241
38.70000 833.379
38.87000 567.453
39.04000 295.729
39.21000 251.927
39.38000 242.693
39.55000 241.982
39.72000 239.724
39.89000 236.620
40.06000 228.772
40.23000 227.030
40.40000 227.824
40.57000 221.195
40.74000 226.831
40.91000 216.771
41.08000 204.527
41.25000 216.304
41.42000 220.890
41.59000 204.483
41.76000 213.611
41.93000 218.293
42.10000 224.878
42.27000 221.548
42.44000 209.245
42.61000 215.205
42.78000 205.595
42.95000 208.867
43.12000 203.260
43.29000 199.040
43.46000 188.838
43.63000 195.403
43.80000 194.375
43.97000 201.424
44.14000 193.835
44.31000 195.992
44.48000 205.013
44.65000 233.616
44.82000 227.961
44.99000 228.981
45.16000 225.763
45.33000 221.383
45.50000 203.394
45.67000 193.342
45.84000 188.353
46.01000 174.230
46.18000 187.623
46.35000 170.179
46.52000 177.986
46.69000 169.937
46.86000 178.412
47.03000 165.032
47.20000 169.613
47.37000 160.545
47.54000 171.182
47.71000 154.696
47.88000 176.643
48.05000 165.076
48.22000 166.356
48.39000 162.908
48.56000 162.128
48.73000 159.841
48.90000 158.800
49.07000 162.511
49.24000 160.364
49.41000 163.562
49.58000 148.952
49.75000 160.936
49.92000 152.295
50.09000 156.692
50.26000 160.025
50.43000 164.076
50.60000 153.253
50.77000 165.209
50.94000 163.601
51.11000 145.847
51.28000 150.418
51.45000 138.073
51.62000 139.677
51.79000 144.839
51.96000 146.325
52.13000 141.798
52.30000 139.762
52.47000 133.384
52.64000 145.553
52.81000 144.259
52.98000 146.094
53.15000 141.329
53.32000 156.111
53.49000 142.110
53.66000 140.616
53.83000 141.069
54.00000 154.002
54.17000 145.050
54.34000 136.608
54.51000 151.358
54.68000 142.049
54.85000 150.456
55.02000 145.689
55.19000 151.013
55.36000 177.778
55.53000 199.192
55.70000 299.617
55.87000 392.341
56.04000 391.080
56.21000 273.842
56.38000 186.853
56.55000 163.824
56.72000 141.183
56.89000 136.756
57.06000 155.134
57.23000 141.374
57.40000 114.662
57.57000 119.528
57.74000 136.307
57.91000 127.816
58.08000 125.238
58.25000 122.844
58.42000 118.306
58.59000 122.856
58.76000 122.779
58.93000 124.021
59.10000 121.396
59.27000 125.204
59.44000 116.930
59.61000 122.649
59.78000 116.041
59.95000 114.063
60.12000 114.284
60.29000 125.493
60.46000 123.250
60.63000 114.939
60.80000 121.133
60.97000 121.540
61.14000 127.207
61.31000 125.518
61.48000 138.310
61.65000 281.037
61.82000 190.945
61.99000 131.716
62.16000 130.147
62.33000 134.557
62.50000 127.095
62.67000 130.072
62.84000 134.807
63.01000 134.810
63.18000 138.566
63.35000 139.711
63.52000 138.527
63.69000 130.430
63.86000 145.181
64.03000 140.589
64.20000 144.092
64.37000 162.599
64.54000 144.668
64.71000 182.800
64.88000 192.567
65.05000 214.325
65.22000 219.365
65.39000 241.459
65.56000 318.972
65.73000 1065.526
65.90000 1901.594
66.07000 484.052
66.24000 375.428
66.41000 617.533
66.58000 414.749
66.75000 350.049
66.92000 353.037
67.09000 374.328
67.26000 379.318
67.43000 422.621
67.60000 428.356
67.77000 458.572
67.94000 476.684
68.11000 513.265
68.28000 588.089
68.45000 659.055
68.62000 916.216
68.79000 1615.625
68.96000 10085.533
69.13000 44203.168
69.30000 23108.672
69.47000 5278.665
69.64000 897.108
69.81000 598.938
69.98000 502.633
70.00000 490.073