File: XRD/XRD/17-11-2025 Crystal Plates/XY Data/Deposition_9-3.xy
20.00000 698.569
20.17000 708.811
20.34000 702.633
20.51000 783.907
20.68000 747.861
20.85000 715.798
21.02000 716.504
21.19000 734.111
21.36000 744.737
21.53000 784.551
21.70000 1062.181
21.87000 1488.251
22.04000 1208.086
22.21000 1042.637
22.38000 1087.033
22.55000 1671.346
22.72000 38462.762
22.89000 24279.008
23.06000 1102.085
23.23000 847.856
23.40000 748.780
23.57000 700.538
23.74000 691.976
23.91000 721.904
24.08000 694.223
24.25000 658.816
24.42000 637.365
24.59000 618.199
24.76000 634.303
24.93000 615.012
25.10000 582.545
25.27000 592.721
25.44000 573.386
25.61000 561.474
25.78000 586.663
25.95000 554.715
26.12000 576.309
26.29000 568.135
26.46000 553.140
26.63000 542.679
26.80000 572.040
26.97000 567.545
27.14000 532.736
27.31000 537.508
27.48000 552.944
27.65000 542.941
27.82000 551.336
27.99000 519.593
28.16000 546.230
28.33000 538.452
28.50000 544.026
28.67000 551.273
28.84000 565.799
29.01000 538.357
29.18000 539.177
29.35000 519.465
29.52000 519.420
29.69000 530.848
29.86000 527.914
30.03000 510.149
30.20000 518.900
30.37000 505.817
30.54000 524.699
30.71000 535.712
30.88000 600.403
31.05000 797.335
31.22000 1147.714
31.39000 1261.406
31.56000 882.906
31.73000 614.945
31.90000 536.097
32.07000 513.111
32.24000 479.669
32.41000 449.591
32.58000 434.671
32.75000 453.889
32.92000 446.241
33.09000 412.626
33.26000 412.326
33.43000 432.988
33.60000 422.840
33.77000 422.219
33.94000 423.780
34.11000 440.700
34.28000 412.463
34.45000 393.156
34.62000 434.226
34.79000 399.401
34.96000 410.800
35.13000 378.923
35.30000 389.426
35.47000 417.944
35.64000 386.078
35.81000 371.813
35.98000 407.439
36.15000 396.993
36.32000 372.053
36.49000 385.131
36.66000 372.125
36.83000 387.631
37.00000 357.055
37.17000 367.062
37.34000 368.514
37.51000 368.455
37.68000 353.039
37.85000 389.049
38.02000 358.672
38.19000 389.296
38.36000 434.332
38.53000 510.982
38.70000 603.897
38.87000 491.749
39.04000 398.157
39.21000 362.860
39.38000 348.661
39.55000 357.430
39.72000 344.201
39.89000 340.693
40.06000 347.158
40.23000 325.733
40.40000 347.911
40.57000 342.293
40.74000 336.414
40.91000 343.217
41.08000 344.503
41.25000 339.291
41.42000 369.287
41.59000 396.692
41.76000 856.799
41.93000 568.432
42.10000 397.943
42.27000 415.289
42.44000 389.464
42.61000 400.000
42.78000 395.706
42.95000 400.910
43.12000 430.225
43.29000 428.684
43.46000 457.733
43.63000 445.065
43.80000 514.878
43.97000 567.689
44.14000 658.236
44.31000 2062.890
44.48000 4094.224
44.65000 1538.758
44.82000 1858.093
44.99000 1356.782
45.16000 1329.245
45.33000 1387.950
45.50000 1449.694
45.67000 1696.323
45.84000 2010.939
46.01000 2610.948
46.18000 6076.999
46.35000 112563.359
46.52000 330389.938
46.69000 93830.211
46.86000 4886.492
47.03000 2687.262
47.20000 1987.117
47.37000 1539.433
47.54000 1200.340
47.71000 960.509
47.88000 813.384
48.05000 649.047
48.22000 561.141
48.39000 499.151
48.56000 448.594
48.73000 426.215
48.90000 390.056
49.07000 361.514
49.24000 354.012
49.41000 345.478
49.58000 332.527
49.75000 310.530
49.92000 290.168
50.09000 299.705
50.26000 298.882
50.43000 310.277
50.60000 308.961
50.77000 300.760
50.94000 316.009
51.11000 282.459
51.28000 264.432
51.45000 242.628
51.62000 246.730
51.79000 237.206
51.96000 217.199
52.13000 229.704
52.30000 222.921
52.47000 222.377
52.64000 203.465
52.81000 215.052
52.98000 222.394
53.15000 212.754
53.32000 224.675
53.49000 228.213
53.66000 212.126
53.83000 209.196
54.00000 198.358
54.17000 198.882
54.34000 193.729
54.51000 200.602
54.68000 201.548
54.85000 192.976
55.02000 215.727
55.19000 225.997
55.36000 229.397
55.53000 258.113
55.70000 311.316
55.87000 350.788
56.04000 305.046
56.21000 261.704
56.38000 220.983
56.55000 204.463
56.72000 192.110
56.89000 184.918
57.06000 179.493
57.23000 182.264
57.40000 184.160
57.57000 177.620
57.74000 175.564
57.91000 178.066
58.08000 165.063
58.25000 161.889
58.42000 166.993
58.59000 161.598
58.76000 165.189
58.93000 162.920
59.10000 158.227
59.27000 155.262
59.44000 158.688
59.61000 147.995
59.78000 150.876
59.95000 145.860
60.12000 162.763
60.29000 154.735
60.46000 148.836
60.63000 142.470
60.80000 158.983
60.97000 154.765
61.14000 152.693
61.31000 148.462
61.48000 149.088
61.65000 160.850
61.82000 151.514
61.99000 148.011
62.16000 140.554
62.33000 145.965
62.50000 146.266
62.67000 148.974
62.84000 137.644
63.01000 151.326
63.18000 143.684
63.35000 136.038
63.52000 142.516
63.69000 139.852
63.86000 152.819
64.03000 144.755
64.20000 149.543
64.37000 144.938
64.54000 153.305
64.71000 168.105
64.88000 158.596
65.05000 166.311
65.22000 164.910
65.39000 183.311
65.56000 186.144
65.73000 169.826
65.90000 158.413
66.07000 145.937
66.24000 140.582
66.41000 132.511
66.58000 141.596
66.75000 137.085
66.92000 142.427
67.09000 137.818
67.26000 135.565
67.43000 135.805
67.60000 120.150
67.77000 127.098
67.94000 133.192
68.11000 127.488
68.28000 137.173
68.45000 138.017
68.62000 143.615
68.79000 146.054
68.96000 191.199
69.13000 262.172
69.30000 162.450
69.47000 157.636
69.64000 177.834
69.81000 183.092
69.98000 169.558
70.00000 173.916