File: XRD/XRD/17-11-2025 Crystal Plates/XY Data/Deposition_11-3.xy
20.00000 718.414
20.17000 705.092
20.34000 747.190
20.51000 800.105
20.68000 797.076
20.85000 849.083
21.02000 974.235
21.19000 1027.132
21.36000 1233.674
21.53000 1777.665
21.70000 4893.252
21.87000 14691.671
22.04000 14950.715
22.21000 4929.967
22.38000 1930.622
22.55000 2594.249
22.72000 48052.449
22.89000 23578.137
23.06000 1186.653
23.23000 902.047
23.40000 783.261
23.57000 704.274
23.74000 687.883
23.91000 627.845
24.08000 618.256
24.25000 626.203
24.42000 604.170
24.59000 589.570
24.76000 575.666
24.93000 589.059
25.10000 590.228
25.27000 583.019
25.44000 554.007
25.61000 554.709
25.78000 560.456
25.95000 560.107
26.12000 533.605
26.29000 558.347
26.46000 530.884
26.63000 542.194
26.80000 537.891
26.97000 514.587
27.14000 535.160
27.31000 528.345
27.48000 523.672
27.65000 513.175
27.82000 525.366
27.99000 508.996
28.16000 529.230
28.33000 508.140
28.50000 507.783
28.67000 486.232
28.84000 483.642
29.01000 494.049
29.18000 474.530
29.35000 512.573
29.52000 471.572
29.69000 470.799
29.86000 488.310
30.03000 462.732
30.20000 461.997
30.37000 447.157
30.54000 465.175
30.71000 460.423
30.88000 441.239
31.05000 442.543
31.22000 441.512
31.39000 437.386
31.56000 436.336
31.73000 436.444
31.90000 450.704
32.07000 417.086
32.24000 419.001
32.41000 416.159
32.58000 438.388
32.75000 405.575
32.92000 412.051
33.09000 420.637
33.26000 394.850
33.43000 407.391
33.60000 393.326
33.77000 389.284
33.94000 384.335
34.11000 375.842
34.28000 395.157
34.45000 377.626
34.62000 397.483
34.79000 380.444
34.96000 377.808
35.13000 371.832
35.30000 361.216
35.47000 366.113
35.64000 360.029
35.81000 361.962
35.98000 376.517
36.15000 363.901
36.32000 369.926
36.49000 353.555
36.66000 361.733
36.83000 347.885
37.00000 351.807
37.17000 341.951
37.34000 340.520
37.51000 332.514
37.68000 352.200
37.85000 350.427
38.02000 339.400
38.19000 331.261
38.36000 346.214
38.53000 340.294
38.70000 327.524
38.87000 332.981
39.04000 321.493
39.21000 346.738
39.38000 332.147
39.55000 332.735
39.72000 326.843
39.89000 342.412
40.06000 351.727
40.23000 342.590
40.40000 339.160
40.57000 333.741
40.74000 336.246
40.91000 335.178
41.08000 336.066
41.25000 351.390
41.42000 373.277
41.59000 423.348
41.76000 952.641
41.93000 514.490
42.10000 413.017
42.27000 437.500
42.44000 499.472
42.61000 584.109
42.78000 626.834
42.95000 711.232
43.12000 699.770
43.29000 753.134
43.46000 843.925
43.63000 1063.368
43.80000 1305.499
43.97000 1738.286
44.14000 2755.925
44.31000 6605.290
44.48000 12285.380
44.65000 15051.811
44.82000 18532.855
44.99000 14610.561
45.16000 7742.888
45.33000 3922.684
45.50000 2636.193
45.67000 2376.754
45.84000 2507.497
46.01000 3182.028
46.18000 7170.478
46.35000 153454.688
46.52000 351103.688
46.69000 89476.086
46.86000 5049.416
47.03000 2897.698
47.20000 2146.520
47.37000 1629.716
47.54000 1299.030
47.71000 1044.803
47.88000 847.691
48.05000 707.512
48.22000 608.137
48.39000 528.592
48.56000 479.174
48.73000 420.154
48.90000 407.520
49.07000 384.111
49.24000 360.506
49.41000 344.545
49.58000 336.117
49.75000 323.610
49.92000 301.917
50.09000 282.900
50.26000 287.688
50.43000 265.591
50.60000 266.979
50.77000 275.722
50.94000 287.935
51.11000 261.507
51.28000 249.684
51.45000 228.342
51.62000 228.726
51.79000 220.020
51.96000 220.233
52.13000 217.399
52.30000 228.519
52.47000 219.476
52.64000 228.697
52.81000 205.889
52.98000 214.988
53.15000 198.566
53.32000 209.003
53.49000 218.610
53.66000 192.577
53.83000 197.471
54.00000 201.283
54.17000 189.408
54.34000 194.534
54.51000 177.468
54.68000 181.511
54.85000 189.476
55.02000 197.062
55.19000 189.594
55.36000 186.732
55.53000 192.192
55.70000 225.788
55.87000 235.941
56.04000 238.260
56.21000 200.467
56.38000 191.611
56.55000 174.683
56.72000 173.524
56.89000 180.220
57.06000 164.562
57.23000 170.204
57.40000 160.895
57.57000 160.624
57.74000 162.017
57.91000 163.499
58.08000 166.438
58.25000 164.253
58.42000 161.275
58.59000 161.576
58.76000 153.143
58.93000 149.455
59.10000 157.514
59.27000 154.765
59.44000 155.636
59.61000 147.162
59.78000 158.044
59.95000 142.848
60.12000 155.575
60.29000 152.549
60.46000 140.542
60.63000 153.074
60.80000 134.402
60.97000 141.593
61.14000 147.794
61.31000 151.900
61.48000 143.564
61.65000 150.367
61.82000 143.092
61.99000 134.792
62.16000 148.109
62.33000 137.118
62.50000 138.422
62.67000 137.556
62.84000 142.479
63.01000 142.813
63.18000 133.051
63.35000 131.540
63.52000 132.932
63.69000 136.966
63.86000 134.035
64.03000 144.270
64.20000 128.494
64.37000 132.212
64.54000 158.376
64.71000 154.584
64.88000 144.772
65.05000 136.910
65.22000 132.204
65.39000 132.191
65.56000 140.000
65.73000 136.834
65.90000 124.468
66.07000 136.534
66.24000 133.179
66.41000 126.033
66.58000 135.024
66.75000 129.836
66.92000 138.636
67.09000 137.260
67.26000 135.306
67.43000 141.396
67.60000 147.203
67.77000 134.304
67.94000 135.808
68.11000 145.689
68.28000 145.039
68.45000 162.796
68.62000 164.207
68.79000 181.528
68.96000 251.572
69.13000 353.693
69.30000 321.504
69.47000 372.905
69.64000 424.337
69.81000 469.947
69.98000 435.685
70.00000 427.130