File: XRD/XRD/17-11-2025 Crystal Plates/XY Data/Deposition_11-2.xy
20.00000 703.611
20.17000 738.175
20.34000 734.473
20.51000 807.591
20.68000 829.337
20.85000 1204.927
21.02000 1138.835
21.19000 1090.870
21.36000 1456.736
21.53000 3228.761
21.70000 27019.678
21.87000 40962.973
22.04000 3848.725
22.21000 1520.977
22.38000 1240.313
22.55000 2149.142
22.72000 43927.145
22.89000 22277.361
23.06000 1116.584
23.23000 888.529
23.40000 748.668
23.57000 692.935
23.74000 678.631
23.91000 627.229
24.08000 624.938
24.25000 634.562
24.42000 622.565
24.59000 618.867
24.76000 593.214
24.93000 590.915
25.10000 580.274
25.27000 571.031
25.44000 569.974
25.61000 575.933
25.78000 559.895
25.95000 567.676
26.12000 578.529
26.29000 564.124
26.46000 534.555
26.63000 549.249
26.80000 556.118
26.97000 523.859
27.14000 519.277
27.31000 516.191
27.48000 518.380
27.65000 512.081
27.82000 515.697
27.99000 487.106
28.16000 502.287
28.33000 504.072
28.50000 496.495
28.67000 506.455
28.84000 497.001
29.01000 486.367
29.18000 461.204
29.35000 483.049
29.52000 473.163
29.69000 467.625
29.86000 474.591
30.03000 461.038
30.20000 452.391
30.37000 469.939
30.54000 466.321
30.71000 452.587
30.88000 485.737
31.05000 454.045
31.22000 435.134
31.39000 433.372
31.56000 434.996
31.73000 451.517
31.90000 418.846
32.07000 427.343
32.24000 439.553
32.41000 440.102
32.58000 411.290
32.75000 406.311
32.92000 397.062
33.09000 391.325
33.26000 405.485
33.43000 414.123
33.60000 396.789
33.77000 411.904
33.94000 385.220
34.11000 404.337
34.28000 376.733
34.45000 387.186
34.62000 396.858
34.79000 390.342
34.96000 386.262
35.13000 383.251
35.30000 378.844
35.47000 377.194
35.64000 369.371
35.81000 367.700
35.98000 392.832
36.15000 366.662
36.32000 366.640
36.49000 358.430
36.66000 352.332
36.83000 351.248
37.00000 352.961
37.17000 355.647
37.34000 348.446
37.51000 350.604
37.68000 361.148
37.85000 344.341
38.02000 358.178
38.19000 341.038
38.36000 362.917
38.53000 342.866
38.70000 340.509
38.87000 351.064
39.04000 338.157
39.21000 340.383
39.38000 353.121
39.55000 333.025
39.72000 371.777
39.89000 440.636
40.06000 438.889
40.23000 369.764
40.40000 330.095
40.57000 357.502
40.74000 354.577
40.91000 367.438
41.08000 366.674
41.25000 393.304
41.42000 404.614
41.59000 453.330
41.76000 951.216
41.93000 618.157
42.10000 530.050
42.27000 659.903
42.44000 1112.666
42.61000 1094.174
42.78000 795.385
42.95000 799.255
43.12000 785.514
43.29000 938.079
43.46000 1155.503
43.63000 1535.445
43.80000 2241.578
43.97000 4138.712
44.14000 9946.505
44.31000 33994.969
44.48000 72012.336
44.65000 29146.965
44.82000 5330.874
44.99000 2445.128
45.16000 1967.036
45.33000 1903.346
45.50000 1976.653
45.67000 2081.999
45.84000 2372.216
46.01000 3027.721
46.18000 7031.066
46.35000 146172.875
46.52000 341193.250
46.69000 90463.672
46.86000 5048.629
47.03000 2881.676
47.20000 2161.282
47.37000 1616.230
47.54000 1307.280
47.71000 1054.144
47.88000 853.983
48.05000 705.161
48.22000 620.447
48.39000 553.337
48.56000 487.361
48.73000 454.670
48.90000 417.474
49.07000 396.619
49.24000 367.404
49.41000 345.447
49.58000 323.680
49.75000 321.390
49.92000 327.900
50.09000 294.098
50.26000 284.279
50.43000 292.334
50.60000 270.797
50.77000 292.749
50.94000 285.963
51.11000 258.821
51.28000 259.402
51.45000 243.545
51.62000 239.947
51.79000 235.715
51.96000 225.339
52.13000 218.748
52.30000 207.932
52.47000 217.721
52.64000 218.060
52.81000 215.396
52.98000 204.215
53.15000 204.248
53.32000 200.391
53.49000 201.896
53.66000 197.775
53.83000 206.857
54.00000 206.405
54.17000 194.879
54.34000 183.992
54.51000 190.086
54.68000 180.135
54.85000 175.913
55.02000 172.608
55.19000 183.062
55.36000 184.793
55.53000 175.267
55.70000 177.020
55.87000 170.754
56.04000 180.863
56.21000 181.866
56.38000 176.885
56.55000 178.866
56.72000 171.274
56.89000 181.200
57.06000 164.905
57.23000 172.254
57.40000 161.488
57.57000 157.137
57.74000 173.163
57.91000 158.337
58.08000 158.230
58.25000 154.383
58.42000 159.493
58.59000 157.933
58.76000 157.762
58.93000 154.317
59.10000 160.901
59.27000 162.155
59.44000 147.473
59.61000 156.152
59.78000 142.486
59.95000 155.671
60.12000 154.942
60.29000 155.896
60.46000 151.323
60.63000 147.198
60.80000 155.285
60.97000 140.357
61.14000 156.966
61.31000 150.947
61.48000 140.880
61.65000 147.534
61.82000 148.510
61.99000 145.595
62.16000 145.729
62.33000 136.470
62.50000 142.427
62.67000 153.572
62.84000 143.201
63.01000 144.899
63.18000 141.475
63.35000 147.437
63.52000 137.287
63.69000 136.684
63.86000 133.535
64.03000 135.474
64.20000 126.187
64.37000 136.653
64.54000 150.268
64.71000 156.281
64.88000 138.149
65.05000 143.370
65.22000 135.186
65.39000 140.802
65.56000 147.265
65.73000 148.513
65.90000 158.116
66.07000 134.202
66.24000 129.512
66.41000 139.186
66.58000 133.674
66.75000 135.316
66.92000 144.616
67.09000 135.733
67.26000 152.613
67.43000 132.332
67.60000 150.589
67.77000 136.561
67.94000 162.012
68.11000 164.766
68.28000 179.657
68.45000 215.813
68.62000 281.796
68.79000 417.111
68.96000 785.461
69.13000 1490.128
69.30000 1085.783
69.47000 531.843
69.64000 260.760
69.81000 191.199
69.98000 169.021
70.00000 171.448