File: XRD/XRD/17-11-2025 Crystal Plates/XY Data/Deposition_9-2.xy
20.00000 725.932
20.17000 730.755
20.34000 720.589
20.51000 771.510
20.68000 746.353
20.85000 731.948
21.02000 825.206
21.19000 896.375
21.36000 870.107
21.53000 1102.236
21.70000 2095.470
21.87000 7244.618
22.04000 9997.623
22.21000 3752.910
22.38000 1631.760
22.55000 1917.454
22.72000 32340.332
22.89000 16843.014
23.06000 1049.898
23.23000 835.325
23.40000 731.346
23.57000 682.344
23.74000 684.877
23.91000 701.250
24.08000 688.396
24.25000 645.010
24.42000 603.454
24.59000 601.748
24.76000 602.340
24.93000 618.886
25.10000 591.420
25.27000 580.218
25.44000 576.238
25.61000 572.378
25.78000 578.608
25.95000 558.763
26.12000 583.580
26.29000 557.969
26.46000 572.998
26.63000 538.720
26.80000 535.132
26.97000 553.157
27.14000 528.268
27.31000 540.181
27.48000 531.151
27.65000 531.142
27.82000 508.873
27.99000 531.066
28.16000 503.932
28.33000 506.511
28.50000 502.822
28.67000 486.636
28.84000 504.141
29.01000 491.565
29.18000 466.495
29.35000 486.422
29.52000 475.257
29.69000 494.706
29.86000 493.910
30.03000 480.467
30.20000 475.574
30.37000 487.528
30.54000 472.423
30.71000 473.042
30.88000 480.838
31.05000 492.944
31.22000 603.897
31.39000 678.184
31.56000 562.343
31.73000 465.578
31.90000 451.156
32.07000 432.187
32.24000 492.321
32.41000 569.332
32.58000 411.279
32.75000 423.954
32.92000 420.743
33.09000 423.488
33.26000 433.674
33.43000 423.626
33.60000 412.466
33.77000 419.003
33.94000 406.888
34.11000 426.533
34.28000 424.291
34.45000 417.685
34.62000 409.518
34.79000 393.593
34.96000 396.854
35.13000 378.127
35.30000 384.778
35.47000 383.627
35.64000 376.902
35.81000 360.748
35.98000 380.642
36.15000 368.257
36.32000 359.441
36.49000 366.552
36.66000 352.131
36.83000 343.172
37.00000 355.834
37.17000 361.269
37.34000 355.527
37.51000 324.156
37.68000 343.256
37.85000 338.068
38.02000 348.471
38.19000 345.663
38.36000 384.957
38.53000 387.916
38.70000 423.615
38.87000 384.008
39.04000 342.301
39.21000 334.196
39.38000 330.597
39.55000 333.809
39.72000 335.078
39.89000 342.416
40.06000 339.131
40.23000 342.496
40.40000 342.559
40.57000 355.391
40.74000 321.156
40.91000 334.187
41.08000 318.126
41.25000 335.142
41.42000 348.548
41.59000 398.234
41.76000 845.363
41.93000 504.414
42.10000 388.830
42.27000 395.785
42.44000 432.021
42.61000 500.246
42.78000 569.240
42.95000 596.446
43.12000 591.810
43.29000 578.998
43.46000 625.098
43.63000 702.716
43.80000 819.875
43.97000 1015.087
44.14000 1406.007
44.31000 3558.891
44.48000 6921.269
44.65000 9755.434
44.82000 14678.707
44.99000 12042.801
45.16000 6697.877
45.33000 3494.691
45.50000 2445.755
45.67000 2206.765
45.84000 2246.017
46.01000 2690.738
46.18000 6037.037
46.35000 123638.211
46.52000 293595.375
46.69000 76523.492
46.86000 4317.359
47.03000 2506.932
47.20000 1820.342
47.37000 1385.898
47.54000 1119.126
47.71000 921.805
47.88000 725.853
48.05000 627.548
48.22000 543.037
48.39000 484.826
48.56000 458.802
48.73000 407.867
48.90000 386.177
49.07000 364.075
49.24000 318.529
49.41000 329.004
49.58000 321.717
49.75000 282.527
49.92000 295.246
50.09000 273.221
50.26000 280.471
50.43000 273.145
50.60000 273.323
50.77000 295.340
50.94000 288.366
51.11000 242.660
51.28000 250.060
51.45000 234.755
51.62000 233.250
51.79000 241.526
51.96000 226.912
52.13000 223.552
52.30000 206.984
52.47000 212.909
52.64000 210.481
52.81000 207.096
52.98000 234.327
53.15000 232.934
53.32000 234.088
53.49000 231.521
53.66000 206.403
53.83000 230.515
54.00000 215.840
54.17000 222.696
54.34000 212.395
54.51000 202.893
54.68000 197.869
54.85000 201.799
55.02000 218.012
55.19000 252.781
55.36000 270.316
55.53000 452.126
55.70000 1007.398
55.87000 1743.436
56.04000 1476.269
56.21000 778.461
56.38000 372.645
56.55000 246.296
56.72000 234.796
56.89000 211.806
57.06000 204.703
57.23000 178.589
57.40000 176.255
57.57000 179.957
57.74000 174.495
57.91000 165.049
58.08000 160.030
58.25000 171.177
58.42000 176.337
58.59000 169.889
58.76000 164.855
58.93000 160.821
59.10000 169.267
59.27000 159.182
59.44000 162.953
59.61000 162.941
59.78000 158.888
59.95000 153.764
60.12000 159.127
60.29000 153.255
60.46000 153.988
60.63000 155.338
60.80000 163.701
60.97000 147.582
61.14000 166.679
61.31000 151.182
61.48000 148.007
61.65000 152.124
61.82000 144.545
61.99000 146.706
62.16000 151.159
62.33000 142.419
62.50000 142.623
62.67000 146.898
62.84000 140.659
63.01000 137.924
63.18000 137.734
63.35000 139.707
63.52000 141.845
63.69000 134.710
63.86000 147.427
64.03000 140.103
64.20000 125.473
64.37000 149.784
64.54000 152.121
64.71000 159.760
64.88000 132.563
65.05000 136.630
65.22000 143.571
65.39000 148.958
65.56000 151.729
65.73000 145.883
65.90000 130.954
66.07000 140.016
66.24000 134.536
66.41000 141.391
66.58000 133.072
66.75000 133.186
66.92000 139.232
67.09000 131.967
67.26000 132.816
67.43000 132.177
67.60000 142.473
67.77000 132.953
67.94000 137.482
68.11000 139.753
68.28000 135.709
68.45000 141.659
68.62000 159.628
68.79000 169.702
68.96000 226.332
69.13000 286.145
69.30000 247.539
69.47000 329.474
69.64000 436.553
69.81000 554.224
69.98000 622.271
70.00000 627.025