File: XRD/XRD/17-11-2025 Crystal Plates/XY Data/STO_Crystal_Raw.xy
20.00000 674.534
20.17000 678.786
20.34000 667.761
20.51000 749.101
20.68000 684.927
20.85000 675.421
21.02000 666.777
21.19000 687.490
21.36000 676.286
21.53000 665.944
21.70000 976.164
21.87000 1279.014
22.04000 886.307
22.21000 868.843
22.38000 963.575
22.55000 2017.256
22.72000 53447.984
22.89000 30765.939
23.06000 1228.253
23.23000 895.979
23.40000 740.234
23.57000 684.318
23.74000 648.498
23.91000 628.197
24.08000 612.890
24.25000 573.965
24.42000 615.072
24.59000 582.576
24.76000 596.105
24.93000 582.449
25.10000 558.151
25.27000 544.864
25.44000 560.640
25.61000 554.165
25.78000 552.596
25.95000 551.651
26.12000 528.912
26.29000 564.790
26.46000 535.565
26.63000 525.933
26.80000 515.450
26.97000 530.472
27.14000 508.679
27.31000 529.473
27.48000 511.911
27.65000 504.220
27.82000 509.771
27.99000 525.185
28.16000 487.655
28.33000 497.892
28.50000 494.950
28.67000 496.650
28.84000 481.333
29.01000 474.977
29.18000 494.060
29.35000 475.306
29.52000 461.440
29.69000 453.276
29.86000 468.661
30.03000 454.307
30.20000 450.660
30.37000 445.861
30.54000 456.429
30.71000 453.141
30.88000 443.777
31.05000 444.009
31.22000 440.354
31.39000 425.446
31.56000 433.483
31.73000 436.515
31.90000 438.861
32.07000 414.622
32.24000 415.943
32.41000 413.927
32.58000 395.262
32.75000 411.537
32.92000 392.847
33.09000 394.471
33.26000 396.849
33.43000 410.872
33.60000 383.730
33.77000 392.917
33.94000 382.615
34.11000 374.918
34.28000 392.057
34.45000 375.002
34.62000 379.932
34.79000 381.209
34.96000 391.309
35.13000 363.942
35.30000 387.287
35.47000 362.329
35.64000 364.679
35.81000 353.930
35.98000 372.151
36.15000 361.301
36.32000 369.111
36.49000 336.347
36.66000 353.503
36.83000 349.339
37.00000 354.752
37.17000 359.479
37.34000 340.006
37.51000 328.161
37.68000 338.372
37.85000 333.239
38.02000 330.383
38.19000 321.006
38.36000 357.878
38.53000 322.878
38.70000 335.351
38.87000 316.309
39.04000 328.510
39.21000 333.726
39.38000 306.864
39.55000 304.363
39.72000 314.048
39.89000 315.290
40.06000 314.752
40.23000 319.997
40.40000 316.014
40.57000 312.126
40.74000 313.432
40.91000 317.001
41.08000 329.354
41.25000 305.202
41.42000 340.859
41.59000 373.650
41.76000 892.718
41.93000 509.451
42.10000 328.906
42.27000 329.324
42.44000 341.940
42.61000 351.429
42.78000 361.339
42.95000 351.549
43.12000 353.869
43.29000 380.299
43.46000 382.013
43.63000 413.714
43.80000 439.289
43.97000 458.016
44.14000 553.954
44.31000 2049.991
44.48000 4093.105
44.65000 1193.180
44.82000 1501.237
44.99000 965.452
45.16000 1071.168
45.33000 1211.003
45.50000 1434.046
45.67000 1741.542
45.84000 2124.948
46.01000 2855.818
46.18000 6838.707
46.35000 137637.766
46.52000 370963.313
46.69000 106138.648
46.86000 5442.386
47.03000 3098.862
47.20000 2261.564
47.37000 1714.240
47.54000 1339.365
47.71000 1073.749
47.88000 876.658
48.05000 731.576
48.22000 612.063
48.39000 523.049
48.56000 462.344
48.73000 436.464
48.90000 409.650
49.07000 374.973
49.24000 342.457
49.41000 340.846
49.58000 321.443
49.75000 303.326
49.92000 316.244
50.09000 283.084
50.26000 270.728
50.43000 291.924
50.60000 266.434
50.77000 268.536
50.94000 288.106
51.11000 260.174
51.28000 249.831
51.45000 236.687
51.62000 225.288
51.79000 251.456
51.96000 231.885
52.13000 224.151
52.30000 221.806
52.47000 208.164
52.64000 204.576
52.81000 228.014
52.98000 196.649
53.15000 208.402
53.32000 201.477
53.49000 197.214
53.66000 193.291
53.83000 194.995
54.00000 187.721
54.17000 194.156
54.34000 178.346
54.51000 188.544
54.68000 186.997
54.85000 197.941
55.02000 179.517
55.19000 170.864
55.36000 182.332
55.53000 171.821
55.70000 176.551
55.87000 189.786
56.04000 165.365
56.21000 176.209
56.38000 171.012
56.55000 162.206
56.72000 165.293
56.89000 172.865
57.06000 174.479
57.23000 153.577
57.40000 164.942
57.57000 165.560
57.74000 156.635
57.91000 161.076
58.08000 165.572
58.25000 165.284
58.42000 157.850
58.59000 157.213
58.76000 151.749
58.93000 166.227
59.10000 149.375
59.27000 156.295
59.44000 162.900
59.61000 146.966
59.78000 150.071
59.95000 150.456
60.12000 151.486
60.29000 149.592
60.46000 151.862
60.63000 158.068
60.80000 144.447
60.97000 143.938
61.14000 143.036
61.31000 157.972
61.48000 141.690
61.65000 137.115
61.82000 143.067
61.99000 147.504
62.16000 147.742
62.33000 142.529
62.50000 140.985
62.67000 137.720
62.84000 136.569
63.01000 128.498
63.18000 129.948
63.35000 142.096
63.52000 136.108
63.69000 136.346
63.86000 138.369
64.03000 135.043
64.20000 140.459
64.37000 135.993
64.54000 139.872
64.71000 152.710
64.88000 130.207
65.05000 128.443
65.22000 131.320
65.39000 124.363
65.56000 121.297
65.73000 128.851
65.90000 123.627
66.07000 134.579
66.24000 127.212
66.41000 130.850
66.58000 126.676
66.75000 130.486
66.92000 122.087
67.09000 127.934
67.26000 125.908
67.43000 129.856
67.60000 123.046
67.77000 116.213
67.94000 120.216
68.11000 132.490
68.28000 126.152
68.45000 131.711
68.62000 133.791
68.79000 142.815
68.96000 169.499
69.13000 238.989
69.30000 137.448
69.47000 131.867
69.64000 155.210
69.81000 140.630
69.98000 130.877
70.00000 134.798