File: XRD/XRD/Grazing Incidence/XY Data/Dilan_Full_Stack_Training_3_grazing_incidience.xy
20.00000 193.102
20.17000 193.142
20.34000 181.220
20.51000 220.080
20.68000 181.775
20.85000 204.058
21.02000 200.845
21.19000 196.500
21.36000 199.409
21.53000 183.889
21.70000 228.556
21.87000 439.618
22.04000 908.891
22.21000 888.382
22.38000 438.291
22.55000 174.995
22.72000 176.769
22.89000 197.544
23.06000 170.534
23.23000 157.533
23.40000 150.413
23.57000 145.158
23.74000 162.695
23.91000 146.415
24.08000 144.985
24.25000 156.710
24.42000 166.479
24.59000 151.188
24.76000 159.929
24.93000 129.334
25.10000 140.977
25.27000 155.632
25.44000 146.952
25.61000 141.141
25.78000 140.402
25.95000 159.193
26.12000 132.843
26.29000 111.191
26.46000 158.860
26.63000 130.163
26.80000 143.826
26.97000 145.858
27.14000 136.232
27.31000 160.954
27.48000 151.289
27.65000 153.058
27.82000 148.221
27.99000 153.077
28.16000 171.969
28.33000 188.077
28.50000 162.275
28.67000 153.818
28.84000 143.847
29.01000 164.163
29.18000 139.045
29.35000 170.754
29.52000 172.872
29.69000 166.250
29.86000 226.717
30.03000 324.910
30.20000 291.873
30.37000 302.150
30.54000 309.956
30.71000 325.964
30.88000 517.178
31.05000 1040.411
31.22000 4075.833
31.39000 12079.624
31.56000 12093.029
31.73000 3783.406
31.90000 695.224
32.07000 370.541
32.24000 251.577
32.41000 176.304
32.58000 177.150
32.75000 172.318
32.92000 142.047
33.09000 137.803
33.26000 121.814
33.43000 135.006
33.60000 142.932
33.77000 101.161
33.94000 121.867
34.11000 92.604
34.28000 112.149
34.45000 89.876
34.62000 91.806
34.79000 121.199
34.96000 115.030
35.13000 105.062
35.30000 87.903
35.47000 90.227
35.64000 91.995
35.81000 107.411
35.98000 90.760
36.15000 90.112
36.32000 72.002
36.49000 104.497
36.66000 100.751
36.83000 83.902
37.00000 120.850
37.17000 107.279
37.34000 90.271
37.51000 113.399
37.68000 110.024
37.85000 110.764
38.02000 118.898
38.19000 135.132
38.36000 185.562
38.53000 424.174
38.70000 1206.322
38.87000 1621.368
39.04000 765.124
39.21000 242.441
39.38000 121.033
39.55000 119.733
39.72000 93.662
39.89000 76.196
40.06000 89.732
40.23000 78.091
40.40000 79.777
40.57000 101.791
40.74000 71.589
40.91000 85.687
41.08000 79.025
41.25000 82.838
41.42000 74.037
41.59000 81.667
41.76000 74.913
41.93000 89.791
42.10000 58.161
42.27000 83.128
42.44000 76.621
42.61000 89.055
42.78000 79.019
42.95000 106.969
43.12000 128.539
43.29000 100.966
43.46000 97.833
43.63000 103.674
43.80000 105.171
43.97000 118.280
44.14000 134.074
44.31000 158.382
44.48000 242.262
44.65000 422.596
44.82000 1227.690
44.99000 2978.892
45.16000 3220.883
45.33000 1515.096
45.50000 447.405
45.67000 207.999
45.84000 151.091
46.01000 132.989
46.18000 109.426
46.35000 107.181
46.52000 86.010
46.69000 77.798
46.86000 85.780
47.03000 105.714
47.20000 74.780
47.37000 75.706
47.54000 76.311
47.71000 65.826
47.88000 81.740
48.05000 90.378
48.22000 66.182
48.39000 82.781
48.56000 77.201
48.73000 67.849
48.90000 74.066
49.07000 81.615
49.24000 84.704
49.41000 91.157
49.58000 84.011
49.75000 95.206
49.92000 76.862
50.09000 119.150
50.26000 156.628
50.43000 284.429
50.60000 750.664
50.77000 984.411
50.94000 703.267
51.11000 266.085
51.28000 124.377
51.45000 110.047
51.62000 72.981
51.79000 63.866
51.96000 86.928
52.13000 65.519
52.30000 72.144
52.47000 73.865
52.64000 67.824
52.81000 70.671
52.98000 76.079
53.15000 74.847
53.32000 89.078
53.49000 86.844
53.66000 77.047
53.83000 91.662
54.00000 79.821
54.17000 91.667
54.34000 76.602
54.51000 80.722
54.68000 105.151
54.85000 94.036
55.02000 118.765
55.19000 146.683
55.36000 194.306
55.53000 381.849
55.70000 913.491
55.87000 1921.444
56.04000 2333.839
56.21000 1562.559
56.38000 679.211
56.55000 254.275
56.72000 131.955
56.89000 133.848
57.06000 121.694
57.23000 97.806
57.40000 85.928
57.57000 70.093
57.74000 86.380
57.91000 61.234
58.08000 71.001
58.25000 83.778
58.42000 88.830
58.59000 60.885
58.76000 66.035
58.93000 67.068
59.10000 69.749
59.27000 76.678
59.44000 70.131
59.61000 58.806
59.78000 55.043
59.95000 52.740
60.12000 64.098
60.29000 67.710
60.46000 48.933
60.63000 64.898
60.80000 58.742
60.97000 47.857
61.14000 59.390
61.31000 49.086
61.48000 67.008
61.65000 56.717
61.82000 55.058
61.99000 62.567
62.16000 63.841
62.33000 54.099
62.50000 83.917
62.67000 57.613
62.84000 68.170
63.01000 62.915
63.18000 49.864
63.35000 74.010
63.52000 53.742
63.69000 55.743
63.86000 64.115
64.03000 81.751
64.20000 60.106
64.37000 51.936
64.54000 72.904
64.71000 101.920
64.88000 95.771
65.05000 125.134
65.22000 313.523
65.39000 666.595
65.56000 1086.906
65.73000 993.923
65.90000 663.357
66.07000 290.211
66.24000 115.240
66.41000 95.154
66.58000 75.563
66.75000 85.140
66.92000 80.272
67.09000 60.582
67.26000 61.725
67.43000 58.102
67.60000 60.049
67.77000 58.025
67.94000 54.520
68.11000 57.855
68.28000 59.075
68.45000 47.938
68.62000 64.623
68.79000 56.028
68.96000 64.668
69.13000 58.792
69.30000 65.721
69.47000 81.686
69.64000 102.115
69.81000 163.358
69.98000 282.717
70.00000 251.606