File: XRD/XRD/Grazing Incidence/XY Data/Dilan_test_4gixrd.xy
0.52680 131.286
0.53080 106.429
0.53480 118.546
0.53880 88.107
0.54280 111.142
0.54680 114.819
0.55080 111.395
0.55480 107.140
0.55880 109.483
0.56280 116.172
0.56680 91.047
0.57080 94.011
0.57480 110.719
0.57880 112.788
0.58280 123.506
0.58680 126.852
0.59080 129.341
0.59480 133.942
0.59880 150.949
0.60280 177.650
0.60680 164.123
0.61080 191.978
0.61480 214.108
0.61880 216.697
0.62280 261.493
0.62680 236.641
0.63080 243.885
0.63480 242.567
0.63880 247.443
0.64280 258.846
0.64680 280.110
0.65080 278.561
0.65480 250.232
0.65880 283.308
0.66280 268.699
0.66680 222.180
0.67080 293.802
0.67480 255.090
0.67880 244.692
0.68280 228.456
0.68680 245.071
0.69080 266.251
0.69480 274.993
0.69880 250.144
0.70280 264.032
0.70680 284.370
0.71080 357.113
0.71480 338.669
0.71880 349.742
0.72280 389.130
0.72680 433.952
0.73080 443.680
0.73480 483.450
0.73880 492.698
0.74280 556.793
0.74680 600.548
0.75080 706.421
0.75480 759.625
0.75880 955.000
0.76280 1258.234
0.76680 1919.028
0.77080 2635.000
0.77480 3746.418
0.77880 5764.258
0.78280 8006.738
0.78680 13973.368
0.79080 23673.000
0.79480 38479.539
0.79880 66387.641
0.80280 95666.898
0.80680 137013.969
0.81080 186112.063
0.81480 217446.844
0.81880 267534.281
0.82280 290651.250
0.82680 308687.438
0.83080 297864.688
0.83480 273245.750
0.83880 231574.875
0.84280 179398.609
0.84680 140588.141
0.85080 91003.164
0.85480 62582.527
0.85880 33379.934
0.86280 17115.865
0.86680 9688.048
0.87080 4493.680