File: XRD/XRD/Grazing Incidence/XY Data/Dilan_test_gixrd.xy
36.00000 43.947
36.10000 51.128
36.20000 38.126
36.30000 47.823
36.40000 46.033
36.50000 59.035
36.60000 56.033
36.70000 47.133
36.80000 46.141
36.90000 38.215
37.00000 54.212
37.10000 42.831
37.20000 60.255
37.30000 47.920
37.40000 42.612
37.50000 41.226
37.60000 58.763
37.70000 49.212
37.80000 55.198
37.90000 67.582
38.00000 67.014
38.10000 89.138
38.20000 63.756
38.30000 64.890
38.40000 58.072
38.50000 59.061
38.60000 57.056
38.70000 57.229
38.80000 48.899
38.90000 60.098
39.00000 46.961
39.10000 66.015
39.20000 58.290
39.30000 57.859
39.40000 49.554
39.50000 50.027
39.60000 53.782
39.70000 37.872
39.80000 56.791
39.90000 54.027
40.00000 75.154
40.10000 62.003
40.20000 57.068
40.30000 48.789
40.40000 53.878
40.50000 45.885
40.60000 42.035
40.70000 56.051
40.80000 38.895
40.90000 42.025
41.00000 68.246
41.10000 49.946
41.20000 50.910
41.30000 64.713
41.40000 54.347
41.50000 58.847
41.60000 61.994
41.70000 55.774
41.80000 62.920
41.90000 66.874
42.00000 68.975
42.10000 50.845
42.20000 59.767
42.30000 64.179
42.40000 68.226
42.50000 85.306
42.60000 106.116
42.70000 115.441
42.80000 147.181
42.90000 181.195
43.00000 197.713
43.10000 140.061
43.20000 139.667
43.30000 102.989
43.40000 96.373
43.50000 76.984
43.60000 53.876
43.70000 74.741
43.80000 60.985
43.90000 69.609
44.00000 69.843
44.10000 54.027
44.20000 64.801
44.30000 68.993
44.40000 69.113
44.50000 75.213
44.60000 74.076
44.70000 70.888
44.80000 55.135
44.90000 60.011
45.00000 57.473
45.10000 58.974
45.20000 58.120
45.30000 71.389
45.40000 59.726
45.50000 57.276
45.60000 65.931
45.70000 61.090
45.80000 60.117
45.90000 50.995
46.00000 46.185
46.10000 43.024
46.20000 60.759
46.30000 40.999
46.40000 43.121
46.50000 44.023
46.60000 54.876
46.70000 37.069
46.80000 51.817
46.90000 53.908
47.00000 71.982
47.10000 53.016
47.20000 45.866
47.30000 50.057
47.40000 54.882
47.50000 55.863
47.60000 50.094
47.70000 49.690
47.80000 38.145
47.90000 41.754
48.00000 56.311
48.10000 53.802
48.20000 38.046
48.30000 50.739
48.40000 45.964
48.50000 53.895
48.60000 48.161
48.70000 44.529
48.80000 39.190
48.90000 63.937
49.00000 53.230
49.10000 46.030
49.20000 50.785
49.30000 54.936
49.40000 43.182
49.50000 49.787
49.60000 39.901
49.70000 47.170
49.80000 53.089
49.90000 33.695
50.00000 62.171
50.10000 61.601
50.20000 53.051
50.30000 37.078
50.40000 50.888
50.50000 50.987
50.60000 48.133
50.70000 41.333
50.80000 38.957
50.90000 36.248
51.00000 52.867
51.10000 48.820
51.20000 47.029
51.30000 39.065
51.40000 43.100
51.50000 40.989
51.60000 43.902
51.70000 48.936
51.80000 54.885
51.90000 40.131
52.00000 52.061
52.10000 31.030
52.20000 41.098
52.30000 48.045
52.40000 37.972
52.50000 42.926
52.60000 45.783
52.70000 41.929
52.80000 37.975
52.90000 41.979
53.00000 48.244
53.10000 44.066
53.20000 57.941
53.30000 41.891
53.40000 40.873
53.50000 36.950
53.60000 34.769
53.70000 40.087
53.80000 51.938
53.90000 44.176
54.00000 35.835
54.10000 37.102
54.20000 37.954
54.30000 39.849
54.40000 38.004
54.50000 48.911
54.60000 46.248
54.70000 45.040
54.80000 43.590
54.90000 32.241
55.00000 38.139
55.10000 30.977
55.20000 30.941
55.30000 55.023
55.40000 48.386
55.50000 48.119
55.60000 47.889
55.70000 46.103
55.80000 49.008
55.90000 50.996
56.00000 38.111
56.10000 30.117
56.20000 31.839
56.30000 47.288
56.40000 32.158
56.50000 49.187
56.60000 33.818
56.70000 38.970
56.80000 30.784
56.90000 53.123
57.00000 32.013
57.10000 55.031
57.20000 41.802
57.30000 45.061
57.40000 38.782
57.50000 34.256
57.60000 34.975
57.70000 34.032
57.80000 27.940
57.90000 45.864
58.00000 36.185
58.10000 35.873
58.20000 33.176
58.30000 25.109
58.40000 28.064
58.50000 53.103
58.60000 32.174
58.70000 38.617
58.80000 37.334
58.90000 38.841
59.00000 33.939
59.10000 22.862
59.20000 31.027
59.30000 37.144
59.40000 45.272
59.50000 32.128
59.60000 29.087
59.70000 30.921
59.80000 40.144
59.90000 28.876
60.00000 43.789
60.10000 29.119
60.20000 34.825
60.30000 39.854
60.40000 23.957
60.50000 28.072
60.60000 37.932
60.70000 35.143
60.80000 26.968
60.90000 34.898
61.00000 41.108
61.10000 35.001
61.20000 32.116
61.30000 43.953
61.40000 43.915
61.50000 26.854
61.60000 37.980
61.70000 43.679
61.80000 54.336
61.90000 38.004
62.00000 44.090
62.10000 63.029
62.20000 78.413
62.30000 81.886
62.40000 91.019
62.50000 84.494
62.60000 55.183
62.70000 53.183
62.80000 47.998
62.90000 40.121
63.00000 36.910
63.10000 44.870
63.20000 33.016
63.30000 37.897
63.40000 44.034
63.50000 43.014
63.60000 38.066
63.70000 34.068
63.80000 38.150
63.90000 35.247
64.00000 33.025