File: XRD/XRD/Grazing Incidence/XY Data/Dilan_Full_Stack_Training_3_grazing_incidience_Map_001_3_-30-000_0-000.xy
30.00000 19.502
30.06000 19.039
30.12000 22.287
30.18000 17.594
30.24000 20.895
30.30000 16.113
30.36000 14.293
30.42000 17.540
30.48000 14.373
30.54000 19.426
30.60000 25.688
30.66000 32.767
30.72000 39.702
30.78000 41.063
30.84000 40.713
30.90000 64.827
30.96000 60.228
31.02000 101.996
31.08000 189.620
31.14000 313.356
31.20000 573.789
31.26000 773.968
31.32000 938.158
31.38000 959.122
31.44000 842.819
31.50000 604.115
31.56000 407.156
31.62000 205.178
31.68000 112.032
31.74000 72.534
31.80000 44.786
31.86000 23.850
31.92000 25.375
31.98000 20.921
32.04000 20.564
32.10000 21.094
32.16000 16.245
32.22000 19.146
32.28000 11.616
32.34000 7.398
32.40000 10.268
32.46000 7.165
32.52000 10.634
32.58000 10.847
32.64000 11.178
32.70000 15.100
32.76000 14.237
32.82000 11.306
32.88000 12.545
32.94000 7.452
33.00000 6.749
33.06000 5.977
33.12000 9.543
33.18000 12.426
33.24000 5.037
33.30000 12.374
33.36000 8.060
33.42000 10.275
33.48000 11.421
33.54000 6.189
33.60000 7.350
33.66000 9.252
33.72000 15.612
33.78000 12.352
33.84000 5.446
33.90000 8.852
33.96000 11.163
34.02000 7.169
34.08000 6.111
34.14000 12.488
34.20000 13.145
34.26000 11.069
34.32000 7.403
34.38000 8.057
34.44000 4.022
34.50000 8.195
34.56000 5.457
34.62000 7.449
34.68000 1.389
34.74000 7.503
34.80000 17.312
34.86000 5.034
34.92000 6.990
34.98000 11.182
35.04000 7.133
35.10000 6.185
35.16000 5.092
35.22000 7.686
35.28000 8.034
35.34000 4.347
35.40000 4.387
35.46000 4.033
35.52000 4.690
35.58000 4.192
35.64000 5.144
35.70000 5.728
35.76000 7.358
35.82000 7.745
35.88000 2.389
35.94000 5.030
36.00000 5.491
36.06000 9.201
36.12000 10.081
36.18000 5.149
36.24000 2.050
36.30000 3.070
36.36000 10.230
36.42000 9.500
36.48000 2.029
36.54000 5.013
36.60000 7.156
36.66000 4.030
36.72000 5.029
36.78000 3.027
36.84000 3.102
36.90000 3.442
36.96000 9.475
37.02000 7.160
37.08000 9.159
37.14000 10.194
37.20000 10.756
37.26000 9.163
37.32000 8.033
37.38000 7.395
37.44000 3.058
37.50000 6.346
37.56000 1.995
37.62000 7.091
37.68000 4.329
37.74000 11.401
37.80000 7.500
37.86000 7.205
37.92000 6.430
37.98000 4.046
38.04000 11.456
38.10000 4.164
38.16000 10.245
38.22000 10.151
38.28000 8.484
38.34000 12.371
38.40000 13.606
38.46000 19.323
38.52000 27.536
38.58000 28.070
38.64000 42.888
38.70000 40.762
38.76000 30.625
38.82000 32.352
38.88000 21.204
38.94000 15.719
39.00000 8.823
39.06000 9.007
39.12000 11.264
39.18000 9.418
39.24000 4.329
39.30000 9.139
39.36000 6.357
39.42000 7.009
39.48000 6.152
39.54000 8.478
39.60000 4.128
39.66000 6.092
39.72000 4.011
39.78000 4.080
39.84000 1.370
39.90000 2.017
39.96000 11.205
40.02000 7.060
40.08000 7.105
40.14000 10.120
40.20000 6.056
40.26000 7.102
40.32000 5.417
40.38000 3.365
40.44000 8.203
40.50000 7.034
40.56000 2.053
40.62000 0.995
40.68000 4.013
40.74000 6.155
40.80000 4.988
40.86000 9.099
40.92000 6.037
40.98000 3.037
41.04000 2.721
41.10000 3.000
41.16000 4.044
41.22000 3.984
41.28000 5.218
41.34000 9.230
41.40000 2.037
41.46000 4.998
41.52000 4.100
41.58000 4.062
41.64000 4.019
41.70000 0.000
41.76000 4.070
41.82000 2.030
41.88000 6.147
41.94000 2.034
42.00000 3.083
42.06000 4.122
42.12000 3.059
42.18000 2.326
42.24000 5.040
42.30000 0.000
42.36000 7.119
42.42000 5.013
42.48000 2.998
42.54000 2.031
42.60000 3.054
42.66000 3.054
42.72000 5.037
42.78000 8.043
42.84000 4.366
42.90000 9.512
42.96000 5.405
43.02000 5.050
43.08000 5.300
43.14000 5.120
43.20000 8.202
43.26000 2.006
43.32000 5.012
43.38000 2.018
43.44000 7.111
43.50000 3.366
43.56000 6.190
43.62000 4.201
43.68000 1.989
43.74000 5.360
43.80000 1.386
43.86000 8.409
43.92000 7.176
43.98000 3.045
44.04000 9.415
44.10000 3.078
44.16000 5.345
44.22000 6.396
44.28000 9.092
44.34000 10.797
44.40000 13.568
44.46000 9.033
44.52000 8.057
44.58000 16.364
44.64000 31.639
44.70000 35.635
44.76000 57.282
44.82000 88.293
44.88000 70.263
44.94000 122.815
45.00000 128.859
45.06000 84.884
45.12000 83.775
45.18000 68.356
45.24000 48.928
45.30000 34.475
45.36000 18.233
45.42000 12.552
45.48000 11.204
45.54000 10.454
45.60000 10.182
45.66000 2.971
45.72000 2.004
45.78000 4.021
45.84000 8.032
45.90000 3.068
45.96000 7.544
46.02000 8.488
46.08000 5.981
46.14000 8.094
46.20000 2.365
46.26000 1.015
46.32000 1.720
46.38000 5.087
46.44000 6.138
46.50000 4.394
46.56000 4.044
46.62000 1.004
46.68000 4.802
46.74000 3.037
46.80000 4.381
46.86000 6.014
46.92000 7.967
46.98000 6.106
47.00000 5.080