File: XRD/XRD/Grazing Incidence/XY Data/Dilan_Full_Stack_Training_theta-2theta_001.xy
20.00000 43.849
20.19000 49.931
20.38000 37.712
20.57000 54.138
20.76000 56.147
20.95000 44.918
21.14000 53.956
21.33000 48.919
21.52000 50.934
21.71000 89.320
21.90000 146.573
22.09000 194.056
22.28000 79.623
22.47000 84.912
22.66000 63.030
22.85000 60.529
23.04000 46.104
23.23000 53.957
23.42000 45.895
23.61000 51.093
23.80000 50.001
23.99000 56.070
24.18000 45.681
24.37000 39.777
24.56000 40.848
24.75000 51.860
24.94000 41.735
25.13000 43.975
25.32000 40.894
25.51000 43.722
25.70000 54.215
25.89000 55.273
26.08000 56.276
26.27000 34.559
26.46000 47.837
26.65000 50.081
26.84000 40.801
27.03000 44.744
27.22000 37.964
27.41000 36.729
27.60000 41.840
27.79000 34.813
27.98000 30.594
28.17000 45.965
28.36000 41.686
28.55000 44.933
28.74000 45.226
28.93000 45.762
29.12000 33.525
29.31000 42.713
29.50000 33.416
29.69000 40.973
29.88000 50.990
30.07000 55.336
30.26000 60.071
30.45000 41.684
30.64000 58.143
30.83000 70.252
31.02000 155.254
31.21000 709.152
31.40000 1376.781
31.59000 259.071
31.78000 82.471
31.97000 50.119
32.16000 43.735
32.35000 48.184
32.54000 27.312
32.73000 22.468
32.92000 30.565
33.11000 26.631
33.30000 24.469
33.49000 26.517
33.68000 25.419
33.87000 17.471
34.06000 20.428
34.25000 28.621
34.44000 23.374
34.63000 29.705
34.82000 14.376
35.01000 23.348
35.20000 16.220
35.39000 12.300
35.58000 17.265
35.77000 15.409
35.96000 24.648
36.15000 21.448
36.34000 20.291
36.53000 25.471
36.72000 16.273
36.91000 19.339
37.10000 21.414
37.29000 19.364
37.48000 21.279
37.67000 22.437
37.86000 24.639
38.05000 25.609
38.24000 30.426
38.43000 74.691
38.62000 214.086
38.81000 158.570
39.00000 51.054
39.19000 31.592
39.38000 27.556
39.57000 22.356
39.76000 24.356
39.95000 26.625
40.14000 14.261
40.33000 27.709
40.52000 20.309
40.71000 18.400
40.90000 23.340
41.09000 24.143
41.28000 23.264
41.47000 33.951
41.66000 18.236
41.85000 12.353
42.04000 17.373
42.23000 20.379
42.42000 16.224
42.61000 13.462
42.80000 19.562
42.99000 26.542
43.18000 18.406
43.37000 17.349
43.56000 14.234
43.75000 11.204
43.94000 24.459
44.13000 20.366
44.32000 34.555
44.51000 31.630
44.70000 54.285
44.89000 119.366
45.08000 132.755
45.27000 58.163
45.46000 38.769
45.65000 13.459
45.84000 24.470
46.03000 16.275
46.22000 23.543
46.41000 22.505
46.60000 18.470
46.79000 18.540
46.98000 15.341
47.17000 17.464
47.36000 18.327
47.55000 15.181
47.74000 17.301
47.93000 22.327
48.12000 13.297
48.31000 16.366
48.50000 17.434
48.69000 14.304
48.88000 18.293
49.07000 14.262
49.26000 25.419
49.45000 22.383
49.64000 13.301
49.83000 21.361
50.02000 16.322
50.21000 22.498
50.40000 37.911
50.59000 80.393
50.78000 52.985
50.97000 14.322
51.16000 26.414
51.35000 21.493
51.54000 20.379
51.73000 21.463
51.92000 11.217
52.11000 22.391
52.30000 18.273
52.49000 15.276
52.68000 23.440
52.87000 18.407
53.06000 16.343
53.25000 20.604
53.44000 23.279
53.63000 14.143
53.82000 11.033
54.01000 24.601
54.20000 21.525
54.39000 25.670
54.58000 15.269
54.77000 25.560
54.96000 20.428
55.15000 27.725
55.34000 27.383
55.53000 52.860
55.72000 136.157
55.91000 225.020
56.10000 68.642
56.29000 32.609
56.48000 24.383
56.67000 12.204
56.86000 19.152
57.05000 24.395
57.24000 22.512
57.43000 13.224
57.62000 12.170
57.81000 13.361
58.00000 15.296
58.19000 22.422
58.38000 18.411
58.57000 11.109
58.76000 13.216
58.95000 22.371
59.14000 17.332
59.33000 12.212
59.52000 14.241
59.71000 15.317
59.90000 12.165
60.09000 15.306
60.28000 13.279
60.47000 10.141
60.66000 14.346
60.85000 16.274
61.04000 23.409
61.23000 19.317
61.42000 16.184
61.61000 14.424
61.80000 32.636
61.99000 20.427
62.18000 20.428
62.37000 25.438
62.56000 22.543
62.75000 25.536
62.94000 17.314
63.13000 11.083
63.32000 25.658
63.51000 15.222
63.70000 28.541
63.89000 22.373
64.08000 16.125
64.27000 26.540
64.46000 33.561
64.65000 34.477
64.84000 32.660
65.03000 40.918
65.22000 63.040
65.41000 102.288
65.60000 80.454
65.79000 85.795
65.98000 59.283
66.17000 69.416
66.36000 43.791
66.55000 63.422
66.74000 69.427
66.93000 70.783
67.12000 93.160
67.31000 112.183
67.50000 118.018
67.69000 161.084
67.88000 169.886
68.07000 191.520
68.26000 242.324
68.45000 364.300
68.64000 582.262
68.83000 779.656
69.02000 997.161
69.21000 1078.113
69.40000 916.726
69.59000 711.468
69.78000 440.791
69.97000 321.868
70.16000 217.449
70.35000 183.485
70.54000 154.200
70.73000 103.772
70.92000 95.459
71.11000 91.173
71.30000 81.784
71.49000 66.335
71.68000 57.131
71.87000 35.590
72.06000 53.966
72.25000 59.272
72.44000 46.746
72.63000 40.953
72.82000 38.955
73.01000 34.599
73.20000 39.929
73.39000 34.840
73.58000 30.572
73.77000 27.348
73.96000 36.868
74.15000 33.693
74.34000 44.816
74.53000 60.000
74.72000 39.876
74.91000 38.731
75.00000 23.497