File: XRD/XRD/11-09-2025/XY Data/01092025_BTO_omega_1_001_28_37-500_0-000.xy
20.00000 14.241
20.16000 13.202
20.32000 19.338
20.48000 20.406
20.64000 15.256
20.80000 14.259
20.96000 25.176
21.12000 14.139
21.28000 17.154
21.44000 22.208
21.60000 13.071
21.76000 17.356
21.92000 13.162
22.08000 14.192
22.24000 18.261
22.40000 18.240
22.56000 19.149
22.72000 18.260
22.88000 18.128
23.04000 20.312
23.20000 25.428
23.36000 26.106
23.52000 26.415
23.68000 18.315
23.84000 22.437
24.00000 25.191
24.16000 20.361
24.32000 18.424
24.48000 24.182
24.64000 25.386
24.80000 20.100
24.96000 23.420
25.12000 28.046
25.28000 29.448
25.44000 34.540
25.60000 26.360
25.76000 34.490
25.92000 34.367
26.08000 22.222
26.24000 37.513
26.40000 32.375
26.56000 31.466
26.72000 46.703
26.88000 42.498
27.04000 34.169
27.20000 34.367
27.36000 26.159
27.52000 30.256
27.68000 32.450
27.84000 31.474
28.00000 40.656
28.16000 50.632
28.32000 29.405
28.48000 32.269
28.64000 23.201
28.80000 19.258
28.96000 21.092
29.12000 33.399
29.28000 28.283
29.44000 39.500
29.60000 36.734
29.76000 37.579
29.92000 26.221
30.08000 31.337
30.24000 33.312
30.40000 27.350
30.56000 24.398
30.72000 19.060
30.88000 13.211
31.04000 20.222
31.20000 20.295
31.36000 18.195
31.52000 18.384
31.68000 21.401
31.84000 7.041
32.00000 14.988
32.16000 19.139
32.32000 21.435
32.48000 17.191
32.64000 15.123
32.80000 7.068
32.96000 21.280
33.12000 16.255
33.28000 13.227
33.44000 13.189
33.60000 12.124
33.76000 15.299
33.92000 18.236
34.08000 12.119
34.24000 14.254
34.40000 9.247
34.56000 11.207
34.72000 9.135
34.88000 9.071
35.04000 10.154
35.20000 11.170
35.36000 9.087
35.52000 11.106
35.68000 12.042
35.84000 8.107
36.00000 15.191
36.16000 8.214
36.32000 16.286
36.48000 13.185
36.64000 7.172
36.80000 10.147
36.96000 14.317
37.12000 14.157
37.28000 11.155
37.44000 10.062
37.60000 13.058
37.76000 15.177
37.92000 14.120
38.08000 9.177
38.24000 14.148
38.40000 13.192
38.56000 16.196
38.72000 12.103
38.88000 7.104
39.04000 18.317
39.20000 19.433
39.36000 13.273
39.52000 10.213
39.68000 11.151
39.84000 12.232
40.00000 17.399
40.16000 9.048
40.32000 8.069
40.48000 9.091
40.64000 10.122
40.80000 9.118
40.96000 16.166
41.12000 6.088
41.28000 11.173
41.44000 12.055
41.60000 4.999
41.76000 13.208
41.92000 12.090
42.08000 11.056
42.24000 7.059
42.40000 16.236
42.56000 16.223
42.72000 18.339
42.88000 8.185
43.04000 19.234
43.20000 11.086
43.36000 20.251
43.52000 11.149
43.68000 19.382
43.84000 17.190
44.00000 13.226
44.16000 19.229
44.32000 11.162
44.48000 9.274
44.64000 11.178
44.80000 20.349
44.96000 19.122
45.12000 11.242
45.28000 9.070
45.44000 17.176
45.60000 14.196
45.76000 11.133
45.92000 11.262
46.08000 14.120
46.24000 12.149
46.40000 15.209
46.56000 13.205
46.72000 15.157
46.88000 8.063
47.04000 15.168
47.20000 12.023
47.36000 10.125
47.52000 16.244
47.68000 15.266
47.84000 17.291
48.00000 6.221
48.16000 7.087
48.32000 10.158
48.48000 10.145
48.64000 9.053
48.80000 17.306
48.96000 11.065
49.12000 12.138
49.28000 7.165
49.44000 9.014
49.60000 9.163
49.76000 14.002
49.92000 15.207
50.08000 10.069
50.24000 15.264
50.40000 10.102
50.56000 12.122
50.72000 12.126
50.88000 13.140
51.04000 13.096
51.20000 14.238
51.36000 11.203
51.52000 8.151
51.68000 14.234
51.84000 8.175
52.00000 12.152
52.16000 6.043
52.32000 11.266
52.48000 11.002
52.64000 7.911
52.80000 13.213
52.96000 10.232
53.12000 7.042
53.28000 10.145
53.44000 11.029
53.60000 7.096
53.76000 14.167
53.92000 7.050
54.08000 4.113
54.24000 13.104
54.40000 6.114
54.56000 5.997
54.72000 11.191
54.88000 14.389
55.04000 10.134
55.20000 12.158
55.36000 6.029
55.52000 9.164
55.68000 9.232
55.84000 12.197
56.00000 6.974
56.16000 6.057
56.32000 7.029
56.48000 6.050
56.64000 11.126
56.80000 9.979
56.96000 10.152
57.12000 6.185
57.28000 10.138
57.44000 7.116
57.60000 7.142
57.76000 3.019
57.92000 8.055
58.08000 10.126
58.24000 8.181
58.40000 13.106
58.56000 6.102
58.72000 10.042
58.88000 12.061
59.04000 3.008
59.20000 6.080
59.36000 4.997
59.52000 5.038
59.68000 8.115
59.84000 6.919
60.00000 4.023
60.16000 6.108
60.32000 12.153
60.48000 7.988
60.64000 12.175
60.80000 8.988
60.96000 4.060
61.12000 10.129
61.28000 8.102
61.44000 12.348
61.60000 3.034
61.76000 7.156
61.92000 5.158
62.08000 6.126
62.24000 2.044
62.40000 6.139
62.56000 6.191
62.72000 11.135
62.88000 6.080
63.04000 5.062
63.20000 3.994
63.36000 3.021
63.52000 7.142
63.68000 10.097
63.84000 8.019
64.00000 9.119
64.16000 9.191
64.32000 6.144
64.48000 2.022
64.64000 7.075
64.80000 5.051
64.96000 4.065
65.00000 2.023