File: XRD/XRD/11-09-2025/XY Data/01092025_BTO_omega_0_5_001_10_-22-275_11-350.xy
20.00000 12.219
20.16000 12.000
20.32000 22.368
20.48000 20.416
20.64000 23.350
20.80000 20.206
20.96000 15.108
21.12000 23.063
21.28000 24.410
21.44000 32.413
21.60000 22.300
21.76000 17.106
21.92000 18.399
22.08000 28.407
22.24000 29.349
22.40000 27.402
22.56000 26.229
22.72000 31.376
22.88000 21.262
23.04000 29.379
23.20000 24.169
23.36000 31.533
23.52000 24.344
23.68000 34.334
23.84000 34.384
24.00000 19.204
24.16000 27.352
24.32000 35.774
24.48000 30.495
24.64000 38.395
24.80000 30.223
24.96000 31.343
25.12000 39.424
25.28000 36.653
25.44000 33.392
25.60000 36.338
25.76000 52.986
25.92000 47.098
26.08000 45.198
26.24000 59.430
26.40000 48.537
26.56000 44.389
26.72000 54.617
26.88000 54.573
27.04000 58.633
27.20000 59.950
27.36000 52.499
27.52000 79.146
27.68000 61.835
27.84000 47.640
28.00000 53.813
28.16000 52.653
28.32000 61.676
28.48000 48.525
28.64000 48.565
28.80000 60.917
28.96000 38.742
29.12000 40.359
29.28000 46.585
29.44000 46.769
29.60000 41.704
29.76000 42.874
29.92000 29.321
30.08000 40.549
30.24000 33.221
30.40000 34.345
30.56000 34.481
30.72000 39.352
30.88000 33.587
31.04000 39.213
31.20000 40.651
31.36000 36.585
31.52000 32.391
31.68000 31.468
31.84000 43.481
32.00000 38.515
32.16000 35.425
32.32000 26.230
32.48000 27.336
32.64000 35.488
32.80000 29.215
32.96000 28.368
33.12000 21.367
33.28000 20.154
33.44000 12.202
33.60000 22.140
33.76000 18.107
33.92000 24.611
34.08000 14.136
34.24000 14.302
34.40000 12.182
34.56000 17.369
34.72000 23.188
34.88000 22.326
35.04000 21.105
35.20000 10.134
35.36000 19.279
35.52000 22.264
35.68000 21.230
35.84000 14.079
36.00000 22.319
36.16000 13.260
36.32000 16.149
36.48000 23.284
36.64000 19.117
36.80000 17.174
36.96000 21.274
37.12000 22.379
37.28000 14.422
37.44000 28.376
37.60000 21.173
37.76000 23.443
37.92000 14.129
38.08000 23.409
38.24000 22.427
38.40000 21.427
38.56000 17.195
38.72000 21.574
38.88000 10.074
39.04000 14.179
39.20000 20.117
39.36000 20.205
39.52000 23.507
39.68000 22.336
39.84000 26.107
40.00000 27.396
40.16000 16.284
40.32000 20.196
40.48000 11.124
40.64000 28.431
40.80000 25.267
40.96000 17.466
41.12000 32.571
41.28000 20.185
41.44000 17.189
41.60000 23.449
41.76000 28.328
41.92000 22.217
42.08000 25.317
42.24000 20.367
42.40000 26.329
42.56000 16.270
42.72000 14.165
42.88000 18.258
43.04000 22.193
43.20000 25.392
43.36000 23.215
43.52000 17.341
43.68000 23.208
43.84000 21.184
44.00000 18.267
44.16000 30.268
44.32000 20.268
44.48000 13.250
44.64000 27.332
44.80000 21.284
44.96000 19.173
45.12000 17.195
45.28000 19.180
45.44000 17.116
45.60000 21.206
45.76000 22.266
45.92000 20.252
46.08000 18.199
46.24000 32.505
46.40000 19.338
46.56000 19.303
46.72000 23.423
46.88000 16.049
47.04000 29.222
47.20000 15.192
47.36000 23.111
47.52000 17.209
47.68000 12.227
47.84000 21.401
48.00000 14.073
48.16000 15.374
48.32000 18.306
48.48000 19.285
48.64000 20.050
48.80000 18.137
48.96000 18.173
49.12000 18.159
49.28000 17.135
49.44000 13.141
49.60000 12.123
49.76000 19.191
49.92000 21.128
50.08000 18.222
50.24000 12.127
50.40000 16.122
50.56000 13.189
50.72000 12.998
50.88000 19.321
51.04000 21.305
51.20000 12.226
51.36000 12.279
51.52000 15.273
51.68000 8.934
51.84000 21.258
52.00000 13.010
52.16000 21.405
52.32000 22.402
52.48000 10.239
52.64000 12.210
52.80000 14.218
52.96000 14.143
53.12000 13.205
53.28000 13.138
53.44000 13.108
53.60000 11.166
53.76000 13.169
53.92000 9.267
54.08000 13.138
54.24000 11.166
54.40000 17.267
54.56000 10.130
54.72000 11.135
54.88000 8.155
55.04000 16.216
55.20000 12.116
55.36000 9.096
55.52000 11.118
55.68000 13.047
55.84000 5.040
56.00000 10.195
56.16000 12.191
56.32000 12.203
56.48000 15.094
56.64000 16.233
56.80000 15.198
56.96000 13.236
57.12000 12.161
57.28000 19.228
57.44000 16.251
57.60000 14.210
57.76000 18.265
57.92000 18.151
58.08000 14.212
58.24000 14.192
58.40000 17.149
58.56000 10.073
58.72000 6.094
58.88000 11.002
59.04000 11.151
59.20000 5.159
59.36000 7.187
59.52000 16.202
59.68000 15.261
59.84000 9.164
60.00000 8.164
60.16000 14.162
60.32000 5.166
60.48000 11.106
60.64000 18.168
60.80000 9.151
60.96000 7.118
61.12000 11.099
61.28000 11.003
61.44000 7.089
61.60000 7.112
61.76000 10.224
61.92000 8.079
62.08000 8.214
62.24000 8.159
62.40000 8.012
62.56000 5.986
62.72000 10.162
62.88000 12.135
63.04000 7.120
63.20000 5.045
63.36000 9.199
63.52000 9.169
63.68000 9.032
63.84000 9.053
64.00000 8.990
64.16000 11.090
64.32000 9.127
64.48000 11.213
64.64000 6.044
64.80000 4.011
64.96000 9.081
65.00000 10.008