File: XRD/XRD/11-09-2025/XY Data/01092025_BTO_omega_0_5_001_14_-33-413_17-025.xy
20.00000 18.249
20.16000 25.219
20.32000 19.141
20.48000 23.291
20.64000 18.200
20.80000 20.215
20.96000 19.268
21.12000 22.325
21.28000 22.453
21.44000 27.095
21.60000 20.291
21.76000 30.556
21.92000 31.751
22.08000 23.384
22.24000 24.383
22.40000 16.130
22.56000 22.444
22.72000 22.245
22.88000 33.595
23.04000 31.429
23.20000 25.325
23.36000 26.485
23.52000 37.405
23.68000 31.425
23.84000 22.135
24.00000 31.550
24.16000 28.216
24.32000 36.524
24.48000 24.311
24.64000 36.675
24.80000 34.524
24.96000 43.651
25.12000 44.257
25.28000 41.442
25.44000 42.767
25.60000 38.784
25.76000 46.506
25.92000 49.427
26.08000 36.631
26.24000 54.585
26.40000 62.500
26.56000 50.508
26.72000 63.820
26.88000 63.044
27.04000 57.523
27.20000 59.717
27.36000 45.443
27.52000 60.962
27.68000 51.528
27.84000 51.738
28.00000 48.676
28.16000 53.601
28.32000 51.895
28.48000 55.789
28.64000 48.736
28.80000 41.681
28.96000 51.329
29.12000 32.367
29.28000 46.497
29.44000 43.586
29.60000 36.467
29.76000 39.429
29.92000 40.428
30.08000 36.497
30.24000 41.569
30.40000 32.603
30.56000 43.644
30.72000 39.405
30.88000 28.453
31.04000 31.564
31.20000 31.349
31.36000 37.346
31.52000 29.290
31.68000 21.450
31.84000 25.533
32.00000 29.637
32.16000 33.471
32.32000 26.319
32.48000 32.462
32.64000 26.312
32.80000 25.560
32.96000 34.597
33.12000 26.360
33.28000 20.176
33.44000 15.077
33.60000 15.187
33.76000 26.240
33.92000 16.161
34.08000 15.104
34.24000 22.215
34.40000 23.195
34.56000 20.117
34.72000 21.406
34.88000 22.120
35.04000 15.119
35.20000 23.409
35.36000 20.245
35.52000 12.102
35.68000 14.088
35.84000 22.234
36.00000 15.369
36.16000 14.111
36.32000 25.417
36.48000 22.348
36.64000 15.047
36.80000 14.120
36.96000 19.439
37.12000 27.413
37.28000 12.131
37.44000 13.107
37.60000 20.212
37.76000 20.296
37.92000 21.304
38.08000 16.190
38.24000 22.389
38.40000 22.147
38.56000 15.984
38.72000 20.163
38.88000 23.065
39.04000 20.440
39.20000 28.699
39.36000 19.148
39.52000 27.401
39.68000 16.129
39.84000 18.125
40.00000 19.203
40.16000 24.257
40.32000 18.191
40.48000 22.201
40.64000 15.159
40.80000 26.510
40.96000 21.273
41.12000 19.026
41.28000 28.357
41.44000 19.329
41.60000 18.484
41.76000 16.213
41.92000 15.320
42.08000 25.311
42.24000 24.194
42.40000 21.330
42.56000 23.185
42.72000 16.204
42.88000 20.512
43.04000 20.318
43.20000 24.247
43.36000 21.126
43.52000 28.586
43.68000 29.454
43.84000 22.247
44.00000 25.389
44.16000 21.200
44.32000 26.464
44.48000 27.403
44.64000 25.230
44.80000 19.305
44.96000 22.264
45.12000 20.192
45.28000 24.356
45.44000 21.512
45.60000 18.403
45.76000 23.237
45.92000 22.226
46.08000 23.342
46.24000 23.298
46.40000 17.276
46.56000 22.352
46.72000 20.149
46.88000 27.541
47.04000 16.166
47.20000 15.329
47.36000 19.402
47.52000 17.195
47.68000 17.298
47.84000 16.201
48.00000 18.241
48.16000 16.168
48.32000 19.098
48.48000 13.086
48.64000 14.297
48.80000 23.471
48.96000 26.408
49.12000 26.280
49.28000 7.022
49.44000 15.186
49.60000 22.072
49.76000 12.136
49.92000 18.218
50.08000 8.070
50.24000 18.093
50.40000 14.094
50.56000 16.311
50.72000 17.084
50.88000 16.224
51.04000 14.060
51.20000 9.987
51.36000 14.153
51.52000 22.278
51.68000 20.235
51.84000 16.121
52.00000 22.541
52.16000 16.243
52.32000 17.244
52.48000 8.220
52.64000 17.162
52.80000 20.101
52.96000 16.057
53.12000 10.116
53.28000 22.292
53.44000 11.233
53.60000 12.315
53.76000 12.124
53.92000 11.041
54.08000 9.094
54.24000 15.191
54.40000 17.288
54.56000 11.086
54.72000 11.133
54.88000 11.194
55.04000 15.146
55.20000 11.238
55.36000 14.201
55.52000 12.347
55.68000 14.219
55.84000 10.171
56.00000 9.161
56.16000 11.144
56.32000 10.144
56.48000 12.214
56.64000 9.169
56.80000 10.124
56.96000 13.105
57.12000 18.220
57.28000 20.127
57.44000 12.287
57.60000 14.173
57.76000 15.150
57.92000 10.019
58.08000 6.020
58.24000 16.385
58.40000 11.288
58.56000 14.065
58.72000 7.076
58.88000 7.044
59.04000 10.234
59.20000 9.027
59.36000 9.142
59.52000 9.096
59.68000 12.086
59.84000 14.095
60.00000 10.196
60.16000 11.097
60.32000 9.176
60.48000 6.078
60.64000 13.153
60.80000 12.230
60.96000 8.059
61.12000 9.117
61.28000 10.022
61.44000 10.111
61.60000 5.012
61.76000 9.133
61.92000 6.055
62.08000 15.311
62.24000 8.098
62.40000 9.190
62.56000 11.298
62.72000 5.011
62.88000 9.087
63.04000 12.230
63.20000 13.145
63.36000 7.049
63.52000 7.999
63.68000 7.086
63.84000 7.134
64.00000 10.023
64.16000 12.221
64.32000 7.072
64.48000 7.149
64.64000 7.126
64.80000 9.083
64.96000 10.131
65.00000 6.047