File: XRD/XRD/11-09-2025/XY Data/01092025_BTO_omega_1_001_35_-11-262_5-424.xy
20.00000 16.115
20.16000 18.165
20.32000 15.044
20.48000 20.302
20.64000 18.202
20.80000 18.319
20.96000 12.233
21.12000 21.385
21.28000 25.239
21.44000 24.140
21.60000 18.093
21.76000 14.275
21.92000 20.388
22.08000 21.330
22.24000 18.132
22.40000 18.266
22.56000 16.107
22.72000 15.179
22.88000 17.390
23.04000 20.076
23.20000 24.161
23.36000 22.426
23.52000 32.479
23.68000 15.219
23.84000 25.266
24.00000 28.331
24.16000 23.260
24.32000 28.331
24.48000 27.362
24.64000 24.205
24.80000 29.481
24.96000 35.572
25.12000 32.455
25.28000 28.512
25.44000 32.238
25.60000 36.297
25.76000 34.311
25.92000 42.534
26.08000 35.540
26.24000 40.616
26.40000 43.561
26.56000 40.466
26.72000 49.604
26.88000 48.429
27.04000 54.421
27.20000 49.380
27.36000 54.482
27.52000 34.546
27.68000 50.773
27.84000 47.690
28.00000 48.587
28.16000 36.235
28.32000 36.861
28.48000 33.599
28.64000 42.529
28.80000 42.517
28.96000 40.389
29.12000 30.469
29.28000 35.317
29.44000 28.403
29.60000 31.575
29.76000 26.391
29.92000 47.482
30.08000 32.651
30.24000 28.504
30.40000 24.343
30.56000 34.633
30.72000 17.213
30.88000 30.360
31.04000 28.484
31.20000 27.384
31.36000 25.410
31.52000 24.424
31.68000 20.188
31.84000 31.474
32.00000 23.387
32.16000 23.328
32.32000 26.233
32.48000 32.641
32.64000 22.277
32.80000 19.362
32.96000 16.215
33.12000 25.195
33.28000 13.087
33.44000 13.234
33.60000 22.263
33.76000 17.159
33.92000 13.151
34.08000 15.048
34.24000 23.426
34.40000 10.164
34.56000 22.439
34.72000 15.407
34.88000 12.262
35.04000 17.091
35.20000 15.171
35.36000 14.067
35.52000 21.030
35.68000 13.110
35.84000 12.124
36.00000 12.205
36.16000 17.326
36.32000 11.177
36.48000 17.301
36.64000 6.062
36.80000 13.160
36.96000 15.143
37.12000 13.150
37.28000 13.224
37.44000 18.237
37.60000 13.246
37.76000 21.570
37.92000 14.097
38.08000 15.275
38.24000 13.250
38.40000 19.223
38.56000 17.206
38.72000 20.345
38.88000 23.160
39.04000 16.373
39.20000 15.221
39.36000 19.398
39.52000 21.418
39.68000 14.234
39.84000 16.344
40.00000 19.298
40.16000 17.287
40.32000 21.138
40.48000 18.291
40.64000 17.285
40.80000 6.120
40.96000 19.383
41.12000 22.419
41.28000 21.136
41.44000 10.162
41.60000 17.263
41.76000 18.129
41.92000 27.269
42.08000 20.578
42.24000 19.493
42.40000 23.220
42.56000 27.126
42.72000 19.249
42.88000 19.282
43.04000 16.953
43.20000 26.238
43.36000 19.068
43.52000 16.218
43.68000 25.538
43.84000 11.102
44.00000 11.064
44.16000 21.268
44.32000 24.180
44.48000 13.027
44.64000 13.127
44.80000 13.265
44.96000 15.169
45.12000 19.385
45.28000 18.243
45.44000 19.290
45.60000 19.339
45.76000 15.004
45.92000 21.306
46.08000 17.224
46.24000 16.298
46.40000 31.359
46.56000 16.273
46.72000 20.025
46.88000 14.098
47.04000 25.106
47.20000 22.323
47.36000 14.222
47.52000 21.267
47.68000 21.233
47.84000 17.418
48.00000 16.219
48.16000 14.128
48.32000 15.272
48.48000 19.158
48.64000 17.285
48.80000 14.072
48.96000 16.128
49.12000 26.217
49.28000 6.074
49.44000 11.064
49.60000 15.315
49.76000 16.476
49.92000 15.278
50.08000 20.259
50.24000 10.161
50.40000 16.047
50.56000 16.232
50.72000 18.417
50.88000 12.257
51.04000 12.192
51.20000 12.071
51.36000 13.189
51.52000 15.185
51.68000 14.267
51.84000 17.211
52.00000 11.169
52.16000 16.195
52.32000 16.265
52.48000 11.104
52.64000 18.444
52.80000 13.072
52.96000 15.264
53.12000 13.268
53.28000 18.194
53.44000 12.091
53.60000 16.129
53.76000 14.197
53.92000 17.195
54.08000 14.126
54.24000 14.228
54.40000 11.082
54.56000 16.108
54.72000 13.147
54.88000 9.148
55.04000 11.177
55.20000 11.093
55.36000 14.168
55.52000 11.175
55.68000 9.020
55.84000 17.233
56.00000 6.110
56.16000 11.046
56.32000 11.345
56.48000 16.184
56.64000 14.356
56.80000 9.074
56.96000 13.223
57.12000 9.110
57.28000 14.227
57.44000 15.078
57.60000 13.112
57.76000 16.346
57.92000 18.151
58.08000 17.221
58.24000 8.223
58.40000 14.269
58.56000 10.124
58.72000 8.083
58.88000 12.312
59.04000 4.033
59.20000 18.143
59.36000 15.153
59.52000 8.065
59.68000 13.252
59.84000 7.141
60.00000 12.060
60.16000 12.196
60.32000 10.057
60.48000 5.108
60.64000 5.084
60.80000 13.156
60.96000 14.059
61.12000 8.103
61.28000 12.141
61.44000 13.083
61.60000 8.113
61.76000 5.037
61.92000 3.056
62.08000 12.104
62.24000 12.399
62.40000 12.077
62.56000 13.298
62.72000 10.077
62.88000 14.249
63.04000 6.144
63.20000 11.034
63.36000 11.073
63.52000 9.190
63.68000 12.083
63.84000 11.063
64.00000 11.137
64.16000 8.063
64.32000 7.171
64.48000 9.103
64.64000 7.986
64.80000 7.123
64.96000 4.075
65.00000 4.960