File: XRD/XRD/11-09-2025/XY Data/01092025_BTO_omega_1_001_10_5-563_-24-373.xy
20.00000 175.267
20.16000 182.320
20.32000 138.225
20.48000 171.526
20.64000 148.583
20.80000 124.292
20.96000 130.060
21.12000 124.141
21.28000 135.572
21.44000 121.387
21.60000 118.922
21.76000 96.925
21.92000 95.507
22.08000 88.665
22.24000 82.848
22.40000 86.600
22.56000 67.870
22.72000 75.812
22.88000 57.490
23.04000 49.295
23.20000 54.444
23.36000 56.742
23.52000 52.610
23.68000 44.661
23.84000 37.524
24.00000 37.183
24.16000 45.422
24.32000 33.353
24.48000 28.534
24.64000 25.315
24.80000 29.378
24.96000 23.296
25.12000 24.313
25.28000 22.207
25.44000 27.360
25.60000 17.267
25.76000 19.298
25.92000 18.219
26.08000 12.214
26.24000 13.189
26.40000 21.081
26.56000 10.097
26.72000 14.297
26.88000 16.155
27.04000 12.089
27.20000 18.114
27.36000 8.017
27.52000 11.043
27.68000 12.048
27.84000 13.030
28.00000 13.109
28.16000 12.284
28.32000 11.100
28.48000 14.211
28.64000 11.163
28.80000 12.060
28.96000 11.140
29.12000 12.115
29.28000 6.117
29.44000 12.207
29.60000 5.955
29.76000 4.086
29.92000 8.081
30.08000 8.075
30.24000 11.236
30.40000 11.182
30.56000 6.007
30.72000 11.123
30.88000 6.100
31.04000 14.230
31.20000 6.035
31.36000 13.139
31.52000 8.124
31.68000 10.039
31.84000 7.096
32.00000 6.045
32.16000 9.236
32.32000 12.188
32.48000 9.108
32.64000 8.148
32.80000 10.045
32.96000 7.135
33.12000 8.208
33.28000 8.116
33.44000 5.028
33.60000 11.072
33.76000 7.086
33.92000 9.193
34.08000 6.053
34.24000 6.110
34.40000 9.131
34.56000 2.970
34.72000 6.054
34.88000 6.017
35.04000 4.134
35.20000 8.278
35.36000 7.076
35.52000 10.164
35.68000 8.053
35.84000 5.035
36.00000 3.086
36.16000 4.991
36.32000 5.945
36.48000 6.032
36.64000 3.099
36.80000 6.057
36.96000 7.099
37.12000 3.055
37.28000 6.097
37.44000 1.001
37.60000 3.053
37.76000 4.044
37.92000 6.052
38.08000 7.059
38.24000 10.091
38.40000 3.043
38.56000 2.000
38.72000 7.039
38.88000 7.055
39.04000 3.011
39.20000 6.168
39.36000 4.166
39.52000 5.086
39.68000 7.044
39.84000 3.071
40.00000 5.099
40.16000 5.113
40.32000 6.023
40.48000 3.020
40.64000 3.023
40.80000 5.027
40.96000 4.061
41.12000 6.037
41.28000 3.035
41.44000 0.000
41.60000 6.122
41.76000 3.077
41.92000 7.010
42.08000 2.988
42.24000 6.124
42.40000 4.080
42.56000 7.114
42.72000 1.082
42.88000 3.060
43.04000 5.168
43.20000 7.147
43.36000 4.041
43.52000 5.127
43.68000 3.951
43.84000 4.097
44.00000 6.020
44.16000 5.062
44.32000 3.001
44.48000 8.075
44.64000 5.039
44.80000 2.016
44.96000 2.982
45.12000 2.015
45.28000 3.035
45.44000 1.064
45.60000 0.994
45.76000 5.100
45.92000 4.018
46.08000 6.079
46.24000 2.029
46.40000 5.080
46.56000 0.978
46.72000 6.156
46.88000 2.019
47.04000 0.000
47.20000 3.005
47.36000 3.057
47.52000 6.096
47.68000 3.987
47.84000 2.029
48.00000 3.070
48.16000 2.030
48.32000 1.982
48.48000 1.008
48.64000 2.014
48.80000 3.022
48.96000 4.139
49.12000 2.022
49.28000 2.988
49.44000 4.065
49.60000 5.017
49.76000 2.072
49.92000 4.119
50.08000 2.009
50.24000 4.047
50.40000 2.044
50.56000 4.016
50.72000 2.066
50.88000 4.935
51.04000 2.981
51.20000 1.021
51.36000 2.986
51.52000 4.022
51.68000 4.154
51.84000 2.065
52.00000 0.987
52.16000 2.998
52.32000 4.072
52.48000 2.029
52.64000 4.006
52.80000 3.048
52.96000 5.004
53.12000 7.047
53.28000 2.019
53.44000 3.036
53.60000 2.006
53.76000 0.000
53.92000 2.006
54.08000 0.981
54.24000 3.057
54.40000 4.007
54.56000 2.063
54.72000 0.980
54.88000 2.068
55.04000 1.021
55.20000 4.073
55.36000 1.012
55.52000 3.057
55.68000 1.029
55.84000 4.001
56.00000 1.018
56.16000 4.083
56.32000 5.229
56.48000 0.997
56.64000 2.008
56.80000 2.024
56.96000 4.024
57.12000 4.947
57.28000 7.115
57.44000 1.045
57.60000 1.007
57.76000 4.047
57.92000 0.998
58.08000 1.069
58.24000 4.045
58.40000 5.064
58.56000 3.001
58.72000 2.028
58.88000 2.011
59.04000 2.037
59.20000 1.997
59.36000 2.012
59.52000 4.068
59.68000 1.989
59.84000 2.016
60.00000 0.000
60.16000 1.982
60.32000 0.995
60.48000 2.002
60.64000 6.192
60.80000 1.037
60.96000 0.990
61.12000 3.024
61.28000 1.048
61.44000 1.053
61.60000 0.984
61.76000 1.002
61.92000 0.000
62.08000 3.007
62.24000 2.032
62.40000 6.973
62.56000 1.995
62.72000 0.000
62.88000 2.973
63.04000 1.048
63.20000 0.000
63.36000 2.053
63.52000 3.084
63.68000 1.011
63.84000 2.996
64.00000 3.044
64.16000 0.000
64.32000 0.000
64.48000 1.028
64.64000 3.011
64.80000 4.023
64.96000 3.014
65.00000 0.000