File: XRD/XRD/11-09-2025/XY Data/01092025_BTO_omega_0_5_001_16_15-587_19-546.xy
20.00000 15.135
20.16000 16.045
20.32000 26.346
20.48000 21.156
20.64000 18.169
20.80000 16.340
20.96000 16.198
21.12000 23.350
21.28000 20.341
21.44000 17.162
21.60000 18.206
21.76000 24.390
21.92000 26.478
22.08000 26.350
22.24000 22.304
22.40000 33.355
22.56000 30.392
22.72000 22.409
22.88000 27.489
23.04000 24.408
23.20000 35.645
23.36000 25.231
23.52000 22.274
23.68000 30.455
23.84000 30.314
24.00000 33.418
24.16000 31.388
24.32000 30.263
24.48000 31.189
24.64000 38.441
24.80000 35.556
24.96000 34.367
25.12000 45.695
25.28000 54.593
25.44000 46.719
25.60000 36.482
25.76000 51.847
25.92000 52.508
26.08000 46.377
26.24000 53.669
26.40000 51.766
26.56000 58.098
26.72000 50.998
26.88000 52.692
27.04000 69.149
27.20000 58.963
27.36000 71.896
27.52000 55.706
27.68000 62.981
27.84000 41.699
28.00000 69.811
28.16000 65.357
28.32000 44.600
28.48000 58.893
28.64000 63.664
28.80000 60.996
28.96000 55.871
29.12000 57.649
29.28000 64.763
29.44000 55.722
29.60000 54.022
29.76000 44.517
29.92000 51.861
30.08000 47.628
30.24000 31.524
30.40000 46.434
30.56000 46.701
30.72000 35.373
30.88000 33.775
31.04000 33.173
31.20000 37.363
31.36000 32.906
31.52000 37.715
31.68000 28.297
31.84000 28.290
32.00000 37.378
32.16000 25.201
32.32000 29.448
32.48000 28.331
32.64000 37.597
32.80000 24.146
32.96000 19.202
33.12000 14.262
33.28000 14.133
33.44000 24.461
33.60000 17.406
33.76000 25.162
33.92000 18.366
34.08000 16.253
34.24000 21.227
34.40000 22.374
34.56000 20.209
34.72000 16.209
34.88000 28.491
35.04000 25.424
35.20000 14.322
35.36000 21.309
35.52000 16.961
35.68000 15.267
35.84000 10.107
36.00000 23.354
36.16000 18.258
36.32000 23.199
36.48000 13.198
36.64000 16.066
36.80000 16.064
36.96000 18.266
37.12000 19.289
37.28000 21.352
37.44000 16.170
37.60000 21.410
37.76000 24.415
37.92000 26.507
38.08000 29.456
38.24000 20.338
38.40000 18.235
38.56000 23.298
38.72000 25.144
38.88000 21.381
39.04000 28.301
39.20000 28.231
39.36000 19.288
39.52000 16.140
39.68000 19.328
39.84000 20.109
40.00000 18.087
40.16000 19.121
40.32000 28.384
40.48000 20.269
40.64000 23.331
40.80000 21.278
40.96000 12.178
41.12000 16.190
41.28000 23.311
41.44000 19.266
41.60000 22.410
41.76000 21.246
41.92000 24.465
42.08000 15.236
42.24000 20.459
42.40000 23.269
42.56000 16.062
42.72000 25.224
42.88000 26.329
43.04000 20.215
43.20000 21.422
43.36000 24.483
43.52000 21.305
43.68000 21.314
43.84000 24.498
44.00000 22.251
44.16000 15.212
44.32000 28.323
44.48000 18.357
44.64000 14.040
44.80000 23.412
44.96000 25.345
45.12000 18.209
45.28000 19.319
45.44000 17.276
45.60000 22.387
45.76000 15.251
45.92000 21.539
46.08000 22.344
46.24000 11.264
46.40000 18.199
46.56000 14.165
46.72000 27.281
46.88000 22.259
47.04000 13.217
47.20000 12.047
47.36000 16.042
47.52000 14.312
47.68000 15.209
47.84000 23.412
48.00000 21.025
48.16000 17.138
48.32000 18.129
48.48000 21.357
48.64000 14.295
48.80000 10.043
48.96000 11.194
49.12000 25.228
49.28000 16.125
49.44000 20.299
49.60000 16.050
49.76000 15.094
49.92000 13.372
50.08000 12.082
50.24000 11.129
50.40000 16.254
50.56000 16.113
50.72000 15.315
50.88000 12.133
51.04000 11.092
51.20000 23.195
51.36000 12.121
51.52000 18.227
51.68000 18.397
51.84000 12.022
52.00000 15.261
52.16000 15.370
52.32000 17.231
52.48000 20.244
52.64000 9.104
52.80000 14.262
52.96000 16.278
53.12000 15.338
53.28000 14.152
53.44000 16.159
53.60000 13.271
53.76000 15.138
53.92000 14.158
54.08000 9.088
54.24000 12.193
54.40000 12.231
54.56000 14.150
54.72000 17.244
54.88000 11.253
55.04000 17.328
55.20000 10.209
55.36000 15.964
55.52000 17.223
55.68000 7.120
55.84000 9.292
56.00000 13.283
56.16000 12.171
56.32000 23.219
56.48000 18.145
56.64000 12.113
56.80000 16.166
56.96000 12.022
57.12000 10.205
57.28000 16.330
57.44000 12.196
57.60000 9.124
57.76000 8.125
57.92000 8.071
58.08000 12.268
58.24000 12.081
58.40000 8.954
58.56000 13.257
58.72000 10.227
58.88000 7.046
59.04000 11.079
59.20000 15.059
59.36000 6.025
59.52000 8.198
59.68000 15.210
59.84000 13.281
60.00000 9.018
60.16000 14.257
60.32000 10.168
60.48000 10.172
60.64000 14.263
60.80000 9.079
60.96000 9.326
61.12000 9.115
61.28000 5.102
61.44000 7.007
61.60000 8.083
61.76000 16.179
61.92000 9.009
62.08000 6.084
62.24000 5.023
62.40000 8.009
62.56000 17.155
62.72000 5.025
62.88000 15.195
63.04000 8.068
63.20000 13.087
63.36000 14.105
63.52000 7.059
63.68000 12.140
63.84000 3.018
64.00000 6.081
64.16000 2.997
64.32000 9.054
64.48000 14.237
64.64000 11.164
64.80000 13.184
64.96000 9.140
65.00000 11.998