File: XRD/XRD/11-09-2025/XY Data/01092025_BTO_omega_1_001_42_33-786_16-271.xy
20.00000 18.199
20.16000 20.012
20.32000 25.488
20.48000 20.114
20.64000 15.045
20.80000 15.221
20.96000 18.336
21.12000 19.198
21.28000 18.372
21.44000 22.326
21.60000 22.409
21.76000 16.203
21.92000 21.173
22.08000 18.292
22.24000 14.166
22.40000 31.409
22.56000 27.347
22.72000 23.226
22.88000 17.203
23.04000 20.258
23.20000 18.352
23.36000 21.336
23.52000 17.140
23.68000 24.164
23.84000 27.420
24.00000 29.335
24.16000 27.490
24.32000 26.397
24.48000 26.279
24.64000 27.184
24.80000 27.293
24.96000 32.464
25.12000 34.085
25.28000 34.516
25.44000 43.439
25.60000 39.414
25.76000 48.278
25.92000 41.629
26.08000 50.661
26.24000 53.529
26.40000 41.948
26.56000 49.733
26.72000 44.437
26.88000 41.724
27.04000 46.629
27.20000 39.877
27.36000 54.703
27.52000 51.720
27.68000 53.935
27.84000 48.357
28.00000 58.826
28.16000 47.628
28.32000 59.637
28.48000 46.620
28.64000 67.806
28.80000 46.623
28.96000 43.318
29.12000 46.766
29.28000 42.558
29.44000 45.564
29.60000 50.666
29.76000 34.824
29.92000 42.525
30.08000 44.456
30.24000 36.489
30.40000 32.473
30.56000 29.313
30.72000 33.499
30.88000 41.347
31.04000 37.468
31.20000 26.489
31.36000 39.449
31.52000 31.372
31.68000 22.248
31.84000 23.247
32.00000 26.355
32.16000 28.454
32.32000 22.099
32.48000 25.121
32.64000 27.316
32.80000 21.204
32.96000 24.455
33.12000 10.086
33.28000 24.266
33.44000 14.134
33.60000 15.332
33.76000 13.291
33.92000 17.347
34.08000 14.244
34.24000 23.299
34.40000 17.257
34.56000 15.386
34.72000 11.086
34.88000 14.069
35.04000 14.107
35.20000 14.169
35.36000 17.104
35.52000 13.232
35.68000 15.174
35.84000 17.293
36.00000 17.112
36.16000 18.268
36.32000 11.124
36.48000 15.013
36.64000 14.094
36.80000 17.131
36.96000 17.221
37.12000 13.177
37.28000 12.109
37.44000 20.242
37.60000 15.155
37.76000 18.346
37.92000 20.356
38.08000 15.255
38.24000 24.271
38.40000 11.084
38.56000 18.281
38.72000 21.213
38.88000 15.309
39.04000 23.531
39.20000 28.377
39.36000 25.302
39.52000 23.214
39.68000 21.262
39.84000 22.321
40.00000 20.194
40.16000 24.456
40.32000 21.221
40.48000 23.179
40.64000 22.224
40.80000 12.033
40.96000 14.087
41.12000 31.558
41.28000 19.316
41.44000 19.299
41.60000 18.318
41.76000 25.372
41.92000 16.198
42.08000 21.267
42.24000 27.324
42.40000 24.240
42.56000 27.316
42.72000 29.326
42.88000 26.387
43.04000 33.369
43.20000 25.323
43.36000 22.363
43.52000 21.272
43.68000 18.095
43.84000 17.142
44.00000 19.177
44.16000 18.295
44.32000 24.264
44.48000 23.224
44.64000 23.240
44.80000 27.238
44.96000 15.082
45.12000 15.149
45.28000 21.091
45.44000 16.226
45.60000 22.374
45.76000 13.361
45.92000 23.439
46.08000 22.463
46.24000 21.226
46.40000 23.321
46.56000 14.204
46.72000 16.082
46.88000 20.088
47.04000 15.187
47.20000 13.030
47.36000 21.254
47.52000 12.242
47.68000 22.148
47.84000 15.212
48.00000 15.142
48.16000 17.174
48.32000 20.232
48.48000 18.140
48.64000 21.366
48.80000 14.096
48.96000 14.154
49.12000 18.201
49.28000 19.166
49.44000 19.458
49.60000 21.178
49.76000 12.097
49.92000 19.088
50.08000 22.121
50.24000 18.245
50.40000 10.161
50.56000 17.177
50.72000 11.060
50.88000 20.393
51.04000 14.053
51.20000 11.301
51.36000 23.563
51.52000 18.093
51.68000 12.419
51.84000 11.230
52.00000 10.196
52.16000 10.314
52.32000 12.047
52.48000 21.127
52.64000 11.107
52.80000 15.229
52.96000 22.245
53.12000 16.232
53.28000 10.075
53.44000 15.371
53.60000 18.176
53.76000 23.354
53.92000 18.312
54.08000 18.165
54.24000 14.179
54.40000 12.049
54.56000 13.227
54.72000 10.075
54.88000 16.224
55.04000 16.219
55.20000 14.153
55.36000 14.118
55.52000 18.136
55.68000 15.072
55.84000 13.166
56.00000 11.165
56.16000 14.214
56.32000 11.008
56.48000 14.140
56.64000 15.070
56.80000 13.102
56.96000 7.213
57.12000 11.147
57.28000 14.139
57.44000 19.407
57.60000 20.270
57.76000 13.157
57.92000 15.536
58.08000 7.189
58.24000 15.163
58.40000 16.077
58.56000 11.156
58.72000 11.130
58.88000 11.154
59.04000 11.403
59.20000 14.224
59.36000 7.070
59.52000 7.195
59.68000 14.141
59.84000 22.295
60.00000 13.283
60.16000 14.134
60.32000 15.265
60.48000 9.011
60.64000 9.032
60.80000 12.195
60.96000 15.309
61.12000 13.106
61.28000 10.133
61.44000 12.128
61.60000 10.184
61.76000 9.095
61.92000 15.370
62.08000 13.164
62.24000 9.173
62.40000 4.996
62.56000 5.002
62.72000 9.223
62.88000 6.181
63.04000 14.065
63.20000 9.085
63.36000 13.232
63.52000 12.172
63.68000 10.153
63.84000 8.947
64.00000 9.229
64.16000 10.085
64.32000 12.013
64.48000 9.088
64.64000 12.100
64.80000 9.192
64.96000 13.245
65.00000 11.155