File: XRD/XRD/11-09-2025/XY Data/01092025_BTO_omega_1_001_01_-11-126_-48-746.xy
20.00000 148.626
20.16000 145.912
20.32000 117.539
20.48000 136.528
20.64000 111.511
20.80000 117.470
20.96000 98.363
21.12000 114.014
21.28000 109.998
21.44000 81.560
21.60000 78.748
21.76000 76.451
21.92000 83.640
22.08000 75.148
22.24000 61.561
22.40000 67.394
22.56000 45.547
22.72000 46.327
22.88000 55.650
23.04000 43.565
23.20000 29.236
23.36000 20.216
23.52000 31.248
23.68000 30.053
23.84000 32.422
24.00000 21.229
24.16000 21.170
24.32000 17.226
24.48000 28.418
24.64000 30.477
24.80000 23.266
24.96000 19.233
25.12000 28.234
25.28000 15.252
25.44000 18.149
25.60000 18.391
25.76000 15.284
25.92000 22.292
26.08000 15.165
26.24000 17.082
26.40000 8.034
26.56000 16.176
26.72000 9.169
26.88000 13.233
27.04000 8.195
27.20000 7.094
27.36000 13.200
27.52000 15.212
27.68000 18.099
27.84000 15.171
28.00000 8.059
28.16000 11.040
28.32000 19.463
28.48000 12.198
28.64000 10.304
28.80000 10.992
28.96000 11.102
29.12000 4.053
29.28000 8.047
29.44000 10.100
29.60000 7.104
29.76000 4.002
29.92000 9.109
30.08000 10.088
30.24000 12.115
30.40000 12.181
30.56000 7.129
30.72000 8.112
30.88000 8.027
31.04000 11.235
31.20000 12.186
31.36000 4.021
31.52000 9.032
31.68000 10.096
31.84000 10.110
32.00000 3.064
32.16000 11.196
32.32000 6.096
32.48000 6.052
32.64000 14.046
32.80000 6.092
32.96000 8.121
33.12000 4.080
33.28000 6.032
33.44000 11.079
33.60000 6.055
33.76000 6.188
33.92000 6.085
34.08000 7.027
34.24000 4.111
34.40000 6.085
34.56000 6.080
34.72000 6.056
34.88000 9.075
35.04000 8.148
35.20000 10.262
35.36000 10.251
35.52000 6.000
35.68000 4.061
35.84000 14.057
36.00000 6.143
36.16000 8.197
36.32000 2.047
36.48000 4.089
36.64000 10.168
36.80000 9.215
36.96000 4.070
37.12000 3.012
37.28000 8.094
37.44000 9.167
37.60000 7.043
37.76000 3.053
37.92000 4.044
38.08000 5.061
38.24000 7.153
38.40000 6.104
38.56000 7.162
38.72000 5.022
38.88000 4.999
39.04000 4.056
39.20000 7.073
39.36000 2.058
39.52000 7.036
39.68000 3.070
39.84000 8.008
40.00000 11.067
40.16000 6.187
40.32000 4.037
40.48000 1.054
40.64000 4.032
40.80000 5.089
40.96000 6.105
41.12000 9.124
41.28000 1.006
41.44000 1.975
41.60000 5.031
41.76000 6.016
41.92000 5.012
42.08000 1.033
42.24000 1.998
42.40000 7.098
42.56000 0.000
42.72000 3.059
42.88000 3.027
43.04000 6.035
43.20000 4.016
43.36000 5.073
43.52000 3.081
43.68000 5.028
43.84000 3.086
44.00000 5.110
44.16000 5.083
44.32000 5.046
44.48000 10.167
44.64000 2.059
44.80000 6.045
44.96000 3.030
45.12000 5.114
45.28000 3.972
45.44000 2.099
45.60000 4.013
45.76000 3.978
45.92000 3.088
46.08000 2.034
46.24000 4.037
46.40000 5.063
46.56000 4.031
46.72000 3.041
46.88000 5.977
47.04000 5.048
47.20000 1.007
47.36000 4.008
47.52000 2.046
47.68000 2.984
47.84000 3.061
48.00000 5.973
48.16000 0.000
48.32000 3.082
48.48000 1.987
48.64000 3.079
48.80000 1.992
48.96000 2.033
49.12000 8.113
49.28000 4.076
49.44000 3.023
49.60000 3.044
49.76000 3.052
49.92000 1.025
50.08000 1.019
50.24000 1.023
50.40000 1.978
50.56000 0.985
50.72000 1.017
50.88000 3.994
51.04000 0.000
51.20000 0.000
51.36000 0.000
51.52000 4.137
51.68000 3.072
51.84000 3.064
52.00000 4.982
52.16000 0.000
52.32000 4.013
52.48000 5.159
52.64000 1.010
52.80000 3.070
52.96000 4.077
53.12000 1.006
53.28000 1.038
53.44000 5.131
53.60000 6.077
53.76000 3.054
53.92000 2.048
54.08000 2.007
54.24000 4.925
54.40000 4.048
54.56000 1.029
54.72000 2.066
54.88000 3.089
55.04000 1.024
55.20000 2.980
55.36000 2.027
55.52000 4.095
55.68000 1.984
55.84000 1.009
56.00000 6.033
56.16000 3.003
56.32000 1.014
56.48000 1.984
56.64000 2.980
56.80000 0.999
56.96000 3.018
57.12000 3.147
57.28000 2.063
57.44000 4.037
57.60000 2.024
57.76000 3.037
57.92000 0.990
58.08000 3.039
58.24000 2.049
58.40000 2.979
58.56000 2.053
58.72000 4.033
58.88000 3.109
59.04000 3.044
59.20000 2.015
59.36000 3.042
59.52000 2.046
59.68000 1.064
59.84000 1.024
60.00000 1.986
60.16000 3.049
60.32000 4.969
60.48000 1.009
60.64000 1.032
60.80000 2.033
60.96000 2.016
61.12000 0.991
61.28000 2.027
61.44000 1.013
61.60000 4.014
61.76000 1.002
61.92000 2.067
62.08000 4.008
62.24000 2.046
62.40000 0.993
62.56000 0.000
62.72000 2.016
62.88000 2.988
63.04000 2.061
63.20000 2.984
63.36000 0.000
63.52000 2.039
63.68000 3.083
63.84000 1.031
64.00000 1.965
64.16000 4.024
64.32000 2.010
64.48000 0.997
64.64000 5.073
64.80000 4.028
64.96000 2.025
65.00000 0.000