File: XRD/XRD/11-09-2025/XY Data/01092025_BTO_omega_0_5_001_21_-23-381_29-319.xy
20.00000 16.219
20.16000 20.229
20.32000 15.225
20.48000 17.224
20.64000 17.203
20.80000 14.158
20.96000 30.341
21.12000 25.064
21.28000 26.322
21.44000 18.126
21.60000 23.137
21.76000 23.263
21.92000 25.289
22.08000 22.324
22.24000 26.389
22.40000 29.368
22.56000 17.355
22.72000 20.143
22.88000 22.380
23.04000 30.242
23.20000 31.656
23.36000 37.472
23.52000 33.352
23.68000 40.415
23.84000 37.869
24.00000 43.740
24.16000 33.143
24.32000 52.791
24.48000 32.388
24.64000 40.786
24.80000 47.843
24.96000 36.434
25.12000 41.667
25.28000 39.663
25.44000 46.695
25.60000 62.749
25.76000 53.497
25.92000 51.737
26.08000 35.154
26.24000 68.061
26.40000 42.582
26.56000 54.572
26.72000 76.182
26.88000 57.014
27.04000 58.656
27.20000 50.586
27.36000 70.124
27.52000 61.687
27.68000 42.636
27.84000 46.680
28.00000 66.877
28.16000 51.599
28.32000 56.567
28.48000 51.750
28.64000 53.881
28.80000 48.648
28.96000 60.888
29.12000 59.627
29.28000 36.419
29.44000 57.876
29.60000 64.810
29.76000 48.564
29.92000 45.594
30.08000 28.401
30.24000 38.369
30.40000 40.702
30.56000 41.756
30.72000 40.188
30.88000 36.335
31.04000 34.451
31.20000 24.187
31.36000 35.290
31.52000 31.577
31.68000 29.435
31.84000 21.320
32.00000 25.330
32.16000 21.301
32.32000 28.322
32.48000 29.506
32.64000 32.364
32.80000 26.378
32.96000 17.107
33.12000 25.442
33.28000 18.349
33.44000 21.143
33.60000 27.417
33.76000 20.218
33.92000 24.349
34.08000 24.413
34.24000 23.269
34.40000 21.181
34.56000 16.030
34.72000 21.227
34.88000 21.356
35.04000 21.127
35.20000 24.310
35.36000 13.082
35.52000 16.304
35.68000 17.194
35.84000 14.479
36.00000 18.123
36.16000 18.318
36.32000 15.336
36.48000 23.379
36.64000 14.066
36.80000 16.129
36.96000 22.182
37.12000 16.192
37.28000 19.470
37.44000 25.139
37.60000 13.291
37.76000 17.293
37.92000 22.202
38.08000 16.197
38.24000 23.150
38.40000 13.242
38.56000 18.936
38.72000 17.342
38.88000 13.156
39.04000 17.105
39.20000 22.454
39.36000 26.274
39.52000 22.333
39.68000 27.318
39.84000 21.150
40.00000 21.211
40.16000 28.464
40.32000 25.287
40.48000 27.160
40.64000 17.372
40.80000 27.429
40.96000 9.166
41.12000 18.173
41.28000 26.285
41.44000 31.085
41.60000 33.579
41.76000 22.200
41.92000 16.304
42.08000 25.241
42.24000 26.465
42.40000 17.131
42.56000 25.462
42.72000 18.356
42.88000 25.425
43.04000 20.171
43.20000 21.240
43.36000 26.399
43.52000 24.195
43.68000 20.096
43.84000 18.407
44.00000 23.096
44.16000 26.392
44.32000 15.386
44.48000 20.246
44.64000 27.263
44.80000 18.173
44.96000 16.113
45.12000 20.265
45.28000 22.251
45.44000 19.286
45.60000 20.186
45.76000 26.476
45.92000 23.261
46.08000 19.099
46.24000 14.267
46.40000 12.239
46.56000 18.176
46.72000 23.318
46.88000 23.257
47.04000 17.158
47.20000 18.230
47.36000 19.213
47.52000 25.379
47.68000 20.176
47.84000 20.080
48.00000 19.179
48.16000 29.209
48.32000 20.345
48.48000 24.184
48.64000 21.132
48.80000 13.231
48.96000 18.255
49.12000 14.086
49.28000 23.388
49.44000 9.996
49.60000 22.345
49.76000 20.241
49.92000 15.229
50.08000 21.196
50.24000 19.373
50.40000 17.283
50.56000 13.288
50.72000 21.272
50.88000 14.104
51.04000 19.217
51.20000 22.299
51.36000 15.149
51.52000 17.294
51.68000 9.252
51.84000 16.060
52.00000 13.276
52.16000 16.041
52.32000 13.173
52.48000 19.181
52.64000 18.097
52.80000 17.229
52.96000 11.174
53.12000 18.062
53.28000 12.281
53.44000 12.144
53.60000 14.034
53.76000 18.340
53.92000 17.173
54.08000 19.354
54.24000 16.152
54.40000 22.169
54.56000 16.167
54.72000 12.093
54.88000 15.089
55.04000 10.114
55.20000 7.030
55.36000 15.337
55.52000 15.252
55.68000 18.321
55.84000 13.976
56.00000 17.338
56.16000 21.540
56.32000 6.055
56.48000 12.222
56.64000 15.255
56.80000 13.101
56.96000 14.100
57.12000 15.202
57.28000 16.115
57.44000 20.294
57.60000 15.281
57.76000 9.054
57.92000 15.420
58.08000 13.177
58.24000 15.224
58.40000 13.294
58.56000 13.207
58.72000 10.157
58.88000 14.181
59.04000 17.137
59.20000 10.185
59.36000 13.107
59.52000 16.265
59.68000 14.111
59.84000 7.083
60.00000 10.996
60.16000 16.383
60.32000 9.063
60.48000 15.175
60.64000 6.109
60.80000 12.149
60.96000 9.027
61.12000 9.263
61.28000 8.108
61.44000 10.161
61.60000 8.025
61.76000 7.122
61.92000 12.148
62.08000 6.115
62.24000 7.142
62.40000 6.156
62.56000 5.133
62.72000 9.146
62.88000 5.140
63.04000 8.179
63.20000 7.093
63.36000 8.166
63.52000 5.125
63.68000 7.201
63.84000 3.024
64.00000 11.282
64.16000 10.119
64.32000 7.103
64.48000 6.008
64.64000 8.963
64.80000 8.146
64.96000 8.039
65.00000 8.056