File: XRD/XRD/11-09-2025/XY Data/01092025_BTO_omega_0_5_001_04_50-000_0-000.xy
20.00000 14.212
20.16000 11.165
20.32000 10.168
20.48000 12.158
20.64000 13.169
20.80000 12.230
20.96000 10.183
21.12000 11.142
21.28000 18.226
21.44000 9.082
21.60000 10.230
21.76000 21.317
21.92000 19.236
22.08000 12.139
22.24000 13.032
22.40000 8.174
22.56000 11.132
22.72000 9.087
22.88000 13.173
23.04000 16.352
23.20000 15.138
23.36000 10.179
23.52000 11.175
23.68000 11.227
23.84000 11.167
24.00000 13.223
24.16000 12.032
24.32000 11.205
24.48000 10.106
24.64000 10.140
24.80000 6.124
24.96000 6.006
25.12000 10.232
25.28000 12.209
25.44000 12.227
25.60000 15.068
25.76000 12.264
25.92000 8.108
26.08000 10.188
26.24000 12.232
26.40000 12.283
26.56000 12.256
26.72000 11.335
26.88000 18.204
27.04000 16.523
27.20000 12.155
27.36000 8.070
27.52000 15.174
27.68000 14.250
27.84000 15.232
28.00000 20.173
28.16000 12.158
28.32000 13.246
28.48000 23.407
28.64000 12.107
28.80000 14.185
28.96000 16.284
29.12000 9.232
29.28000 9.188
29.44000 19.232
29.60000 9.161
29.76000 13.070
29.92000 11.150
30.08000 6.028
30.24000 13.235
30.40000 15.224
30.56000 7.082
30.72000 6.150
30.88000 8.064
31.04000 6.029
31.20000 8.249
31.36000 16.212
31.52000 9.143
31.68000 8.082
31.84000 4.065
32.00000 8.077
32.16000 9.210
32.32000 8.070
32.48000 8.156
32.64000 9.213
32.80000 8.155
32.96000 4.980
33.12000 6.108
33.28000 7.064
33.44000 5.059
33.60000 4.001
33.76000 8.084
33.92000 9.048
34.08000 8.105
34.24000 12.294
34.40000 5.997
34.56000 4.057
34.72000 7.078
34.88000 4.052
35.04000 4.070
35.20000 9.167
35.36000 7.178
35.52000 4.046
35.68000 3.039
35.84000 10.114
36.00000 3.987
36.16000 9.094
36.32000 5.161
36.48000 4.079
36.64000 13.315
36.80000 5.011
36.96000 3.133
37.12000 6.126
37.28000 4.982
37.44000 4.004
37.60000 7.192
37.76000 8.978
37.92000 4.050
38.08000 7.066
38.24000 3.038
38.40000 5.071
38.56000 5.075
38.72000 5.000
38.88000 5.038
39.04000 2.047
39.20000 2.998
39.36000 4.037
39.52000 10.121
39.68000 8.145
39.84000 4.953
40.00000 7.173
40.16000 3.086
40.32000 3.036
40.48000 3.022
40.64000 7.021
40.80000 5.085
40.96000 6.068
41.12000 2.992
41.28000 6.064
41.44000 5.044
41.60000 3.998
41.76000 4.038
41.92000 8.131
42.08000 3.012
42.24000 11.165
42.40000 3.973
42.56000 10.208
42.72000 6.019
42.88000 3.061
43.04000 5.094
43.20000 2.044
43.36000 4.054
43.52000 2.040
43.68000 4.125
43.84000 4.041
44.00000 7.031
44.16000 9.124
44.32000 2.991
44.48000 5.189
44.64000 3.075
44.80000 7.951
44.96000 8.144
45.12000 4.089
45.28000 2.059
45.44000 4.146
45.60000 1.986
45.76000 7.018
45.92000 5.137
46.08000 6.152
46.24000 5.060
46.40000 5.094
46.56000 5.051
46.72000 5.042
46.88000 4.030
47.04000 11.154
47.20000 8.208
47.36000 4.025
47.52000 6.180
47.68000 4.100
47.84000 6.046
48.00000 3.040
48.16000 7.084
48.32000 5.043
48.48000 6.983
48.64000 3.017
48.80000 5.099
48.96000 7.070
49.12000 4.963
49.28000 2.987
49.44000 8.156
49.60000 6.060
49.76000 1.048
49.92000 5.011
50.08000 4.080
50.24000 7.153
50.40000 6.090
50.56000 6.145
50.72000 5.040
50.88000 7.133
51.04000 2.051
51.20000 2.110
51.36000 0.992
51.52000 2.996
51.68000 3.054
51.84000 4.098
52.00000 3.037
52.16000 6.176
52.32000 6.104
52.48000 5.061
52.64000 8.060
52.80000 5.032
52.96000 5.095
53.12000 3.078
53.28000 2.072
53.44000 4.111
53.60000 0.993
53.76000 4.981
53.92000 5.138
54.08000 6.108
54.24000 9.061
54.40000 5.073
54.56000 3.000
54.72000 2.030
54.88000 4.092
55.04000 4.014
55.20000 6.166
55.36000 7.082
55.52000 4.096
55.68000 0.988
55.84000 3.010
56.00000 3.019
56.16000 3.126
56.32000 8.136
56.48000 1.984
56.64000 6.054
56.80000 3.074
56.96000 5.082
57.12000 1.001
57.28000 4.087
57.44000 7.977
57.60000 1.017
57.76000 0.981
57.92000 4.090
58.08000 1.994
58.24000 3.069
58.40000 5.142
58.56000 6.003
58.72000 1.011
58.88000 0.993
59.04000 3.063
59.20000 2.012
59.36000 3.054
59.52000 0.000
59.68000 2.987
59.84000 3.007
60.00000 4.020
60.16000 5.007
60.32000 2.081
60.48000 0.989
60.64000 0.984
60.80000 0.995
60.96000 3.084
61.12000 2.012
61.28000 5.097
61.44000 2.988
61.60000 1.980
61.76000 2.048
61.92000 6.087
62.08000 5.173
62.24000 4.096
62.40000 4.012
62.56000 6.094
62.72000 1.042
62.88000 6.034
63.04000 6.143
63.20000 3.061
63.36000 1.966
63.52000 1.037
63.68000 1.994
63.84000 1.040
64.00000 3.017
64.16000 2.044
64.32000 1.949
64.48000 4.103
64.64000 2.047
64.80000 1.998
64.96000 4.056
65.00000 3.047