File: XRD/XRD/11-09-2025/XY Data/01092025_BTO_omega_0_5_001_01_12-500_0-000.xy
20.00000 11.997
20.16000 19.131
20.32000 11.169
20.48000 14.306
20.64000 14.459
20.80000 22.270
20.96000 17.210
21.12000 12.025
21.28000 21.257
21.44000 16.257
21.60000 14.244
21.76000 23.380
21.92000 21.299
22.08000 17.149
22.24000 18.213
22.40000 18.132
22.56000 15.307
22.72000 12.219
22.88000 23.432
23.04000 15.264
23.20000 16.196
23.36000 18.423
23.52000 13.189
23.68000 26.582
23.84000 8.123
24.00000 18.258
24.16000 15.117
24.32000 16.230
24.48000 27.349
24.64000 17.159
24.80000 14.393
24.96000 17.181
25.12000 20.292
25.28000 24.219
25.44000 30.249
25.60000 23.176
25.76000 38.632
25.92000 26.240
26.08000 19.447
26.24000 31.349
26.40000 34.502
26.56000 31.388
26.72000 32.434
26.88000 29.445
27.04000 41.432
27.20000 32.467
27.36000 37.585
27.52000 31.288
27.68000 36.533
27.84000 23.191
28.00000 39.646
28.16000 35.402
28.32000 46.634
28.48000 24.361
28.64000 34.321
28.80000 38.531
28.96000 21.372
29.12000 26.322
29.28000 17.242
29.44000 25.083
29.60000 29.579
29.76000 16.174
29.92000 26.380
30.08000 21.459
30.24000 14.256
30.40000 21.303
30.56000 27.354
30.72000 20.262
30.88000 15.143
31.04000 20.283
31.20000 22.192
31.36000 17.162
31.52000 19.251
31.68000 24.280
31.84000 16.146
32.00000 18.155
32.16000 14.202
32.32000 15.133
32.48000 17.186
32.64000 17.314
32.80000 19.146
32.96000 10.130
33.12000 10.273
33.28000 19.248
33.44000 15.469
33.60000 13.180
33.76000 12.125
33.92000 13.257
34.08000 12.195
34.24000 9.082
34.40000 9.074
34.56000 13.284
34.72000 10.207
34.88000 4.063
35.04000 8.216
35.20000 22.038
35.36000 9.057
35.52000 11.130
35.68000 6.040
35.84000 5.032
36.00000 11.335
36.16000 15.215
36.32000 10.234
36.48000 13.183
36.64000 11.093
36.80000 9.108
36.96000 8.056
37.12000 12.067
37.28000 9.012
37.44000 18.275
37.60000 13.163
37.76000 9.248
37.92000 12.165
38.08000 11.172
38.24000 9.125
38.40000 9.096
38.56000 12.091
38.72000 12.238
38.88000 15.241
39.04000 11.199
39.20000 7.136
39.36000 11.284
39.52000 16.086
39.68000 10.040
39.84000 13.353
40.00000 13.146
40.16000 16.416
40.32000 16.291
40.48000 7.105
40.64000 8.201
40.80000 12.146
40.96000 12.360
41.12000 16.074
41.28000 15.312
41.44000 13.130
41.60000 10.272
41.76000 11.128
41.92000 4.126
42.08000 12.225
42.24000 8.186
42.40000 12.120
42.56000 11.258
42.72000 10.269
42.88000 14.205
43.04000 13.032
43.20000 9.056
43.36000 13.078
43.52000 15.203
43.68000 9.042
43.84000 13.180
44.00000 10.064
44.16000 10.034
44.32000 15.263
44.48000 13.163
44.64000 8.225
44.80000 16.158
44.96000 11.177
45.12000 13.383
45.28000 8.218
45.44000 15.302
45.60000 12.188
45.76000 8.052
45.92000 7.101
46.08000 14.079
46.24000 12.201
46.40000 11.038
46.56000 11.056
46.72000 11.030
46.88000 14.131
47.04000 10.176
47.20000 11.224
47.36000 10.061
47.52000 8.147
47.68000 8.053
47.84000 6.139
48.00000 10.183
48.16000 9.116
48.32000 10.099
48.48000 7.146
48.64000 8.113
48.80000 11.185
48.96000 12.128
49.12000 6.092
49.28000 19.224
49.44000 14.136
49.60000 15.227
49.76000 3.999
49.92000 5.003
50.08000 12.305
50.24000 11.179
50.40000 6.051
50.56000 8.111
50.72000 5.982
50.88000 9.172
51.04000 12.244
51.20000 10.241
51.36000 17.038
51.52000 3.045
51.68000 10.138
51.84000 6.089
52.00000 9.149
52.16000 7.023
52.32000 12.260
52.48000 0.000
52.64000 8.042
52.80000 7.025
52.96000 7.247
53.12000 7.039
53.28000 10.117
53.44000 4.070
53.60000 11.255
53.76000 8.054
53.92000 6.159
54.08000 10.097
54.24000 7.267
54.40000 5.034
54.56000 6.157
54.72000 8.085
54.88000 7.032
55.04000 8.036
55.20000 5.993
55.36000 12.174
55.52000 3.976
55.68000 13.216
55.84000 8.012
56.00000 7.103
56.16000 5.092
56.32000 5.004
56.48000 9.038
56.64000 10.290
56.80000 8.989
56.96000 9.096
57.12000 8.056
57.28000 10.130
57.44000 3.007
57.60000 7.152
57.76000 7.147
57.92000 7.078
58.08000 11.134
58.24000 6.049
58.40000 9.069
58.56000 3.114
58.72000 12.120
58.88000 5.074
59.04000 9.140
59.20000 5.022
59.36000 6.053
59.52000 6.098
59.68000 3.049
59.84000 5.055
60.00000 2.018
60.16000 6.136
60.32000 7.152
60.48000 6.989
60.64000 3.021
60.80000 5.064
60.96000 6.034
61.12000 9.166
61.28000 4.072
61.44000 4.012
61.60000 4.066
61.76000 9.999
61.92000 5.974
62.08000 10.167
62.24000 3.001
62.40000 6.093
62.56000 7.211
62.72000 4.078
62.88000 4.102
63.04000 6.143
63.20000 4.018
63.36000 5.059
63.52000 4.969
63.68000 5.092
63.84000 7.173
64.00000 5.041
64.16000 6.071
64.32000 7.040
64.48000 6.962
64.64000 3.049
64.80000 4.987
64.96000 6.087
65.00000 3.991