File: XRD/XRD/11-09-2025/XY Data/01092025_BTO_omega_1_001_44_-15-587_19-546.xy
20.00000 24.423
20.16000 17.234
20.32000 15.510
20.48000 21.195
20.64000 23.274
20.80000 14.190
20.96000 20.270
21.12000 19.362
21.28000 21.316
21.44000 14.259
21.60000 23.242
21.76000 19.177
21.92000 21.184
22.08000 19.403
22.24000 24.241
22.40000 14.333
22.56000 24.114
22.72000 19.210
22.88000 20.394
23.04000 21.389
23.20000 28.269
23.36000 27.138
23.52000 19.332
23.68000 36.459
23.84000 20.212
24.00000 19.283
24.16000 31.754
24.32000 30.275
24.48000 48.542
24.64000 31.344
24.80000 30.382
24.96000 31.595
25.12000 26.224
25.28000 27.208
25.44000 27.133
25.60000 27.326
25.76000 30.253
25.92000 40.494
26.08000 38.546
26.24000 41.636
26.40000 34.404
26.56000 48.562
26.72000 42.686
26.88000 44.832
27.04000 40.312
27.20000 53.686
27.36000 43.746
27.52000 47.472
27.68000 46.605
27.84000 37.650
28.00000 48.750
28.16000 37.287
28.32000 46.692
28.48000 43.449
28.64000 37.548
28.80000 41.816
28.96000 47.601
29.12000 49.714
29.28000 45.490
29.44000 33.227
29.60000 32.410
29.76000 22.152
29.92000 34.377
30.08000 38.593
30.24000 30.270
30.40000 22.521
30.56000 29.285
30.72000 32.346
30.88000 24.214
31.04000 30.315
31.20000 25.490
31.36000 24.262
31.52000 31.431
31.68000 30.396
31.84000 26.179
32.00000 27.223
32.16000 25.227
32.32000 20.256
32.48000 19.300
32.64000 22.337
32.80000 17.318
32.96000 14.139
33.12000 12.109
33.28000 26.251
33.44000 27.515
33.60000 11.209
33.76000 21.347
33.92000 14.316
34.08000 15.040
34.24000 11.295
34.40000 19.205
34.56000 17.231
34.72000 23.284
34.88000 22.228
35.04000 24.332
35.20000 14.120
35.36000 13.234
35.52000 18.192
35.68000 16.487
35.84000 7.077
36.00000 10.280
36.16000 12.221
36.32000 17.243
36.48000 19.286
36.64000 19.320
36.80000 18.232
36.96000 12.035
37.12000 17.017
37.28000 15.147
37.44000 12.112
37.60000 10.246
37.76000 22.294
37.92000 21.205
38.08000 21.370
38.24000 12.259
38.40000 24.405
38.56000 15.148
38.72000 20.384
38.88000 15.191
39.04000 17.248
39.20000 18.081
39.36000 15.063
39.52000 21.197
39.68000 23.415
39.84000 21.367
40.00000 25.397
40.16000 16.013
40.32000 18.175
40.48000 15.260
40.64000 22.490
40.80000 26.329
40.96000 17.178
41.12000 26.333
41.28000 18.198
41.44000 18.253
41.60000 19.160
41.76000 21.305
41.92000 25.238
42.08000 20.165
42.24000 23.262
42.40000 14.120
42.56000 17.262
42.72000 19.168
42.88000 20.251
43.04000 19.212
43.20000 12.114
43.36000 11.117
43.52000 25.152
43.68000 17.334
43.84000 20.217
44.00000 21.206
44.16000 17.325
44.32000 24.452
44.48000 16.190
44.64000 15.212
44.80000 10.075
44.96000 19.221
45.12000 17.429
45.28000 15.271
45.44000 9.021
45.60000 14.995
45.76000 19.417
45.92000 13.171
46.08000 12.218
46.24000 17.249
46.40000 20.294
46.56000 10.280
46.72000 13.215
46.88000 16.256
47.04000 27.244
47.20000 14.265
47.36000 17.277
47.52000 14.253
47.68000 13.036
47.84000 15.260
48.00000 20.249
48.16000 18.154
48.32000 13.228
48.48000 15.996
48.64000 14.335
48.80000 14.105
48.96000 15.320
49.12000 7.094
49.28000 14.290
49.44000 15.190
49.60000 17.106
49.76000 22.344
49.92000 17.275
50.08000 15.303
50.24000 11.246
50.40000 17.205
50.56000 10.092
50.72000 21.193
50.88000 11.177
51.04000 16.297
51.20000 15.314
51.36000 16.374
51.52000 16.158
51.68000 8.094
51.84000 13.062
52.00000 13.125
52.16000 9.148
52.32000 23.206
52.48000 16.218
52.64000 14.213
52.80000 13.092
52.96000 17.118
53.12000 14.069
53.28000 18.156
53.44000 17.163
53.60000 16.029
53.76000 17.415
53.92000 11.214
54.08000 15.068
54.24000 15.191
54.40000 11.256
54.56000 14.163
54.72000 15.219
54.88000 18.275
55.04000 15.160
55.20000 17.180
55.36000 17.174
55.52000 11.089
55.68000 14.284
55.84000 13.144
56.00000 16.336
56.16000 5.067
56.32000 11.224
56.48000 11.340
56.64000 8.073
56.80000 15.194
56.96000 12.007
57.12000 8.093
57.28000 13.132
57.44000 12.121
57.60000 11.090
57.76000 7.007
57.92000 12.257
58.08000 9.319
58.24000 16.234
58.40000 10.029
58.56000 18.085
58.72000 11.103
58.88000 11.222
59.04000 13.127
59.20000 11.012
59.36000 13.070
59.52000 5.024
59.68000 10.218
59.84000 10.240
60.00000 10.251
60.16000 6.074
60.32000 17.364
60.48000 13.241
60.64000 10.126
60.80000 11.274
60.96000 12.137
61.12000 7.155
61.28000 7.118
61.44000 7.135
61.60000 6.103
61.76000 11.124
61.92000 6.031
62.08000 6.040
62.24000 8.162
62.40000 13.407
62.56000 11.225
62.72000 10.218
62.88000 10.151
63.04000 6.167
63.20000 11.171
63.36000 10.246
63.52000 8.201
63.68000 4.019
63.84000 7.069
64.00000 6.152
64.16000 9.134
64.32000 9.268
64.48000 7.112
64.64000 10.120
64.80000 7.124
64.96000 12.089
65.00000 12.141