File: XRD/XRD/11-09-2025/XY Data/01092025_BTO_omega_1_001_11_45-048_-21-694.xy
20.00000 21.215
20.16000 18.286
20.32000 22.272
20.48000 28.569
20.64000 19.401
20.80000 16.064
20.96000 25.378
21.12000 19.251
21.28000 20.387
21.44000 14.228
21.60000 17.244
21.76000 16.248
21.92000 15.094
22.08000 11.216
22.24000 25.987
22.40000 13.141
22.56000 13.187
22.72000 22.164
22.88000 15.286
23.04000 16.254
23.20000 13.136
23.36000 19.275
23.52000 23.138
23.68000 15.169
23.84000 10.043
24.00000 8.073
24.16000 7.097
24.32000 14.201
24.48000 15.253
24.64000 9.063
24.80000 6.092
24.96000 10.271
25.12000 8.166
25.28000 13.299
25.44000 7.094
25.60000 13.263
25.76000 15.204
25.92000 11.195
26.08000 9.155
26.24000 17.096
26.40000 15.296
26.56000 15.268
26.72000 9.169
26.88000 10.157
27.04000 12.312
27.20000 2.999
27.36000 15.174
27.52000 12.109
27.68000 5.106
27.84000 17.192
28.00000 8.076
28.16000 13.229
28.32000 14.203
28.48000 10.280
28.64000 11.052
28.80000 11.142
28.96000 13.221
29.12000 10.096
29.28000 9.012
29.44000 8.332
29.60000 8.142
29.76000 12.119
29.92000 10.228
30.08000 8.183
30.24000 10.142
30.40000 3.046
30.56000 7.025
30.72000 8.078
30.88000 10.105
31.04000 10.266
31.20000 8.090
31.36000 8.172
31.52000 8.134
31.68000 11.193
31.84000 5.130
32.00000 8.141
32.16000 2.021
32.32000 6.051
32.48000 5.048
32.64000 10.028
32.80000 6.232
32.96000 9.059
33.12000 7.027
33.28000 5.027
33.44000 7.107
33.60000 13.185
33.76000 2.029
33.92000 10.190
34.08000 8.109
34.24000 5.991
34.40000 7.092
34.56000 6.025
34.72000 8.041
34.88000 7.129
35.04000 6.069
35.20000 5.076
35.36000 6.093
35.52000 3.029
35.68000 5.128
35.84000 1.043
36.00000 3.027
36.16000 2.009
36.32000 5.081
36.48000 2.043
36.64000 1.017
36.80000 5.013
36.96000 7.074
37.12000 5.074
37.28000 2.045
37.44000 7.099
37.60000 4.054
37.76000 2.037
37.92000 4.039
38.08000 2.012
38.24000 3.955
38.40000 3.038
38.56000 3.066
38.72000 2.994
38.88000 8.083
39.04000 3.049
39.20000 5.997
39.36000 7.043
39.52000 2.038
39.68000 4.996
39.84000 5.022
40.00000 4.013
40.16000 4.013
40.32000 4.995
40.48000 2.980
40.64000 4.070
40.80000 6.104
40.96000 4.033
41.12000 0.998
41.28000 1.021
41.44000 1.058
41.60000 5.149
41.76000 5.077
41.92000 1.991
42.08000 5.085
42.24000 2.051
42.40000 0.994
42.56000 2.005
42.72000 5.110
42.88000 1.022
43.04000 3.027
43.20000 4.003
43.36000 4.041
43.52000 1.007
43.68000 6.093
43.84000 2.001
44.00000 0.995
44.16000 6.084
44.32000 1.014
44.48000 5.013
44.64000 0.000
44.80000 1.019
44.96000 5.023
45.12000 3.072
45.28000 2.016
45.44000 0.000
45.60000 3.037
45.76000 4.089
45.92000 0.983
46.08000 2.006
46.24000 3.060
46.40000 1.018
46.56000 4.016
46.72000 1.985
46.88000 4.138
47.04000 4.009
47.20000 0.991
47.36000 2.037
47.52000 3.038
47.68000 5.114
47.84000 2.004
48.00000 2.015
48.16000 4.026
48.32000 2.005
48.48000 4.048
48.64000 1.014
48.80000 1.002
48.96000 1.050
49.12000 4.121
49.28000 1.984
49.44000 1.009
49.60000 2.089
49.76000 1.032
49.92000 3.050
50.08000 2.063
50.24000 0.000
50.40000 1.040
50.56000 0.000
50.72000 4.064
50.88000 2.039
51.04000 1.011
51.20000 1.010
51.36000 4.058
51.52000 2.050
51.68000 1.991
51.84000 0.975
52.00000 0.000
52.16000 3.970
52.32000 1.001
52.48000 2.017
52.64000 0.995
52.80000 2.022
52.96000 2.022
53.12000 1.022
53.28000 0.000
53.44000 0.998
53.60000 1.976
53.76000 1.040
53.92000 3.017
54.08000 2.999
54.24000 5.011
54.40000 0.991
54.56000 2.009
54.72000 0.000
54.88000 0.000
55.04000 4.092
55.20000 0.000
55.36000 2.986
55.52000 3.106
55.68000 1.021
55.84000 2.047
56.00000 1.037
56.16000 0.000
56.32000 2.998
56.48000 2.047
56.64000 0.000
56.80000 1.021
56.96000 0.989
57.12000 1.045
57.28000 0.992
57.44000 3.089
57.60000 1.056
57.76000 1.000
57.92000 1.001
58.08000 1.998
58.24000 1.041
58.40000 2.069
58.56000 0.000
58.72000 0.000
58.88000 0.999
59.04000 1.022
59.20000 1.992
59.36000 2.061
59.52000 0.000
59.68000 0.000
59.84000 0.000
60.00000 3.030
60.16000 1.035
60.32000 1.002
60.48000 1.030
60.64000 0.000
60.80000 0.000
60.96000 0.000
61.12000 2.046
61.28000 1.009
61.44000 0.999
61.60000 0.000
61.76000 3.102
61.92000 0.000
62.08000 2.971
62.24000 0.000
62.40000 2.058
62.56000 0.987
62.72000 0.000
62.88000 0.000
63.04000 1.001
63.20000 4.047
63.36000 0.000
63.52000 0.993
63.68000 1.027
63.84000 1.044
64.00000 0.000
64.16000 0.000
64.32000 0.989
64.48000 1.999
64.64000 0.000
64.80000 0.000
64.96000 0.000
65.00000 2.970