File: XRD/XRD/11-09-2025/XY Data/01092025_BTO_omega_1_001_05_-8-345_-36-560.xy
20.00000 159.784
20.16000 144.896
20.32000 141.085
20.48000 154.801
20.64000 119.445
20.80000 116.144
20.96000 132.120
21.12000 112.368
21.28000 125.909
21.44000 99.244
21.60000 86.926
21.76000 96.252
21.92000 85.778
22.08000 63.803
22.24000 78.908
22.40000 63.698
22.56000 50.282
22.72000 46.566
22.88000 59.993
23.04000 52.333
23.20000 50.593
23.36000 34.545
23.52000 33.146
23.68000 41.387
23.84000 24.132
24.00000 39.436
24.16000 35.444
24.32000 27.466
24.48000 32.386
24.64000 23.263
24.80000 31.363
24.96000 24.212
25.12000 18.056
25.28000 8.902
25.44000 18.242
25.60000 15.081
25.76000 12.987
25.92000 17.087
26.08000 18.186
26.24000 7.116
26.40000 10.176
26.56000 18.130
26.72000 15.202
26.88000 6.075
27.04000 10.148
27.20000 16.322
27.36000 17.116
27.52000 7.080
27.68000 7.129
27.84000 13.078
28.00000 7.164
28.16000 14.155
28.32000 11.209
28.48000 7.094
28.64000 10.073
28.80000 15.143
28.96000 9.065
29.12000 10.030
29.28000 10.080
29.44000 8.096
29.60000 16.036
29.76000 9.113
29.92000 4.055
30.08000 11.269
30.24000 13.180
30.40000 6.050
30.56000 8.052
30.72000 10.200
30.88000 5.141
31.04000 17.270
31.20000 9.089
31.36000 8.079
31.52000 8.135
31.68000 11.198
31.84000 15.046
32.00000 5.006
32.16000 4.024
32.32000 8.127
32.48000 11.106
32.64000 8.176
32.80000 14.198
32.96000 9.186
33.12000 7.181
33.28000 8.160
33.44000 8.175
33.60000 8.087
33.76000 13.205
33.92000 8.076
34.08000 8.127
34.24000 10.214
34.40000 11.159
34.56000 8.090
34.72000 1.986
34.88000 10.045
35.04000 8.135
35.20000 10.112
35.36000 6.145
35.52000 6.137
35.68000 5.048
35.84000 6.076
36.00000 6.112
36.16000 4.034
36.32000 4.083
36.48000 6.111
36.64000 3.998
36.80000 6.001
36.96000 5.138
37.12000 7.021
37.28000 4.040
37.44000 7.056
37.60000 5.197
37.76000 3.007
37.92000 6.226
38.08000 8.016
38.24000 6.222
38.40000 5.119
38.56000 2.041
38.72000 5.118
38.88000 5.054
39.04000 7.079
39.20000 2.022
39.36000 1.994
39.52000 1.027
39.68000 5.994
39.84000 3.080
40.00000 6.080
40.16000 6.057
40.32000 4.054
40.48000 7.184
40.64000 7.064
40.80000 6.044
40.96000 2.999
41.12000 6.013
41.28000 4.090
41.44000 3.995
41.60000 2.046
41.76000 5.079
41.92000 4.013
42.08000 4.011
42.24000 1.974
42.40000 5.127
42.56000 3.022
42.72000 2.049
42.88000 2.970
43.04000 2.984
43.20000 5.924
43.36000 4.100
43.52000 5.010
43.68000 5.127
43.84000 6.097
44.00000 4.111
44.16000 9.058
44.32000 2.006
44.48000 0.000
44.64000 6.059
44.80000 4.003
44.96000 3.083
45.12000 6.048
45.28000 1.980
45.44000 4.144
45.60000 3.055
45.76000 7.153
45.92000 4.057
46.08000 4.041
46.24000 4.110
46.40000 1.029
46.56000 5.082
46.72000 0.000
46.88000 0.987
47.04000 3.031
47.20000 1.030
47.36000 1.011
47.52000 6.060
47.68000 5.024
47.84000 1.997
48.00000 2.007
48.16000 5.078
48.32000 0.000
48.48000 4.064
48.64000 3.020
48.80000 1.003
48.96000 3.081
49.12000 3.055
49.28000 2.995
49.44000 3.045
49.60000 1.963
49.76000 1.034
49.92000 1.977
50.08000 1.978
50.24000 0.982
50.40000 3.011
50.56000 1.066
50.72000 1.960
50.88000 2.045
51.04000 7.120
51.20000 0.000
51.36000 3.011
51.52000 6.088
51.68000 3.028
51.84000 2.039
52.00000 3.055
52.16000 1.007
52.32000 2.993
52.48000 8.143
52.64000 1.996
52.80000 1.987
52.96000 3.040
53.12000 0.993
53.28000 0.000
53.44000 3.092
53.60000 0.981
53.76000 2.032
53.92000 5.069
54.08000 4.073
54.24000 7.096
54.40000 0.984
54.56000 0.984
54.72000 3.079
54.88000 0.000
55.04000 2.006
55.20000 4.055
55.36000 4.123
55.52000 0.997
55.68000 5.066
55.84000 3.013
56.00000 3.997
56.16000 2.107
56.32000 3.083
56.48000 1.005
56.64000 3.017
56.80000 4.098
56.96000 1.027
57.12000 1.996
57.28000 2.016
57.44000 0.000
57.60000 3.082
57.76000 4.057
57.92000 1.036
58.08000 1.055
58.24000 2.056
58.40000 2.027
58.56000 2.076
58.72000 0.000
58.88000 4.188
59.04000 4.087
59.20000 0.000
59.36000 1.024
59.52000 1.058
59.68000 1.028
59.84000 3.033
60.00000 1.980
60.16000 2.084
60.32000 3.009
60.48000 3.036
60.64000 1.067
60.80000 3.042
60.96000 3.019
61.12000 3.087
61.28000 3.064
61.44000 0.981
61.60000 2.007
61.76000 2.038
61.92000 3.983
62.08000 0.980
62.24000 3.067
62.40000 1.012
62.56000 0.000
62.72000 0.000
62.88000 0.000
63.04000 1.025
63.20000 1.984
63.36000 1.020
63.52000 2.000
63.68000 0.000
63.84000 3.016
64.00000 3.090
64.16000 1.992
64.32000 1.981
64.48000 2.053
64.64000 1.003
64.80000 2.015
64.96000 1.021
65.00000 0.000