File: XRD/XRD/11-09-2025/XY Data/01092025_BTO_omega_0_5_001_22_23-381_29-319.xy
20.00000 21.277
20.16000 18.232
20.32000 24.265
20.48000 29.362
20.64000 12.098
20.80000 17.098
20.96000 16.120
21.12000 11.100
21.28000 28.248
21.44000 24.386
21.60000 17.094
21.76000 21.240
21.92000 27.614
22.08000 23.270
22.24000 24.277
22.40000 24.322
22.56000 20.298
22.72000 14.028
22.88000 22.154
23.04000 22.167
23.20000 19.186
23.36000 24.578
23.52000 35.257
23.68000 21.484
23.84000 34.513
24.00000 34.217
24.16000 28.420
24.32000 30.317
24.48000 37.593
24.64000 37.409
24.80000 42.593
24.96000 42.457
25.12000 33.362
25.28000 41.404
25.44000 42.734
25.60000 44.483
25.76000 51.589
25.92000 45.611
26.08000 44.592
26.24000 36.665
26.40000 58.643
26.56000 52.511
26.72000 46.488
26.88000 67.826
27.04000 54.698
27.20000 51.935
27.36000 66.944
27.52000 71.216
27.68000 59.911
27.84000 69.094
28.00000 50.824
28.16000 56.465
28.32000 69.061
28.48000 72.136
28.64000 63.133
28.80000 66.989
28.96000 65.146
29.12000 55.653
29.28000 57.978
29.44000 39.565
29.60000 51.689
29.76000 55.659
29.92000 54.980
30.08000 48.832
30.24000 43.662
30.40000 50.741
30.56000 33.274
30.72000 44.709
30.88000 37.376
31.04000 38.328
31.20000 42.538
31.36000 24.405
31.52000 44.912
31.68000 27.439
31.84000 31.177
32.00000 40.707
32.16000 24.438
32.32000 23.390
32.48000 29.316
32.64000 38.590
32.80000 29.263
32.96000 28.190
33.12000 23.435
33.28000 23.971
33.44000 16.307
33.60000 26.451
33.76000 20.518
33.92000 33.542
34.08000 16.207
34.24000 30.225
34.40000 17.275
34.56000 17.273
34.72000 21.233
34.88000 27.474
35.04000 23.142
35.20000 18.247
35.36000 17.135
35.52000 13.109
35.68000 15.139
35.84000 12.146
36.00000 20.356
36.16000 18.253
36.32000 16.314
36.48000 19.204
36.64000 9.101
36.80000 18.328
36.96000 12.031
37.12000 21.089
37.28000 25.356
37.44000 17.066
37.60000 13.037
37.76000 19.237
37.92000 15.277
38.08000 22.367
38.24000 18.315
38.40000 16.042
38.56000 20.300
38.72000 20.134
38.88000 23.298
39.04000 27.234
39.20000 16.046
39.36000 17.169
39.52000 23.484
39.68000 25.437
39.84000 22.269
40.00000 13.225
40.16000 11.241
40.32000 20.186
40.48000 17.374
40.64000 22.118
40.80000 25.483
40.96000 25.317
41.12000 15.163
41.28000 19.299
41.44000 19.117
41.60000 21.466
41.76000 19.278
41.92000 27.352
42.08000 20.529
42.24000 27.343
42.40000 24.384
42.56000 25.289
42.72000 17.229
42.88000 22.338
43.04000 16.266
43.20000 24.344
43.36000 26.324
43.52000 22.336
43.68000 26.386
43.84000 20.137
44.00000 26.188
44.16000 30.416
44.32000 20.421
44.48000 21.376
44.64000 29.384
44.80000 29.219
44.96000 17.177
45.12000 17.316
45.28000 19.243
45.44000 26.590
45.60000 26.220
45.76000 28.390
45.92000 23.299
46.08000 19.257
46.24000 24.419
46.40000 19.186
46.56000 22.163
46.72000 17.166
46.88000 16.199
47.04000 24.204
47.20000 11.169
47.36000 25.237
47.52000 27.345
47.68000 20.162
47.84000 20.279
48.00000 17.101
48.16000 16.238
48.32000 17.244
48.48000 22.271
48.64000 17.434
48.80000 22.166
48.96000 16.339
49.12000 15.139
49.28000 18.312
49.44000 23.407
49.60000 18.197
49.76000 17.204
49.92000 19.322
50.08000 15.096
50.24000 22.376
50.40000 20.222
50.56000 10.160
50.72000 16.078
50.88000 23.201
51.04000 11.162
51.20000 18.136
51.36000 17.139
51.52000 17.173
51.68000 21.269
51.84000 12.272
52.00000 21.468
52.16000 13.062
52.32000 17.430
52.48000 13.230
52.64000 19.194
52.80000 19.063
52.96000 19.244
53.12000 15.130
53.28000 16.202
53.44000 16.230
53.60000 18.376
53.76000 18.115
53.92000 15.211
54.08000 18.294
54.24000 13.091
54.40000 5.038
54.56000 20.338
54.72000 12.043
54.88000 11.140
55.04000 19.476
55.20000 8.134
55.36000 11.105
55.52000 14.189
55.68000 12.942
55.84000 9.156
56.00000 18.189
56.16000 15.086
56.32000 13.148
56.48000 16.229
56.64000 14.168
56.80000 10.944
56.96000 9.080
57.12000 9.045
57.28000 21.665
57.44000 18.290
57.60000 9.080
57.76000 11.089
57.92000 18.272
58.08000 12.212
58.24000 10.148
58.40000 17.245
58.56000 7.148
58.72000 11.206
58.88000 5.127
59.04000 11.134
59.20000 5.989
59.36000 14.155
59.52000 11.162
59.68000 9.135
59.84000 12.045
60.00000 8.035
60.16000 8.118
60.32000 5.085
60.48000 10.129
60.64000 13.170
60.80000 7.186
60.96000 11.212
61.12000 8.993
61.28000 8.061
61.44000 9.053
61.60000 8.134
61.76000 14.290
61.92000 7.046
62.08000 12.164
62.24000 9.198
62.40000 14.052
62.56000 8.108
62.72000 5.068
62.88000 7.142
63.04000 8.133
63.20000 7.082
63.36000 7.106
63.52000 9.114
63.68000 8.151
63.84000 3.056
64.00000 0.000
64.16000 4.068
64.32000 15.238
64.48000 12.132
64.64000 6.110
64.80000 1.973
64.96000 7.085
65.00000 7.185