File: XRD/XRD/11-09-2025/XY Data/01092025_BTO_omega_0_5_001_03_37-500_0-000.xy
20.00000 14.192
20.16000 20.623
20.32000 9.040
20.48000 21.380
20.64000 8.983
20.80000 20.226
20.96000 18.307
21.12000 16.233
21.28000 17.329
21.44000 11.181
21.60000 13.220
21.76000 12.161
21.92000 21.278
22.08000 13.147
22.24000 11.101
22.40000 17.299
22.56000 5.989
22.72000 13.250
22.88000 9.036
23.04000 11.159
23.20000 18.233
23.36000 15.348
23.52000 13.084
23.68000 17.092
23.84000 21.338
24.00000 15.219
24.16000 17.244
24.32000 15.116
24.48000 21.248
24.64000 15.065
24.80000 18.117
24.96000 17.257
25.12000 20.321
25.28000 27.465
25.44000 21.304
25.60000 22.277
25.76000 21.284
25.92000 17.318
26.08000 19.185
26.24000 22.225
26.40000 21.258
26.56000 31.473
26.72000 25.144
26.88000 21.407
27.04000 23.328
27.20000 24.273
27.36000 24.517
27.52000 30.288
27.68000 29.510
27.84000 39.242
28.00000 28.376
28.16000 25.487
28.32000 28.533
28.48000 26.227
28.64000 26.293
28.80000 18.339
28.96000 21.162
29.12000 35.506
29.28000 30.205
29.44000 20.292
29.60000 21.213
29.76000 19.324
29.92000 19.238
30.08000 14.113
30.24000 25.299
30.40000 17.149
30.56000 17.385
30.72000 20.256
30.88000 24.387
31.04000 21.238
31.20000 20.447
31.36000 14.189
31.52000 16.149
31.68000 17.189
31.84000 12.182
32.00000 13.302
32.16000 13.178
32.32000 15.975
32.48000 10.077
32.64000 8.214
32.80000 12.210
32.96000 15.125
33.12000 11.144
33.28000 6.067
33.44000 3.026
33.60000 5.019
33.76000 14.285
33.92000 11.124
34.08000 12.073
34.24000 7.104
34.40000 14.000
34.56000 9.066
34.72000 7.088
34.88000 8.158
35.04000 12.126
35.20000 4.121
35.36000 12.032
35.52000 9.032
35.68000 4.135
35.84000 8.067
36.00000 2.996
36.16000 14.157
36.32000 10.149
36.48000 10.215
36.64000 3.962
36.80000 5.075
36.96000 9.072
37.12000 5.032
37.28000 10.132
37.44000 9.094
37.60000 5.057
37.76000 5.071
37.92000 8.106
38.08000 8.076
38.24000 11.130
38.40000 5.098
38.56000 8.165
38.72000 7.032
38.88000 6.947
39.04000 5.064
39.20000 2.004
39.36000 11.202
39.52000 9.164
39.68000 13.306
39.84000 12.169
40.00000 4.064
40.16000 5.088
40.32000 6.195
40.48000 6.013
40.64000 13.145
40.80000 12.081
40.96000 10.053
41.12000 10.143
41.28000 9.159
41.44000 13.078
41.60000 5.092
41.76000 9.024
41.92000 10.200
42.08000 3.140
42.24000 9.923
42.40000 3.002
42.56000 7.991
42.72000 7.002
42.88000 8.157
43.04000 7.099
43.20000 6.990
43.36000 8.158
43.52000 7.113
43.68000 10.211
43.84000 4.124
44.00000 6.037
44.16000 7.096
44.32000 12.142
44.48000 13.994
44.64000 11.263
44.80000 12.174
44.96000 8.979
45.12000 4.068
45.28000 15.149
45.44000 13.201
45.60000 8.174
45.76000 11.278
45.92000 12.230
46.08000 5.113
46.24000 6.177
46.40000 9.210
46.56000 15.220
46.72000 7.132
46.88000 6.140
47.04000 12.142
47.20000 8.238
47.36000 14.124
47.52000 10.198
47.68000 12.082
47.84000 4.051
48.00000 8.185
48.16000 11.290
48.32000 15.233
48.48000 4.985
48.64000 7.081
48.80000 7.098
48.96000 6.004
49.12000 7.081
49.28000 6.147
49.44000 9.090
49.60000 5.079
49.76000 5.069
49.92000 13.153
50.08000 6.049
50.24000 10.172
50.40000 6.035
50.56000 11.185
50.72000 8.119
50.88000 7.060
51.04000 9.147
51.20000 5.085
51.36000 10.946
51.52000 8.116
51.68000 10.255
51.84000 8.111
52.00000 7.162
52.16000 5.057
52.32000 6.048
52.48000 8.167
52.64000 9.160
52.80000 4.045
52.96000 6.052
53.12000 10.089
53.28000 6.128
53.44000 8.056
53.60000 8.083
53.76000 6.006
53.92000 8.071
54.08000 7.171
54.24000 5.050
54.40000 3.100
54.56000 7.094
54.72000 6.091
54.88000 9.110
55.04000 8.068
55.20000 5.127
55.36000 6.091
55.52000 4.027
55.68000 12.999
55.84000 3.137
56.00000 7.038
56.16000 7.125
56.32000 8.114
56.48000 5.088
56.64000 3.042
56.80000 3.065
56.96000 10.168
57.12000 5.074
57.28000 10.266
57.44000 8.100
57.60000 3.995
57.76000 6.163
57.92000 4.017
58.08000 7.064
58.24000 7.161
58.40000 9.017
58.56000 5.087
58.72000 5.065
58.88000 3.046
59.04000 4.006
59.20000 4.971
59.36000 7.064
59.52000 1.967
59.68000 6.140
59.84000 4.012
60.00000 2.982
60.16000 3.026
60.32000 0.978
60.48000 0.000
60.64000 4.064
60.80000 1.041
60.96000 5.055
61.12000 1.998
61.28000 3.024
61.44000 3.009
61.60000 5.141
61.76000 6.175
61.92000 6.961
62.08000 5.157
62.24000 6.047
62.40000 3.991
62.56000 2.968
62.72000 4.121
62.88000 2.088
63.04000 7.056
63.20000 5.028
63.36000 2.064
63.52000 3.013
63.68000 4.083
63.84000 2.026
64.00000 4.991
64.16000 1.008
64.32000 5.157
64.48000 5.082
64.64000 1.041
64.80000 2.033
64.96000 5.029
65.00000 6.079