File: XRD/XRD/11-09-2025/XY Data/01092025_BTO_omega_1_001_40_2-782_12-187.xy
20.00000 14.219
20.16000 17.160
20.32000 17.088
20.48000 19.143
20.64000 20.094
20.80000 23.426
20.96000 30.324
21.12000 16.251
21.28000 16.376
21.44000 26.311
21.60000 24.198
21.76000 21.302
21.92000 28.268
22.08000 22.120
22.24000 32.399
22.40000 20.323
22.56000 33.601
22.72000 23.363
22.88000 19.193
23.04000 16.193
23.20000 31.413
23.36000 34.338
23.52000 23.467
23.68000 23.255
23.84000 26.465
24.00000 32.184
24.16000 23.398
24.32000 26.249
24.48000 31.407
24.64000 33.384
24.80000 39.541
24.96000 27.414
25.12000 30.566
25.28000 33.505
25.44000 42.664
25.60000 45.334
25.76000 37.448
25.92000 37.664
26.08000 32.486
26.24000 38.512
26.40000 29.368
26.56000 40.398
26.72000 39.370
26.88000 42.582
27.04000 52.419
27.20000 54.645
27.36000 47.494
27.52000 36.818
27.68000 48.645
27.84000 40.740
28.00000 43.565
28.16000 49.759
28.32000 38.691
28.48000 38.466
28.64000 39.493
28.80000 34.246
28.96000 36.546
29.12000 37.484
29.28000 54.594
29.44000 45.597
29.60000 25.325
29.76000 44.637
29.92000 39.554
30.08000 30.436
30.24000 41.378
30.40000 25.301
30.56000 29.531
30.72000 24.249
30.88000 20.223
31.04000 22.342
31.20000 23.193
31.36000 21.295
31.52000 16.188
31.68000 24.274
31.84000 18.326
32.00000 26.282
32.16000 14.941
32.32000 28.224
32.48000 32.446
32.64000 23.133
32.80000 27.584
32.96000 21.385
33.12000 18.446
33.28000 15.131
33.44000 20.228
33.60000 23.259
33.76000 15.118
33.92000 21.183
34.08000 11.967
34.24000 8.116
34.40000 11.064
34.56000 19.131
34.72000 8.232
34.88000 14.175
35.04000 14.164
35.20000 10.080
35.36000 13.087
35.52000 20.284
35.68000 18.318
35.84000 19.268
36.00000 11.100
36.16000 17.284
36.32000 18.382
36.48000 7.116
36.64000 15.125
36.80000 11.110
36.96000 17.205
37.12000 15.202
37.28000 16.232
37.44000 14.264
37.60000 15.285
37.76000 20.138
37.92000 14.294
38.08000 18.251
38.24000 16.206
38.40000 21.210
38.56000 16.184
38.72000 27.532
38.88000 16.281
39.04000 25.612
39.20000 15.179
39.36000 15.222
39.52000 17.272
39.68000 15.398
39.84000 21.132
40.00000 15.309
40.16000 14.173
40.32000 18.484
40.48000 15.161
40.64000 15.226
40.80000 22.322
40.96000 15.955
41.12000 13.206
41.28000 26.232
41.44000 21.371
41.60000 22.431
41.76000 12.016
41.92000 18.181
42.08000 22.194
42.24000 20.494
42.40000 14.121
42.56000 18.176
42.72000 21.427
42.88000 13.197
43.04000 25.472
43.20000 15.186
43.36000 13.110
43.52000 19.287
43.68000 25.214
43.84000 18.125
44.00000 16.313
44.16000 15.267
44.32000 19.098
44.48000 12.142
44.64000 14.420
44.80000 13.162
44.96000 16.202
45.12000 17.323
45.28000 15.021
45.44000 23.408
45.60000 15.227
45.76000 18.187
45.92000 22.359
46.08000 11.228
46.24000 20.395
46.40000 14.233
46.56000 27.457
46.72000 17.357
46.88000 19.330
47.04000 18.347
47.20000 20.170
47.36000 19.074
47.52000 16.171
47.68000 15.308
47.84000 15.096
48.00000 24.449
48.16000 19.133
48.32000 18.414
48.48000 18.209
48.64000 19.261
48.80000 12.270
48.96000 13.102
49.12000 16.139
49.28000 13.172
49.44000 11.075
49.60000 18.116
49.76000 11.189
49.92000 19.336
50.08000 18.297
50.24000 14.082
50.40000 13.224
50.56000 9.056
50.72000 16.336
50.88000 13.434
51.04000 17.158
51.20000 11.241
51.36000 9.081
51.52000 13.121
51.68000 10.092
51.84000 17.093
52.00000 11.172
52.16000 18.232
52.32000 25.296
52.48000 14.132
52.64000 12.134
52.80000 15.148
52.96000 17.216
53.12000 17.093
53.28000 18.175
53.44000 11.144
53.60000 10.174
53.76000 14.257
53.92000 18.156
54.08000 14.285
54.24000 10.289
54.40000 11.050
54.56000 14.252
54.72000 12.098
54.88000 16.272
55.04000 12.274
55.20000 17.240
55.36000 9.083
55.52000 12.212
55.68000 15.203
55.84000 9.056
56.00000 18.304
56.16000 11.122
56.32000 13.297
56.48000 14.297
56.64000 12.020
56.80000 14.031
56.96000 13.013
57.12000 12.117
57.28000 6.104
57.44000 15.127
57.60000 15.294
57.76000 14.260
57.92000 16.298
58.08000 16.147
58.24000 13.313
58.40000 10.167
58.56000 16.067
58.72000 13.226
58.88000 6.093
59.04000 9.112
59.20000 12.145
59.36000 19.264
59.52000 11.032
59.68000 3.081
59.84000 11.175
60.00000 15.175
60.16000 13.226
60.32000 7.114
60.48000 5.039
60.64000 9.194
60.80000 5.959
60.96000 12.155
61.12000 4.019
61.28000 10.175
61.44000 13.227
61.60000 7.118
61.76000 6.160
61.92000 11.125
62.08000 9.219
62.24000 10.220
62.40000 11.069
62.56000 9.089
62.72000 7.042
62.88000 13.091
63.04000 8.114
63.20000 11.119
63.36000 13.094
63.52000 12.123
63.68000 9.055
63.84000 12.147
64.00000 7.120
64.16000 11.185
64.32000 4.086
64.48000 7.175
64.64000 13.009
64.80000 4.047
64.96000 10.027
65.00000 6.948