File: XRD/XRD/11-09-2025/XY Data/01092025_BTO_omega_1_001_34_11-262_5-424.xy
20.00000 23.296
20.16000 13.213
20.32000 18.245
20.48000 17.186
20.64000 10.284
20.80000 13.260
20.96000 16.153
21.12000 18.373
21.28000 17.364
21.44000 16.267
21.60000 20.110
21.76000 15.243
21.92000 14.160
22.08000 15.106
22.24000 22.403
22.40000 24.316
22.56000 18.166
22.72000 24.329
22.88000 24.540
23.04000 34.396
23.20000 21.450
23.36000 22.250
23.52000 24.367
23.68000 25.284
23.84000 20.201
24.00000 27.232
24.16000 24.405
24.32000 25.416
24.48000 27.533
24.64000 20.110
24.80000 34.276
24.96000 29.426
25.12000 27.300
25.28000 33.183
25.44000 43.402
25.60000 37.602
25.76000 42.272
25.92000 40.820
26.08000 38.606
26.24000 32.546
26.40000 41.532
26.56000 54.604
26.72000 35.497
26.88000 58.991
27.04000 62.528
27.20000 54.824
27.36000 52.514
27.52000 56.825
27.68000 37.397
27.84000 37.465
28.00000 61.828
28.16000 44.314
28.32000 51.958
28.48000 39.249
28.64000 38.613
28.80000 49.526
28.96000 56.011
29.12000 28.623
29.28000 36.473
29.44000 33.519
29.60000 51.771
29.76000 54.857
29.92000 36.278
30.08000 36.486
30.24000 35.218
30.40000 26.202
30.56000 21.096
30.72000 29.535
30.88000 34.245
31.04000 27.237
31.20000 24.185
31.36000 21.209
31.52000 26.349
31.68000 22.512
31.84000 21.213
32.00000 33.592
32.16000 27.533
32.32000 19.230
32.48000 23.403
32.64000 25.396
32.80000 23.338
32.96000 16.081
33.12000 18.334
33.28000 18.265
33.44000 19.258
33.60000 14.198
33.76000 15.237
33.92000 7.097
34.08000 15.100
34.24000 17.278
34.40000 15.082
34.56000 19.079
34.72000 13.253
34.88000 16.147
35.04000 18.035
35.20000 19.436
35.36000 16.078
35.52000 12.178
35.68000 23.307
35.84000 14.334
36.00000 19.379
36.16000 7.125
36.32000 8.103
36.48000 19.260
36.64000 16.153
36.80000 21.249
36.96000 15.161
37.12000 18.523
37.28000 12.177
37.44000 20.258
37.60000 19.445
37.76000 18.145
37.92000 15.156
38.08000 23.356
38.24000 12.117
38.40000 19.170
38.56000 20.480
38.72000 15.196
38.88000 19.280
39.04000 16.271
39.20000 23.251
39.36000 13.219
39.52000 22.180
39.68000 19.304
39.84000 18.183
40.00000 21.146
40.16000 13.125
40.32000 16.494
40.48000 17.363
40.64000 24.117
40.80000 16.200
40.96000 14.062
41.12000 19.183
41.28000 16.126
41.44000 13.167
41.60000 11.233
41.76000 17.219
41.92000 16.984
42.08000 20.317
42.24000 11.052
42.40000 16.239
42.56000 18.268
42.72000 25.268
42.88000 13.257
43.04000 23.216
43.20000 23.114
43.36000 19.226
43.52000 18.179
43.68000 21.024
43.84000 16.915
44.00000 16.187
44.16000 22.295
44.32000 15.096
44.48000 23.173
44.64000 22.190
44.80000 21.179
44.96000 19.095
45.12000 16.275
45.28000 17.062
45.44000 23.171
45.60000 15.173
45.76000 26.297
45.92000 20.271
46.08000 14.132
46.24000 23.217
46.40000 18.254
46.56000 20.233
46.72000 17.188
46.88000 18.028
47.04000 11.311
47.20000 14.343
47.36000 11.128
47.52000 16.118
47.68000 16.278
47.84000 22.310
48.00000 13.242
48.16000 18.246
48.32000 15.227
48.48000 17.117
48.64000 20.364
48.80000 10.060
48.96000 11.008
49.12000 19.216
49.28000 18.274
49.44000 19.285
49.60000 13.252
49.76000 17.183
49.92000 14.417
50.08000 18.389
50.24000 17.282
50.40000 12.136
50.56000 16.307
50.72000 16.291
50.88000 15.332
51.04000 22.365
51.20000 8.092
51.36000 7.090
51.52000 17.140
51.68000 11.119
51.84000 20.204
52.00000 16.237
52.16000 15.237
52.32000 19.221
52.48000 18.238
52.64000 17.437
52.80000 13.148
52.96000 14.184
53.12000 19.292
53.28000 13.230
53.44000 17.159
53.60000 14.049
53.76000 18.249
53.92000 9.135
54.08000 11.090
54.24000 16.302
54.40000 9.199
54.56000 18.349
54.72000 10.056
54.88000 12.127
55.04000 7.077
55.20000 10.078
55.36000 14.106
55.52000 14.124
55.68000 9.136
55.84000 17.179
56.00000 18.297
56.16000 7.128
56.32000 15.214
56.48000 9.185
56.64000 19.236
56.80000 17.249
56.96000 12.142
57.12000 8.103
57.28000 17.277
57.44000 9.162
57.60000 9.118
57.76000 9.131
57.92000 12.182
58.08000 19.239
58.24000 14.036
58.40000 14.102
58.56000 6.983
58.72000 9.069
58.88000 12.212
59.04000 9.119
59.20000 10.142
59.36000 13.303
59.52000 15.259
59.68000 10.208
59.84000 10.155
60.00000 11.175
60.16000 8.025
60.32000 12.144
60.48000 6.079
60.64000 6.136
60.80000 9.126
60.96000 4.116
61.12000 16.263
61.28000 9.062
61.44000 5.093
61.60000 16.350
61.76000 14.303
61.92000 8.170
62.08000 10.088
62.24000 8.155
62.40000 13.007
62.56000 11.234
62.72000 13.209
62.88000 11.111
63.04000 14.320
63.20000 9.091
63.36000 10.080
63.52000 7.081
63.68000 8.096
63.84000 9.198
64.00000 10.187
64.16000 7.161
64.32000 9.036
64.48000 11.222
64.64000 4.037
64.80000 7.071
64.96000 7.041
65.00000 10.118