File: XRD/XRD/11-09-2025/XY Data/01092025_BTO_omega_1_001_36_-7-794_9-773.xy
20.00000 26.466
20.16000 24.359
20.32000 26.365
20.48000 19.427
20.64000 19.277
20.80000 22.356
20.96000 22.296
21.12000 19.276
21.28000 18.242
21.44000 23.347
21.60000 23.406
21.76000 20.076
21.92000 20.293
22.08000 23.026
22.24000 15.315
22.40000 28.435
22.56000 24.262
22.72000 24.263
22.88000 20.261
23.04000 19.161
23.20000 17.349
23.36000 26.421
23.52000 30.324
23.68000 26.273
23.84000 31.356
24.00000 25.403
24.16000 26.537
24.32000 26.278
24.48000 25.332
24.64000 35.506
24.80000 42.635
24.96000 34.595
25.12000 41.505
25.28000 34.567
25.44000 38.581
25.60000 28.198
25.76000 40.517
25.92000 49.401
26.08000 43.495
26.24000 50.340
26.40000 30.499
26.56000 33.523
26.72000 31.422
26.88000 65.886
27.04000 50.460
27.20000 50.590
27.36000 47.664
27.52000 46.498
27.68000 43.563
27.84000 51.993
28.00000 39.553
28.16000 31.508
28.32000 43.475
28.48000 44.726
28.64000 40.489
28.80000 45.622
28.96000 44.675
29.12000 47.554
29.28000 36.191
29.44000 46.784
29.60000 34.495
29.76000 36.332
29.92000 34.447
30.08000 29.142
30.24000 33.388
30.40000 31.425
30.56000 41.595
30.72000 24.322
30.88000 36.509
31.04000 32.390
31.20000 29.486
31.36000 27.343
31.52000 28.238
31.68000 29.362
31.84000 21.136
32.00000 31.340
32.16000 16.295
32.32000 23.268
32.48000 22.205
32.64000 26.476
32.80000 18.184
32.96000 28.400
33.12000 18.255
33.28000 11.165
33.44000 15.166
33.60000 16.197
33.76000 13.122
33.92000 16.179
34.08000 15.318
34.24000 17.970
34.40000 11.284
34.56000 12.060
34.72000 13.271
34.88000 14.123
35.04000 17.404
35.20000 22.450
35.36000 10.166
35.52000 21.374
35.68000 10.131
35.84000 21.337
36.00000 5.030
36.16000 16.222
36.32000 18.168
36.48000 11.102
36.64000 14.160
36.80000 18.270
36.96000 20.247
37.12000 13.007
37.28000 19.300
37.44000 11.201
37.60000 26.387
37.76000 13.179
37.92000 14.132
38.08000 18.141
38.24000 15.105
38.40000 24.394
38.56000 21.450
38.72000 19.145
38.88000 14.164
39.04000 16.125
39.20000 16.279
39.36000 22.331
39.52000 22.343
39.68000 17.259
39.84000 20.249
40.00000 19.161
40.16000 21.018
40.32000 19.141
40.48000 20.432
40.64000 14.034
40.80000 16.383
40.96000 21.323
41.12000 24.349
41.28000 20.324
41.44000 26.319
41.60000 22.355
41.76000 16.255
41.92000 16.203
42.08000 23.306
42.24000 20.464
42.40000 18.169
42.56000 15.266
42.72000 17.297
42.88000 17.147
43.04000 17.474
43.20000 13.271
43.36000 18.154
43.52000 18.345
43.68000 20.405
43.84000 16.376
44.00000 6.021
44.16000 10.049
44.32000 10.243
44.48000 12.109
44.64000 18.179
44.80000 18.184
44.96000 14.139
45.12000 16.247
45.28000 12.094
45.44000 13.195
45.60000 14.077
45.76000 14.151
45.92000 16.265
46.08000 17.148
46.24000 19.384
46.40000 13.100
46.56000 21.471
46.72000 25.371
46.88000 19.263
47.04000 16.007
47.20000 18.318
47.36000 17.249
47.52000 12.221
47.68000 14.123
47.84000 9.093
48.00000 20.257
48.16000 16.279
48.32000 15.311
48.48000 11.966
48.64000 17.148
48.80000 20.364
48.96000 16.382
49.12000 19.133
49.28000 17.337
49.44000 15.186
49.60000 14.097
49.76000 19.217
49.92000 21.226
50.08000 16.363
50.24000 13.311
50.40000 14.139
50.56000 9.117
50.72000 14.157
50.88000 12.189
51.04000 15.180
51.20000 12.196
51.36000 17.052
51.52000 15.347
51.68000 20.158
51.84000 12.143
52.00000 11.258
52.16000 12.201
52.32000 15.187
52.48000 12.191
52.64000 12.127
52.80000 17.277
52.96000 17.179
53.12000 8.062
53.28000 16.279
53.44000 15.113
53.60000 17.207
53.76000 10.123
53.92000 16.105
54.08000 9.030
54.24000 11.116
54.40000 7.132
54.56000 13.200
54.72000 7.156
54.88000 17.037
55.04000 12.026
55.20000 17.225
55.36000 15.299
55.52000 18.134
55.68000 15.313
55.84000 12.201
56.00000 9.218
56.16000 17.094
56.32000 6.177
56.48000 11.224
56.64000 11.112
56.80000 9.099
56.96000 12.087
57.12000 8.105
57.28000 14.273
57.44000 18.297
57.60000 21.364
57.76000 16.200
57.92000 7.117
58.08000 13.173
58.24000 8.096
58.40000 11.113
58.56000 10.135
58.72000 12.279
58.88000 5.074
59.04000 17.157
59.20000 8.067
59.36000 12.186
59.52000 12.211
59.68000 8.131
59.84000 7.045
60.00000 10.179
60.16000 10.152
60.32000 11.124
60.48000 10.146
60.64000 9.120
60.80000 16.157
60.96000 8.198
61.12000 8.029
61.28000 9.093
61.44000 10.261
61.60000 10.026
61.76000 13.125
61.92000 7.077
62.08000 4.976
62.24000 14.145
62.40000 8.092
62.56000 9.056
62.72000 13.286
62.88000 11.180
63.04000 12.067
63.20000 13.144
63.36000 5.107
63.52000 9.036
63.68000 6.059
63.84000 12.169
64.00000 7.050
64.16000 14.291
64.32000 8.190
64.48000 10.107
64.64000 12.186
64.80000 11.341
64.96000 5.040
65.00000 8.101