File: XRD/XRD/11-09-2025/XY Data/01092025_BTO_omega_0_5_001_18_-44-550_22-700.xy
20.00000 12.370
20.16000 18.398
20.32000 11.085
20.48000 12.212
20.64000 7.077
20.80000 14.214
20.96000 14.360
21.12000 8.188
21.28000 12.013
21.44000 9.128
21.60000 9.069
21.76000 11.162
21.92000 5.037
22.08000 10.167
22.24000 6.014
22.40000 9.190
22.56000 12.180
22.72000 5.125
22.88000 10.159
23.04000 10.280
23.20000 7.034
23.36000 5.169
23.52000 9.166
23.68000 9.237
23.84000 2.034
24.00000 3.049
24.16000 6.151
24.32000 11.233
24.48000 10.151
24.64000 4.130
24.80000 8.152
24.96000 5.112
25.12000 6.183
25.28000 10.159
25.44000 9.033
25.60000 6.059
25.76000 10.023
25.92000 15.001
26.08000 11.237
26.24000 8.130
26.40000 11.243
26.56000 5.073
26.72000 15.148
26.88000 13.299
27.04000 7.073
27.20000 8.134
27.36000 4.052
27.52000 8.098
27.68000 5.105
27.84000 1.989
28.00000 5.059
28.16000 4.015
28.32000 8.040
28.48000 3.056
28.64000 7.081
28.80000 8.145
28.96000 4.161
29.12000 7.022
29.28000 6.096
29.44000 5.099
29.60000 5.082
29.76000 1.007
29.92000 5.052
30.08000 4.008
30.24000 8.164
30.40000 4.097
30.56000 3.975
30.72000 11.211
30.88000 4.980
31.04000 7.073
31.20000 2.058
31.36000 4.039
31.52000 6.995
31.68000 4.027
31.84000 6.039
32.00000 4.043
32.16000 8.126
32.32000 1.014
32.48000 7.150
32.64000 4.065
32.80000 0.000
32.96000 7.103
33.12000 5.062
33.28000 4.067
33.44000 2.003
33.60000 5.056
33.76000 5.969
33.92000 3.046
34.08000 3.022
34.24000 2.086
34.40000 7.017
34.56000 4.066
34.72000 6.115
34.88000 5.081
35.04000 7.036
35.20000 0.994
35.36000 2.015
35.52000 6.013
35.68000 3.023
35.84000 2.038
36.00000 2.050
36.16000 6.034
36.32000 4.131
36.48000 2.003
36.64000 3.003
36.80000 2.992
36.96000 8.139
37.12000 5.107
37.28000 0.997
37.44000 1.045
37.60000 8.029
37.76000 1.003
37.92000 5.065
38.08000 2.989
38.24000 3.069
38.40000 3.001
38.56000 6.056
38.72000 3.030
38.88000 5.136
39.04000 7.091
39.20000 5.131
39.36000 2.063
39.52000 2.043
39.68000 4.117
39.84000 4.021
40.00000 3.992
40.16000 2.004
40.32000 5.018
40.48000 3.000
40.64000 2.072
40.80000 0.000
40.96000 3.053
41.12000 4.012
41.28000 3.063
41.44000 5.043
41.60000 3.009
41.76000 4.191
41.92000 6.059
42.08000 3.038
42.24000 4.034
42.40000 4.117
42.56000 3.142
42.72000 2.033
42.88000 6.098
43.04000 4.016
43.20000 1.006
43.36000 4.072
43.52000 3.993
43.68000 4.033
43.84000 1.004
44.00000 0.992
44.16000 2.005
44.32000 6.097
44.48000 1.013
44.64000 2.979
44.80000 1.973
44.96000 2.980
45.12000 2.006
45.28000 3.061
45.44000 2.004
45.60000 7.100
45.76000 8.106
45.92000 3.041
46.08000 3.105
46.24000 6.096
46.40000 4.069
46.56000 0.975
46.72000 3.962
46.88000 4.022
47.04000 5.041
47.20000 2.981
47.36000 3.011
47.52000 5.029
47.68000 4.934
47.84000 5.028
48.00000 4.012
48.16000 5.068
48.32000 4.052
48.48000 3.013
48.64000 1.052
48.80000 3.965
48.96000 1.007
49.12000 2.015
49.28000 3.045
49.44000 1.998
49.60000 0.999
49.76000 4.104
49.92000 6.104
50.08000 4.029
50.24000 0.994
50.40000 2.956
50.56000 3.012
50.72000 4.047
50.88000 5.165
51.04000 4.100
51.20000 4.105
51.36000 5.147
51.52000 3.102
51.68000 4.005
51.84000 4.957
52.00000 5.055
52.16000 2.029
52.32000 3.034
52.48000 4.040
52.64000 4.016
52.80000 6.104
52.96000 5.990
53.12000 8.290
53.28000 4.980
53.44000 3.012
53.60000 5.101
53.76000 4.043
53.92000 2.985
54.08000 7.054
54.24000 6.157
54.40000 2.063
54.56000 4.077
54.72000 5.097
54.88000 3.075
55.04000 0.975
55.20000 0.997
55.36000 4.058
55.52000 1.023
55.68000 3.980
55.84000 7.099
56.00000 2.009
56.16000 3.002
56.32000 5.084
56.48000 3.059
56.64000 1.002
56.80000 5.026
56.96000 3.046
57.12000 4.028
57.28000 5.067
57.44000 4.104
57.60000 2.003
57.76000 1.998
57.92000 3.077
58.08000 1.126
58.24000 0.000
58.40000 1.992
58.56000 1.003
58.72000 0.000
58.88000 2.021
59.04000 5.022
59.20000 1.994
59.36000 3.060
59.52000 1.018
59.68000 3.006
59.84000 1.961
60.00000 0.993
60.16000 2.028
60.32000 4.069
60.48000 1.001
60.64000 4.042
60.80000 5.073
60.96000 4.979
61.12000 3.953
61.28000 3.032
61.44000 0.000
61.60000 5.095
61.76000 3.969
61.92000 2.954
62.08000 2.059
62.24000 2.035
62.40000 1.987
62.56000 2.052
62.72000 3.009
62.88000 0.985
63.04000 4.086
63.20000 3.060
63.36000 3.046
63.52000 3.001
63.68000 4.097
63.84000 2.057
64.00000 4.140
64.16000 3.016
64.32000 5.112
64.48000 7.096
64.64000 3.051
64.80000 0.992
64.96000 1.973
65.00000 3.047