File: XRD/XRD/11-09-2025/XY Data/01092025_BTO_omega_1_001_45_15-587_19-546.xy
20.00000 24.354
20.16000 14.376
20.32000 20.192
20.48000 12.098
20.64000 18.265
20.80000 26.452
20.96000 18.194
21.12000 21.326
21.28000 20.211
21.44000 29.506
21.60000 22.315
21.76000 18.097
21.92000 19.382
22.08000 22.347
22.24000 26.339
22.40000 24.252
22.56000 20.311
22.72000 22.217
22.88000 28.463
23.04000 23.436
23.20000 23.314
23.36000 22.073
23.52000 25.102
23.68000 30.284
23.84000 28.447
24.00000 35.425
24.16000 25.306
24.32000 24.199
24.48000 34.300
24.64000 33.634
24.80000 36.617
24.96000 18.196
25.12000 37.473
25.28000 26.340
25.44000 25.303
25.60000 37.369
25.76000 37.201
25.92000 47.836
26.08000 37.441
26.24000 49.594
26.40000 48.491
26.56000 45.537
26.72000 40.763
26.88000 54.433
27.04000 55.887
27.20000 44.684
27.36000 53.643
27.52000 38.341
27.68000 57.534
27.84000 58.776
28.00000 45.559
28.16000 53.724
28.32000 59.568
28.48000 45.394
28.64000 56.945
28.80000 40.600
28.96000 46.529
29.12000 35.215
29.28000 48.663
29.44000 38.514
29.60000 37.312
29.76000 38.456
29.92000 35.404
30.08000 36.381
30.24000 26.482
30.40000 35.498
30.56000 47.556
30.72000 34.400
30.88000 27.484
31.04000 28.757
31.20000 33.670
31.36000 25.384
31.52000 25.235
31.68000 31.276
31.84000 22.194
32.00000 25.353
32.16000 28.543
32.32000 21.459
32.48000 26.514
32.64000 26.201
32.80000 24.316
32.96000 22.032
33.12000 20.144
33.28000 17.125
33.44000 22.330
33.60000 17.138
33.76000 18.196
33.92000 28.238
34.08000 18.470
34.24000 15.291
34.40000 14.318
34.56000 19.315
34.72000 11.110
34.88000 11.121
35.04000 15.118
35.20000 12.191
35.36000 11.137
35.52000 21.163
35.68000 18.304
35.84000 17.221
36.00000 10.311
36.16000 15.349
36.32000 11.126
36.48000 18.402
36.64000 15.189
36.80000 11.150
36.96000 25.310
37.12000 14.174
37.28000 19.366
37.44000 23.307
37.60000 10.926
37.76000 16.155
37.92000 24.268
38.08000 18.227
38.24000 11.189
38.40000 9.134
38.56000 18.188
38.72000 15.251
38.88000 15.120
39.04000 26.316
39.20000 22.218
39.36000 14.128
39.52000 17.308
39.68000 16.265
39.84000 20.429
40.00000 19.145
40.16000 18.307
40.32000 15.152
40.48000 13.236
40.64000 15.223
40.80000 15.080
40.96000 26.068
41.12000 22.487
41.28000 17.254
41.44000 15.088
41.60000 20.245
41.76000 14.348
41.92000 20.157
42.08000 18.262
42.24000 19.272
42.40000 13.256
42.56000 14.215
42.72000 17.424
42.88000 23.256
43.04000 24.349
43.20000 15.125
43.36000 16.157
43.52000 28.260
43.68000 23.510
43.84000 18.250
44.00000 24.141
44.16000 20.087
44.32000 14.142
44.48000 18.337
44.64000 23.315
44.80000 28.434
44.96000 20.287
45.12000 13.152
45.28000 27.502
45.44000 12.115
45.60000 18.303
45.76000 15.279
45.92000 21.279
46.08000 16.358
46.24000 28.622
46.40000 15.367
46.56000 16.130
46.72000 15.352
46.88000 26.422
47.04000 21.408
47.20000 16.122
47.36000 14.294
47.52000 28.404
47.68000 23.297
47.84000 16.173
48.00000 20.317
48.16000 20.278
48.32000 22.158
48.48000 19.272
48.64000 11.117
48.80000 16.249
48.96000 14.229
49.12000 15.217
49.28000 13.139
49.44000 12.020
49.60000 13.184
49.76000 31.415
49.92000 17.350
50.08000 17.161
50.24000 19.349
50.40000 11.129
50.56000 17.223
50.72000 17.303
50.88000 16.224
51.04000 13.190
51.20000 11.015
51.36000 16.091
51.52000 20.328
51.68000 20.114
51.84000 18.207
52.00000 9.050
52.16000 24.263
52.32000 18.233
52.48000 10.128
52.64000 18.222
52.80000 17.276
52.96000 17.309
53.12000 15.129
53.28000 25.362
53.44000 16.130
53.60000 12.044
53.76000 20.294
53.92000 24.227
54.08000 8.165
54.24000 13.195
54.40000 13.052
54.56000 15.079
54.72000 14.306
54.88000 13.280
55.04000 14.165
55.20000 11.066
55.36000 13.029
55.52000 16.094
55.68000 13.230
55.84000 11.124
56.00000 21.336
56.16000 10.075
56.32000 10.049
56.48000 16.156
56.64000 11.166
56.80000 6.989
56.96000 13.183
57.12000 10.144
57.28000 19.095
57.44000 14.248
57.60000 4.089
57.76000 13.194
57.92000 16.123
58.08000 13.209
58.24000 14.262
58.40000 14.250
58.56000 16.241
58.72000 11.067
58.88000 6.066
59.04000 11.156
59.20000 12.261
59.36000 12.108
59.52000 11.151
59.68000 6.114
59.84000 12.179
60.00000 11.210
60.16000 10.145
60.32000 16.185
60.48000 12.033
60.64000 14.454
60.80000 12.188
60.96000 13.208
61.12000 8.126
61.28000 9.957
61.44000 10.308
61.60000 9.010
61.76000 10.109
61.92000 5.993
62.08000 9.218
62.24000 14.329
62.40000 11.188
62.56000 6.988
62.72000 12.145
62.88000 12.149
63.04000 5.095
63.20000 10.168
63.36000 13.215
63.52000 17.130
63.68000 8.063
63.84000 11.038
64.00000 6.096
64.16000 8.095
64.32000 12.095
64.48000 11.204
64.64000 11.220
64.80000 11.115
64.96000 10.196
65.00000 11.201