File: XRD/XRD/11-09-2025/XY Data/01092025_BTO_omega_1_001_19_22-524_-10-847.xy
20.00000 31.456
20.16000 18.187
20.32000 17.260
20.48000 25.295
20.64000 24.323
20.80000 31.555
20.96000 29.282
21.12000 32.633
21.28000 29.323
21.44000 29.315
21.60000 28.248
21.76000 13.147
21.92000 13.262
22.08000 22.257
22.24000 21.463
22.40000 22.157
22.56000 18.209
22.72000 22.281
22.88000 15.130
23.04000 16.139
23.20000 22.380
23.36000 19.268
23.52000 12.978
23.68000 17.316
23.84000 16.128
24.00000 11.166
24.16000 18.100
24.32000 18.287
24.48000 9.016
24.64000 17.132
24.80000 22.374
24.96000 22.155
25.12000 7.112
25.28000 25.368
25.44000 13.248
25.60000 15.249
25.76000 9.190
25.92000 16.249
26.08000 9.148
26.24000 10.264
26.40000 5.041
26.56000 16.220
26.72000 15.053
26.88000 14.092
27.04000 6.079
27.20000 12.082
27.36000 12.098
27.52000 8.115
27.68000 12.163
27.84000 11.179
28.00000 9.187
28.16000 9.147
28.32000 13.161
28.48000 6.099
28.64000 10.191
28.80000 12.086
28.96000 10.156
29.12000 14.235
29.28000 9.146
29.44000 11.137
29.60000 8.102
29.76000 5.100
29.92000 15.103
30.08000 6.080
30.24000 5.012
30.40000 2.071
30.56000 8.068
30.72000 9.091
30.88000 6.026
31.04000 8.993
31.20000 4.066
31.36000 6.099
31.52000 3.088
31.68000 4.144
31.84000 7.155
32.00000 2.019
32.16000 4.151
32.32000 6.044
32.48000 5.985
32.64000 3.035
32.80000 9.158
32.96000 9.999
33.12000 6.037
33.28000 10.032
33.44000 11.181
33.60000 7.281
33.76000 2.996
33.92000 4.101
34.08000 10.242
34.24000 2.084
34.40000 10.149
34.56000 7.113
34.72000 3.074
34.88000 7.111
35.04000 4.047
35.20000 3.063
35.36000 3.013
35.52000 8.089
35.68000 4.065
35.84000 5.054
36.00000 6.117
36.16000 1.030
36.32000 7.109
36.48000 6.179
36.64000 2.001
36.80000 6.005
36.96000 1.988
37.12000 4.046
37.28000 3.075
37.44000 4.076
37.60000 7.152
37.76000 10.095
37.92000 5.072
38.08000 2.040
38.24000 3.005
38.40000 1.976
38.56000 3.064
38.72000 3.095
38.88000 4.035
39.04000 5.124
39.20000 4.174
39.36000 4.089
39.52000 3.097
39.68000 2.960
39.84000 5.971
40.00000 1.989
40.16000 1.016
40.32000 6.228
40.48000 5.009
40.64000 3.065
40.80000 3.089
40.96000 3.972
41.12000 3.070
41.28000 5.158
41.44000 9.084
41.60000 0.995
41.76000 4.133
41.92000 4.029
42.08000 0.994
42.24000 1.037
42.40000 6.035
42.56000 2.035
42.72000 5.133
42.88000 5.016
43.04000 7.121
43.20000 2.006
43.36000 2.016
43.52000 7.036
43.68000 5.022
43.84000 2.983
44.00000 0.000
44.16000 4.013
44.32000 3.013
44.48000 1.061
44.64000 0.987
44.80000 2.014
44.96000 6.041
45.12000 3.035
45.28000 2.099
45.44000 2.006
45.60000 6.081
45.76000 0.000
45.92000 3.059
46.08000 2.982
46.24000 5.966
46.40000 1.993
46.56000 2.003
46.72000 0.983
46.88000 1.021
47.04000 5.114
47.20000 1.023
47.36000 5.105
47.52000 4.081
47.68000 2.011
47.84000 0.000
48.00000 2.004
48.16000 3.068
48.32000 0.000
48.48000 2.017
48.64000 0.000
48.80000 0.000
48.96000 3.971
49.12000 0.000
49.28000 5.010
49.44000 3.009
49.60000 1.955
49.76000 2.062
49.92000 1.995
50.08000 2.008
50.24000 2.008
50.40000 3.100
50.56000 3.024
50.72000 0.995
50.88000 2.980
51.04000 0.985
51.20000 3.061
51.36000 4.033
51.52000 3.030
51.68000 2.037
51.84000 2.992
52.00000 3.112
52.16000 3.972
52.32000 1.979
52.48000 0.000
52.64000 3.020
52.80000 2.025
52.96000 3.055
53.12000 3.051
53.28000 0.995
53.44000 0.000
53.60000 0.986
53.76000 3.034
53.92000 0.999
54.08000 0.000
54.24000 0.998
54.40000 0.000
54.56000 0.982
54.72000 2.058
54.88000 0.995
55.04000 1.020
55.20000 1.944
55.36000 3.027
55.52000 1.012
55.68000 2.003
55.84000 0.000
56.00000 2.013
56.16000 1.001
56.32000 2.998
56.48000 2.008
56.64000 4.023
56.80000 0.000
56.96000 0.000
57.12000 1.017
57.28000 4.056
57.44000 0.000
57.60000 1.007
57.76000 1.003
57.92000 0.000
58.08000 1.034
58.24000 1.042
58.40000 0.000
58.56000 2.035
58.72000 1.013
58.88000 2.984
59.04000 0.987
59.20000 0.000
59.36000 0.000
59.52000 1.036
59.68000 0.978
59.84000 1.011
60.00000 2.977
60.16000 6.043
60.32000 1.989
60.48000 3.044
60.64000 3.029
60.80000 1.043
60.96000 1.018
61.12000 0.992
61.28000 0.000
61.44000 1.027
61.60000 2.015
61.76000 3.055
61.92000 0.000
62.08000 0.994
62.24000 0.979
62.40000 0.000
62.56000 0.000
62.72000 1.012
62.88000 2.011
63.04000 1.038
63.20000 1.984
63.36000 3.054
63.52000 1.034
63.68000 1.022
63.84000 1.008
64.00000 0.992
64.16000 0.000
64.32000 3.008
64.48000 0.000
64.64000 2.984
64.80000 1.071
64.96000 1.054
65.00000 0.000