File: XRD/XRD/11-09-2025/XY Data/01092025_BTO_omega_0_5_001_13_33-786_16-271.xy
20.00000 20.310
20.16000 21.306
20.32000 15.278
20.48000 20.275
20.64000 21.180
20.80000 19.155
20.96000 17.214
21.12000 11.304
21.28000 24.309
21.44000 21.072
21.60000 20.293
21.76000 21.376
21.92000 20.410
22.08000 23.055
22.24000 23.384
22.40000 21.409
22.56000 40.641
22.72000 26.162
22.88000 24.167
23.04000 26.334
23.20000 22.390
23.36000 31.700
23.52000 23.475
23.68000 37.442
23.84000 26.400
24.00000 24.178
24.16000 31.506
24.32000 45.400
24.48000 41.321
24.64000 38.428
24.80000 48.766
24.96000 40.448
25.12000 38.421
25.28000 44.467
25.44000 49.620
25.60000 42.800
25.76000 52.433
25.92000 45.519
26.08000 43.526
26.24000 57.928
26.40000 52.460
26.56000 61.017
26.72000 58.950
26.88000 56.875
27.04000 63.886
27.20000 58.553
27.36000 60.719
27.52000 69.841
27.68000 54.484
27.84000 67.948
28.00000 76.446
28.16000 68.234
28.32000 53.712
28.48000 57.817
28.64000 73.618
28.80000 66.400
28.96000 70.723
29.12000 49.811
29.28000 62.614
29.44000 44.662
29.60000 57.996
29.76000 46.564
29.92000 43.707
30.08000 35.410
30.24000 48.903
30.40000 35.566
30.56000 42.363
30.72000 37.401
30.88000 37.642
31.04000 38.339
31.20000 43.502
31.36000 44.565
31.52000 28.302
31.68000 26.270
31.84000 28.620
32.00000 35.699
32.16000 23.331
32.32000 24.255
32.48000 25.479
32.64000 21.214
32.80000 32.581
32.96000 22.377
33.12000 22.323
33.28000 21.279
33.44000 20.322
33.60000 26.353
33.76000 20.094
33.92000 21.246
34.08000 13.226
34.24000 19.364
34.40000 22.281
34.56000 14.036
34.72000 20.227
34.88000 14.113
35.04000 11.031
35.20000 16.015
35.36000 23.412
35.52000 14.220
35.68000 9.222
35.84000 22.068
36.00000 18.183
36.16000 25.312
36.32000 19.366
36.48000 14.356
36.64000 28.467
36.80000 23.356
36.96000 15.208
37.12000 14.232
37.28000 21.381
37.44000 25.340
37.60000 18.266
37.76000 23.297
37.92000 17.235
38.08000 19.224
38.24000 19.224
38.40000 21.366
38.56000 26.380
38.72000 21.319
38.88000 27.286
39.04000 20.222
39.20000 17.188
39.36000 22.356
39.52000 21.645
39.68000 18.130
39.84000 26.286
40.00000 16.088
40.16000 30.628
40.32000 18.305
40.48000 23.246
40.64000 18.396
40.80000 14.062
40.96000 20.271
41.12000 26.396
41.28000 28.306
41.44000 24.281
41.60000 24.248
41.76000 14.158
41.92000 20.321
42.08000 23.316
42.24000 36.586
42.40000 20.209
42.56000 27.534
42.72000 22.312
42.88000 20.400
43.04000 24.486
43.20000 26.557
43.36000 25.376
43.52000 17.376
43.68000 26.170
43.84000 17.193
44.00000 21.363
44.16000 17.168
44.32000 17.247
44.48000 19.409
44.64000 22.350
44.80000 19.340
44.96000 18.267
45.12000 19.248
45.28000 24.343
45.44000 20.306
45.60000 20.387
45.76000 19.195
45.92000 19.456
46.08000 15.179
46.24000 27.382
46.40000 19.185
46.56000 24.218
46.72000 16.142
46.88000 21.210
47.04000 28.249
47.20000 20.363
47.36000 23.147
47.52000 25.258
47.68000 17.096
47.84000 22.561
48.00000 17.203
48.16000 16.313
48.32000 23.401
48.48000 18.369
48.64000 19.152
48.80000 15.235
48.96000 14.241
49.12000 21.434
49.28000 15.263
49.44000 15.189
49.60000 19.450
49.76000 22.376
49.92000 11.091
50.08000 17.214
50.24000 9.048
50.40000 21.317
50.56000 7.195
50.72000 18.359
50.88000 24.399
51.04000 17.291
51.20000 18.245
51.36000 19.098
51.52000 27.331
51.68000 15.291
51.84000 17.176
52.00000 13.164
52.16000 15.317
52.32000 10.150
52.48000 11.131
52.64000 16.250
52.80000 12.176
52.96000 8.040
53.12000 11.196
53.28000 13.257
53.44000 16.196
53.60000 13.156
53.76000 18.209
53.92000 9.072
54.08000 13.231
54.24000 12.093
54.40000 17.086
54.56000 15.221
54.72000 14.341
54.88000 8.087
55.04000 11.053
55.20000 15.183
55.36000 19.354
55.52000 8.161
55.68000 13.253
55.84000 12.107
56.00000 13.175
56.16000 16.315
56.32000 10.098
56.48000 13.122
56.64000 14.164
56.80000 14.347
56.96000 8.052
57.12000 10.219
57.28000 8.075
57.44000 13.243
57.60000 9.145
57.76000 10.249
57.92000 9.079
58.08000 10.166
58.24000 13.134
58.40000 8.170
58.56000 7.989
58.72000 3.943
58.88000 9.163
59.04000 15.317
59.20000 9.170
59.36000 15.249
59.52000 12.108
59.68000 11.173
59.84000 6.095
60.00000 13.330
60.16000 16.168
60.32000 5.057
60.48000 10.013
60.64000 4.073
60.80000 12.029
60.96000 10.011
61.12000 10.275
61.28000 8.110
61.44000 10.039
61.60000 8.131
61.76000 8.198
61.92000 5.976
62.08000 9.217
62.24000 8.150
62.40000 6.131
62.56000 9.066
62.72000 4.102
62.88000 9.063
63.04000 7.979
63.20000 15.244
63.36000 11.230
63.52000 8.063
63.68000 8.235
63.84000 7.162
64.00000 9.108
64.16000 9.059
64.32000 6.049
64.48000 10.054
64.64000 5.984
64.80000 7.070
64.96000 10.297
65.00000 6.011