File: XRD/XRD/11-09-2025/XY Data/01092025_BTO_omega_1_001_39_-22-524_10-847.xy
20.00000 19.097
20.16000 18.159
20.32000 14.991
20.48000 18.302
20.64000 22.371
20.80000 21.161
20.96000 18.224
21.12000 19.411
21.28000 18.245
21.44000 22.303
21.60000 22.310
21.76000 22.435
21.92000 19.325
22.08000 19.231
22.24000 16.968
22.40000 20.287
22.56000 21.177
22.72000 24.259
22.88000 17.211
23.04000 29.473
23.20000 23.539
23.36000 32.268
23.52000 22.256
23.68000 30.427
23.84000 23.153
24.00000 33.436
24.16000 30.686
24.32000 34.610
24.48000 35.559
24.64000 17.102
24.80000 23.252
24.96000 29.311
25.12000 24.457
25.28000 27.317
25.44000 28.442
25.60000 38.268
25.76000 38.646
25.92000 35.446
26.08000 37.299
26.24000 34.496
26.40000 42.382
26.56000 47.886
26.72000 45.460
26.88000 33.482
27.04000 42.555
27.20000 49.501
27.36000 30.225
27.52000 40.503
27.68000 26.384
27.84000 37.525
28.00000 51.901
28.16000 41.613
28.32000 42.664
28.48000 30.453
28.64000 43.524
28.80000 40.392
28.96000 35.388
29.12000 39.433
29.28000 38.336
29.44000 34.394
29.60000 37.600
29.76000 20.333
29.92000 35.222
30.08000 23.355
30.24000 29.366
30.40000 24.324
30.56000 29.459
30.72000 26.365
30.88000 20.417
31.04000 18.106
31.20000 36.497
31.36000 19.229
31.52000 21.230
31.68000 13.010
31.84000 27.176
32.00000 20.360
32.16000 25.294
32.32000 26.346
32.48000 19.437
32.64000 35.454
32.80000 14.125
32.96000 28.387
33.12000 21.265
33.28000 13.112
33.44000 18.578
33.60000 19.428
33.76000 16.201
33.92000 19.292
34.08000 22.393
34.24000 17.340
34.40000 14.166
34.56000 14.182
34.72000 11.195
34.88000 4.021
35.04000 11.120
35.20000 18.237
35.36000 16.345
35.52000 10.181
35.68000 18.587
35.84000 14.151
36.00000 17.254
36.16000 12.247
36.32000 16.104
36.48000 15.032
36.64000 19.398
36.80000 16.371
36.96000 17.081
37.12000 16.429
37.28000 17.159
37.44000 12.212
37.60000 16.200
37.76000 13.104
37.92000 11.081
38.08000 14.127
38.24000 15.334
38.40000 14.046
38.56000 17.346
38.72000 14.159
38.88000 14.168
39.04000 23.247
39.20000 19.111
39.36000 9.129
39.52000 27.281
39.68000 22.221
39.84000 18.312
40.00000 16.339
40.16000 18.209
40.32000 22.369
40.48000 15.242
40.64000 15.163
40.80000 13.127
40.96000 15.117
41.12000 27.372
41.28000 14.214
41.44000 18.282
41.60000 25.595
41.76000 19.263
41.92000 16.267
42.08000 15.135
42.24000 17.169
42.40000 11.078
42.56000 14.104
42.72000 15.249
42.88000 19.295
43.04000 19.127
43.20000 11.254
43.36000 21.172
43.52000 16.081
43.68000 11.175
43.84000 16.336
44.00000 13.343
44.16000 19.242
44.32000 13.259
44.48000 20.291
44.64000 11.232
44.80000 16.261
44.96000 14.123
45.12000 15.089
45.28000 10.039
45.44000 24.178
45.60000 11.152
45.76000 17.187
45.92000 11.141
46.08000 17.260
46.24000 18.284
46.40000 25.418
46.56000 15.234
46.72000 17.181
46.88000 16.162
47.04000 13.179
47.20000 15.262
47.36000 14.260
47.52000 13.394
47.68000 19.278
47.84000 15.132
48.00000 13.467
48.16000 15.123
48.32000 12.146
48.48000 16.176
48.64000 17.181
48.80000 20.142
48.96000 16.346
49.12000 13.010
49.28000 22.276
49.44000 12.291
49.60000 15.257
49.76000 14.115
49.92000 16.324
50.08000 19.260
50.24000 17.223
50.40000 16.266
50.56000 20.426
50.72000 9.104
50.88000 10.134
51.04000 18.278
51.20000 21.155
51.36000 17.252
51.52000 9.174
51.68000 10.073
51.84000 12.090
52.00000 16.145
52.16000 14.071
52.32000 10.228
52.48000 14.290
52.64000 20.250
52.80000 13.081
52.96000 19.103
53.12000 15.153
53.28000 10.212
53.44000 11.961
53.60000 10.222
53.76000 15.228
53.92000 11.072
54.08000 10.150
54.24000 12.240
54.40000 8.100
54.56000 13.240
54.72000 15.246
54.88000 8.262
55.04000 9.211
55.20000 9.000
55.36000 9.025
55.52000 12.016
55.68000 11.168
55.84000 10.181
56.00000 19.079
56.16000 10.052
56.32000 14.136
56.48000 9.204
56.64000 10.106
56.80000 17.105
56.96000 13.297
57.12000 11.209
57.28000 12.159
57.44000 13.066
57.60000 11.129
57.76000 15.050
57.92000 10.135
58.08000 12.149
58.24000 14.273
58.40000 8.094
58.56000 8.090
58.72000 7.063
58.88000 13.204
59.04000 15.133
59.20000 12.148
59.36000 13.179
59.52000 14.196
59.68000 6.114
59.84000 11.113
60.00000 11.085
60.16000 10.121
60.32000 6.037
60.48000 10.073
60.64000 9.053
60.80000 5.993
60.96000 10.989
61.12000 10.126
61.28000 9.173
61.44000 12.196
61.60000 14.095
61.76000 7.071
61.92000 5.997
62.08000 11.186
62.24000 7.090
62.40000 16.253
62.56000 11.201
62.72000 8.140
62.88000 7.001
63.04000 7.146
63.20000 10.130
63.36000 6.032
63.52000 7.157
63.68000 8.267
63.84000 2.013
64.00000 13.106
64.16000 8.079
64.32000 10.101
64.48000 7.127
64.64000 12.176
64.80000 11.189
64.96000 10.047
65.00000 9.144