File: XRD/XRD/11-09-2025/XY Data/01092025_BTO_omega_1_001_48_5-563_24-373.xy
20.00000 14.276
20.16000 21.212
20.32000 18.108
20.48000 30.498
20.64000 26.263
20.80000 21.327
20.96000 16.284
21.12000 15.118
21.28000 19.511
21.44000 21.410
21.60000 15.093
21.76000 20.235
21.92000 19.474
22.08000 25.365
22.24000 21.255
22.40000 14.195
22.56000 29.452
22.72000 21.292
22.88000 31.439
23.04000 26.380
23.20000 18.291
23.36000 27.268
23.52000 29.262
23.68000 27.246
23.84000 30.355
24.00000 32.370
24.16000 26.425
24.32000 24.493
24.48000 24.218
24.64000 38.350
24.80000 24.697
24.96000 31.255
25.12000 30.389
25.28000 37.738
25.44000 35.398
25.60000 42.611
25.76000 39.248
25.92000 40.511
26.08000 30.444
26.24000 44.838
26.40000 38.506
26.56000 46.684
26.72000 41.302
26.88000 50.769
27.04000 42.306
27.20000 48.784
27.36000 51.531
27.52000 66.699
27.68000 39.569
27.84000 46.566
28.00000 49.724
28.16000 43.843
28.32000 48.662
28.48000 59.775
28.64000 51.541
28.80000 36.657
28.96000 51.793
29.12000 42.522
29.28000 50.618
29.44000 47.794
29.60000 42.664
29.76000 34.432
29.92000 44.697
30.08000 32.422
30.24000 28.315
30.40000 26.654
30.56000 30.260
30.72000 28.398
30.88000 41.298
31.04000 24.578
31.20000 29.496
31.36000 16.264
31.52000 35.328
31.68000 27.124
31.84000 24.327
32.00000 21.411
32.16000 19.212
32.32000 24.203
32.48000 20.406
32.64000 22.301
32.80000 14.207
32.96000 20.159
33.12000 13.032
33.28000 17.159
33.44000 15.302
33.60000 21.206
33.76000 17.203
33.92000 22.429
34.08000 16.256
34.24000 12.198
34.40000 19.246
34.56000 8.258
34.72000 20.293
34.88000 25.179
35.04000 17.278
35.20000 16.245
35.36000 12.171
35.52000 13.167
35.68000 16.415
35.84000 10.192
36.00000 14.271
36.16000 14.062
36.32000 18.235
36.48000 20.201
36.64000 18.469
36.80000 14.203
36.96000 12.030
37.12000 20.242
37.28000 20.200
37.44000 21.166
37.60000 19.349
37.76000 16.231
37.92000 20.328
38.08000 21.281
38.24000 24.418
38.40000 13.310
38.56000 10.156
38.72000 16.075
38.88000 9.150
39.04000 17.281
39.20000 14.252
39.36000 12.222
39.52000 11.024
39.68000 13.080
39.84000 17.103
40.00000 21.314
40.16000 17.354
40.32000 17.168
40.48000 14.352
40.64000 13.120
40.80000 22.212
40.96000 19.282
41.12000 14.121
41.28000 18.214
41.44000 12.143
41.60000 21.254
41.76000 19.221
41.92000 17.159
42.08000 16.441
42.24000 14.999
42.40000 13.143
42.56000 28.166
42.72000 15.166
42.88000 19.269
43.04000 19.174
43.20000 16.363
43.36000 21.038
43.52000 23.426
43.68000 14.094
43.84000 21.309
44.00000 23.299
44.16000 18.117
44.32000 19.381
44.48000 19.299
44.64000 21.377
44.80000 18.233
44.96000 18.312
45.12000 21.151
45.28000 16.180
45.44000 20.054
45.60000 18.248
45.76000 28.585
45.92000 14.239
46.08000 21.119
46.24000 21.348
46.40000 34.333
46.56000 23.225
46.72000 22.425
46.88000 17.242
47.04000 23.385
47.20000 18.194
47.36000 18.183
47.52000 22.220
47.68000 21.281
47.84000 21.348
48.00000 22.281
48.16000 27.382
48.32000 18.195
48.48000 18.167
48.64000 19.152
48.80000 19.416
48.96000 19.337
49.12000 16.994
49.28000 11.142
49.44000 21.335
49.60000 16.153
49.76000 15.149
49.92000 18.344
50.08000 19.337
50.24000 10.149
50.40000 13.995
50.56000 26.378
50.72000 18.244
50.88000 19.134
51.04000 7.011
51.20000 17.020
51.36000 8.256
51.52000 19.193
51.68000 19.304
51.84000 16.344
52.00000 12.146
52.16000 17.064
52.32000 19.255
52.48000 17.134
52.64000 12.122
52.80000 20.361
52.96000 13.256
53.12000 10.361
53.28000 13.174
53.44000 10.128
53.60000 15.285
53.76000 14.164
53.92000 15.092
54.08000 11.201
54.24000 15.231
54.40000 16.294
54.56000 17.255
54.72000 11.177
54.88000 14.278
55.04000 18.209
55.20000 19.296
55.36000 15.118
55.52000 7.091
55.68000 14.107
55.84000 15.339
56.00000 14.362
56.16000 8.029
56.32000 21.186
56.48000 8.116
56.64000 18.115
56.80000 13.078
56.96000 18.245
57.12000 15.144
57.28000 12.104
57.44000 15.423
57.60000 12.179
57.76000 19.169
57.92000 8.088
58.08000 10.100
58.24000 12.327
58.40000 11.074
58.56000 11.092
58.72000 5.066
58.88000 10.125
59.04000 17.206
59.20000 8.224
59.36000 11.104
59.52000 4.099
59.68000 14.185
59.84000 15.277
60.00000 11.127
60.16000 9.226
60.32000 11.051
60.48000 5.071
60.64000 14.969
60.80000 8.090
60.96000 14.178
61.12000 12.064
61.28000 9.133
61.44000 14.164
61.60000 8.096
61.76000 8.066
61.92000 10.114
62.08000 10.054
62.24000 9.135
62.40000 10.148
62.56000 8.077
62.72000 8.120
62.88000 7.114
63.04000 15.112
63.20000 15.242
63.36000 5.158
63.52000 6.013
63.68000 11.058
63.84000 6.029
64.00000 9.237
64.16000 9.085
64.32000 13.048
64.48000 9.125
64.64000 12.102
64.80000 9.073
64.96000 18.285
65.00000 9.221