File: XRD/XRD/11-09-2025/XY Data/01092025_BTO_omega_1_001_08_-23-381_-29-319.xy
20.00000 149.573
20.16000 103.846
20.32000 131.828
20.48000 126.414
20.64000 136.550
20.80000 110.578
20.96000 108.163
21.12000 98.297
21.28000 82.976
21.44000 106.149
21.60000 75.845
21.76000 80.576
21.92000 70.638
22.08000 72.915
22.24000 58.760
22.40000 56.532
22.56000 66.661
22.72000 55.722
22.88000 50.473
23.04000 40.573
23.20000 47.470
23.36000 40.221
23.52000 33.359
23.68000 33.394
23.84000 21.282
24.00000 35.250
24.16000 27.250
24.32000 26.127
24.48000 31.211
24.64000 22.009
24.80000 26.594
24.96000 17.205
25.12000 16.227
25.28000 18.279
25.44000 13.235
25.60000 12.143
25.76000 10.153
25.92000 19.280
26.08000 14.099
26.24000 17.237
26.40000 15.300
26.56000 16.189
26.72000 11.966
26.88000 12.223
27.04000 14.198
27.20000 19.262
27.36000 9.048
27.52000 12.168
27.68000 14.104
27.84000 16.140
28.00000 5.119
28.16000 9.246
28.32000 8.121
28.48000 4.081
28.64000 12.139
28.80000 9.183
28.96000 14.192
29.12000 12.086
29.28000 11.229
29.44000 12.093
29.60000 15.182
29.76000 5.140
29.92000 8.128
30.08000 8.033
30.24000 14.090
30.40000 7.959
30.56000 6.117
30.72000 10.031
30.88000 6.083
31.04000 4.100
31.20000 12.172
31.36000 11.275
31.52000 10.217
31.68000 10.116
31.84000 8.124
32.00000 10.090
32.16000 14.123
32.32000 7.017
32.48000 2.081
32.64000 5.047
32.80000 5.095
32.96000 11.143
33.12000 6.183
33.28000 10.118
33.44000 8.234
33.60000 8.116
33.76000 6.078
33.92000 6.082
34.08000 8.106
34.24000 7.146
34.40000 7.102
34.56000 7.121
34.72000 6.124
34.88000 10.182
35.04000 3.047
35.20000 8.003
35.36000 6.089
35.52000 6.076
35.68000 4.037
35.84000 9.153
36.00000 3.040
36.16000 4.023
36.32000 6.990
36.48000 5.053
36.64000 5.979
36.80000 6.030
36.96000 2.047
37.12000 4.069
37.28000 9.080
37.44000 4.016
37.60000 9.124
37.76000 6.063
37.92000 6.048
38.08000 5.008
38.24000 4.948
38.40000 4.013
38.56000 4.975
38.72000 2.023
38.88000 6.133
39.04000 1.042
39.20000 6.183
39.36000 2.033
39.52000 6.131
39.68000 0.000
39.84000 6.092
40.00000 4.023
40.16000 3.019
40.32000 4.065
40.48000 3.015
40.64000 7.111
40.80000 6.063
40.96000 2.008
41.12000 3.050
41.28000 6.166
41.44000 5.976
41.60000 4.138
41.76000 0.992
41.92000 3.071
42.08000 2.038
42.24000 6.049
42.40000 6.014
42.56000 4.032
42.72000 7.064
42.88000 5.022
43.04000 5.009
43.20000 4.993
43.36000 5.000
43.52000 9.141
43.68000 2.977
43.84000 3.038
44.00000 3.979
44.16000 2.068
44.32000 2.058
44.48000 2.970
44.64000 3.058
44.80000 1.017
44.96000 7.020
45.12000 2.035
45.28000 2.038
45.44000 6.308
45.60000 0.000
45.76000 6.104
45.92000 2.040
46.08000 1.026
46.24000 4.026
46.40000 4.099
46.56000 0.000
46.72000 1.997
46.88000 1.023
47.04000 2.012
47.20000 1.011
47.36000 6.023
47.52000 3.989
47.68000 1.029
47.84000 5.011
48.00000 4.038
48.16000 1.008
48.32000 1.975
48.48000 3.067
48.64000 2.040
48.80000 3.064
48.96000 3.081
49.12000 2.981
49.28000 2.092
49.44000 6.102
49.60000 1.041
49.76000 6.067
49.92000 3.054
50.08000 0.996
50.24000 2.039
50.40000 3.063
50.56000 4.072
50.72000 3.014
50.88000 4.070
51.04000 3.059
51.20000 4.094
51.36000 1.980
51.52000 3.074
51.68000 1.022
51.84000 5.053
52.00000 3.047
52.16000 1.998
52.32000 3.004
52.48000 2.996
52.64000 5.044
52.80000 5.061
52.96000 3.020
53.12000 0.000
53.28000 1.068
53.44000 3.034
53.60000 6.033
53.76000 3.000
53.92000 1.070
54.08000 1.049
54.24000 2.046
54.40000 1.048
54.56000 5.056
54.72000 3.021
54.88000 2.045
55.04000 0.987
55.20000 6.069
55.36000 3.053
55.52000 3.055
55.68000 1.015
55.84000 3.006
56.00000 3.020
56.16000 3.002
56.32000 0.000
56.48000 3.011
56.64000 1.021
56.80000 1.010
56.96000 3.118
57.12000 1.970
57.28000 2.012
57.44000 1.003
57.60000 5.059
57.76000 1.031
57.92000 0.989
58.08000 0.965
58.24000 1.956
58.40000 2.051
58.56000 3.018
58.72000 1.047
58.88000 3.014
59.04000 4.079
59.20000 2.975
59.36000 0.995
59.52000 4.039
59.68000 4.104
59.84000 5.008
60.00000 2.045
60.16000 1.017
60.32000 5.171
60.48000 1.983
60.64000 2.075
60.80000 4.034
60.96000 1.981
61.12000 1.024
61.28000 2.074
61.44000 0.000
61.60000 2.017
61.76000 3.059
61.92000 3.058
62.08000 2.012
62.24000 5.048
62.40000 3.003
62.56000 3.013
62.72000 2.021
62.88000 0.000
63.04000 3.012
63.20000 1.013
63.36000 0.988
63.52000 2.045
63.68000 0.990
63.84000 4.020
64.00000 1.018
64.16000 0.993
64.32000 5.079
64.48000 1.029
64.64000 2.968
64.80000 0.984
64.96000 0.000
65.00000 0.000