File: XRD/XRD/11-09-2025/XY Data/01092025_BTO_omega_0_5_001_27_11-126_48-746.xy
20.00000 11.093
20.16000 12.164
20.32000 19.440
20.48000 17.267
20.64000 19.216
20.80000 17.297
20.96000 17.933
21.12000 21.221
21.28000 10.161
21.44000 16.218
21.60000 15.170
21.76000 14.261
21.92000 14.255
22.08000 20.279
22.24000 13.189
22.40000 16.131
22.56000 17.205
22.72000 17.228
22.88000 27.404
23.04000 16.356
23.20000 13.208
23.36000 21.271
23.52000 19.219
23.68000 11.020
23.84000 26.411
24.00000 20.258
24.16000 13.120
24.32000 23.367
24.48000 31.396
24.64000 25.244
24.80000 18.340
24.96000 20.442
25.12000 20.196
25.28000 24.372
25.44000 17.273
25.60000 24.327
25.76000 31.383
25.92000 23.484
26.08000 38.575
26.24000 35.407
26.40000 33.398
26.56000 33.619
26.72000 26.310
26.88000 23.270
27.04000 29.547
27.20000 31.435
27.36000 42.689
27.52000 31.418
27.68000 40.483
27.84000 28.466
28.00000 34.559
28.16000 22.307
28.32000 45.756
28.48000 36.553
28.64000 35.339
28.80000 33.480
28.96000 31.388
29.12000 37.360
29.28000 37.763
29.44000 41.481
29.60000 37.526
29.76000 40.793
29.92000 33.507
30.08000 20.278
30.24000 26.213
30.40000 30.341
30.56000 26.272
30.72000 23.237
30.88000 26.378
31.04000 19.232
31.20000 16.383
31.36000 20.202
31.52000 17.348
31.68000 31.538
31.84000 16.158
32.00000 13.270
32.16000 15.063
32.32000 15.093
32.48000 23.317
32.64000 16.137
32.80000 9.241
32.96000 15.313
33.12000 18.488
33.28000 9.144
33.44000 9.112
33.60000 19.080
33.76000 12.286
33.92000 12.354
34.08000 12.135
34.24000 11.189
34.40000 12.170
34.56000 9.120
34.72000 14.177
34.88000 20.393
35.04000 13.249
35.20000 11.097
35.36000 7.085
35.52000 14.224
35.68000 9.049
35.84000 12.299
36.00000 13.163
36.16000 18.080
36.32000 8.009
36.48000 8.131
36.64000 8.045
36.80000 6.078
36.96000 13.179
37.12000 10.166
37.28000 13.060
37.44000 14.339
37.60000 9.120
37.76000 7.154
37.92000 8.147
38.08000 14.284
38.24000 16.186
38.40000 11.075
38.56000 15.105
38.72000 16.285
38.88000 6.001
39.04000 12.171
39.20000 16.215
39.36000 13.166
39.52000 15.166
39.68000 14.243
39.84000 10.202
40.00000 12.162
40.16000 17.222
40.32000 12.270
40.48000 17.206
40.64000 12.125
40.80000 19.176
40.96000 16.211
41.12000 20.407
41.28000 18.084
41.44000 12.216
41.60000 18.246
41.76000 12.165
41.92000 13.042
42.08000 17.264
42.24000 11.286
42.40000 17.478
42.56000 23.291
42.72000 9.109
42.88000 10.182
43.04000 16.404
43.20000 12.234
43.36000 19.313
43.52000 21.334
43.68000 16.240
43.84000 9.141
44.00000 10.137
44.16000 16.166
44.32000 12.262
44.48000 11.095
44.64000 13.172
44.80000 16.090
44.96000 18.215
45.12000 15.263
45.28000 19.399
45.44000 14.300
45.60000 11.022
45.76000 18.268
45.92000 13.286
46.08000 11.159
46.24000 13.087
46.40000 13.029
46.56000 10.171
46.72000 17.302
46.88000 11.020
47.04000 17.085
47.20000 14.427
47.36000 16.956
47.52000 14.162
47.68000 12.297
47.84000 5.098
48.00000 11.242
48.16000 11.050
48.32000 14.202
48.48000 17.136
48.64000 13.197
48.80000 16.242
48.96000 16.291
49.12000 10.266
49.28000 15.251
49.44000 18.132
49.60000 13.146
49.76000 18.308
49.92000 11.092
50.08000 12.262
50.24000 7.011
50.40000 8.105
50.56000 16.379
50.72000 9.044
50.88000 11.023
51.04000 11.145
51.20000 11.281
51.36000 16.354
51.52000 9.065
51.68000 4.021
51.84000 12.249
52.00000 11.325
52.16000 10.199
52.32000 10.128
52.48000 17.225
52.64000 12.330
52.80000 11.120
52.96000 12.101
53.12000 10.121
53.28000 10.102
53.44000 9.042
53.60000 10.115
53.76000 9.367
53.92000 13.170
54.08000 11.252
54.24000 12.191
54.40000 11.063
54.56000 9.314
54.72000 14.013
54.88000 11.098
55.04000 6.104
55.20000 7.034
55.36000 9.098
55.52000 10.175
55.68000 13.245
55.84000 10.157
56.00000 8.061
56.16000 6.992
56.32000 14.150
56.48000 1.032
56.64000 7.130
56.80000 7.046
56.96000 7.278
57.12000 7.045
57.28000 6.994
57.44000 5.090
57.60000 11.117
57.76000 13.107
57.92000 4.117
58.08000 8.152
58.24000 4.066
58.40000 10.107
58.56000 10.125
58.72000 5.066
58.88000 7.122
59.04000 7.018
59.20000 9.056
59.36000 5.223
59.52000 8.010
59.68000 6.070
59.84000 8.096
60.00000 5.013
60.16000 10.099
60.32000 2.982
60.48000 5.019
60.64000 12.006
60.80000 9.101
60.96000 8.040
61.12000 4.027
61.28000 8.061
61.44000 7.115
61.60000 10.063
61.76000 6.088
61.92000 8.127
62.08000 5.066
62.24000 8.226
62.40000 9.206
62.56000 5.189
62.72000 1.044
62.88000 9.083
63.04000 11.081
63.20000 7.131
63.36000 9.055
63.52000 5.010
63.68000 7.125
63.84000 5.012
64.00000 9.225
64.16000 6.218
64.32000 5.217
64.48000 7.041
64.64000 4.042
64.80000 7.077
64.96000 3.986
65.00000 6.037