File: XRD/XRD/11-09-2025/XY Data/01092025_BTO_omega_1_001_21_7-794_-9-773.xy
20.00000 17.249
20.16000 8.971
20.32000 20.342
20.48000 13.983
20.64000 13.211
20.80000 14.080
20.96000 22.304
21.12000 17.132
21.28000 9.175
21.44000 13.131
21.60000 17.270
21.76000 18.065
21.92000 17.357
22.08000 8.228
22.24000 14.231
22.40000 11.164
22.56000 18.499
22.72000 13.137
22.88000 16.118
23.04000 17.195
23.20000 15.168
23.36000 17.189
23.52000 18.368
23.68000 10.115
23.84000 9.022
24.00000 9.075
24.16000 14.135
24.32000 13.278
24.48000 12.038
24.64000 12.022
24.80000 11.035
24.96000 18.257
25.12000 14.287
25.28000 10.152
25.44000 16.244
25.60000 12.102
25.76000 11.241
25.92000 12.164
26.08000 11.158
26.24000 10.115
26.40000 11.099
26.56000 9.263
26.72000 5.144
26.88000 14.224
27.04000 11.202
27.20000 8.085
27.36000 13.091
27.52000 18.257
27.68000 4.998
27.84000 7.046
28.00000 11.298
28.16000 9.076
28.32000 13.171
28.48000 14.208
28.64000 12.258
28.80000 10.119
28.96000 10.241
29.12000 8.107
29.28000 9.082
29.44000 6.111
29.60000 7.057
29.76000 6.123
29.92000 9.299
30.08000 13.198
30.24000 6.088
30.40000 5.059
30.56000 6.078
30.72000 13.191
30.88000 7.058
31.04000 7.153
31.20000 11.271
31.36000 5.992
31.52000 4.017
31.68000 7.146
31.84000 5.011
32.00000 6.153
32.16000 11.200
32.32000 8.037
32.48000 5.123
32.64000 5.173
32.80000 11.273
32.96000 5.062
33.12000 0.996
33.28000 8.088
33.44000 1.008
33.60000 8.091
33.76000 7.161
33.92000 7.162
34.08000 6.187
34.24000 5.115
34.40000 7.050
34.56000 7.175
34.72000 5.123
34.88000 5.089
35.04000 5.148
35.20000 4.000
35.36000 3.057
35.52000 6.023
35.68000 4.060
35.84000 6.998
36.00000 6.124
36.16000 6.136
36.32000 4.041
36.48000 6.118
36.64000 4.118
36.80000 6.063
36.96000 6.020
37.12000 7.063
37.28000 5.049
37.44000 5.106
37.60000 5.011
37.76000 4.133
37.92000 2.073
38.08000 1.966
38.24000 4.018
38.40000 3.069
38.56000 10.057
38.72000 6.982
38.88000 1.990
39.04000 3.028
39.20000 5.074
39.36000 5.028
39.52000 2.050
39.68000 3.070
39.84000 6.000
40.00000 5.999
40.16000 0.981
40.32000 1.985
40.48000 5.116
40.64000 1.023
40.80000 3.055
40.96000 3.109
41.12000 2.063
41.28000 3.050
41.44000 4.031
41.60000 2.068
41.76000 7.099
41.92000 4.019
42.08000 1.045
42.24000 7.091
42.40000 2.054
42.56000 0.000
42.72000 2.992
42.88000 4.089
43.04000 2.006
43.20000 3.052
43.36000 8.066
43.52000 0.000
43.68000 3.078
43.84000 1.009
44.00000 4.038
44.16000 1.995
44.32000 2.091
44.48000 2.059
44.64000 6.023
44.80000 9.082
44.96000 1.070
45.12000 1.000
45.28000 2.044
45.44000 2.014
45.60000 5.127
45.76000 3.059
45.92000 3.007
46.08000 5.034
46.24000 3.046
46.40000 3.036
46.56000 3.019
46.72000 0.000
46.88000 2.008
47.04000 1.055
47.20000 2.055
47.36000 3.028
47.52000 3.045
47.68000 1.045
47.84000 2.985
48.00000 2.014
48.16000 1.059
48.32000 1.000
48.48000 4.080
48.64000 3.021
48.80000 2.992
48.96000 0.969
49.12000 3.085
49.28000 0.995
49.44000 0.000
49.60000 4.043
49.76000 0.000
49.92000 0.993
50.08000 0.987
50.24000 5.080
50.40000 2.979
50.56000 3.013
50.72000 1.007
50.88000 1.984
51.04000 0.000
51.20000 1.994
51.36000 2.026
51.52000 1.037
51.68000 0.000
51.84000 2.015
52.00000 0.000
52.16000 0.000
52.32000 0.000
52.48000 2.015
52.64000 2.006
52.80000 2.040
52.96000 2.118
53.12000 2.975
53.28000 1.031
53.44000 2.019
53.60000 0.000
53.76000 3.019
53.92000 0.986
54.08000 2.007
54.24000 3.992
54.40000 3.008
54.56000 3.066
54.72000 1.030
54.88000 1.054
55.04000 3.034
55.20000 0.000
55.36000 4.042
55.52000 1.006
55.68000 2.033
55.84000 0.000
56.00000 0.000
56.16000 0.000
56.32000 6.082
56.48000 1.020
56.64000 0.000
56.80000 2.010
56.96000 2.991
57.12000 1.070
57.28000 1.000
57.44000 1.023
57.60000 2.032
57.76000 0.000
57.92000 1.013
58.08000 0.000
58.24000 0.984
58.40000 4.035
58.56000 2.991
58.72000 1.010
58.88000 0.000
59.04000 2.079
59.20000 3.017
59.36000 0.968
59.52000 3.010
59.68000 1.993
59.84000 0.995
60.00000 2.037
60.16000 2.063
60.32000 2.090
60.48000 1.971
60.64000 0.000
60.80000 2.032
60.96000 0.000
61.12000 1.034
61.28000 2.112
61.44000 0.993
61.60000 2.053
61.76000 3.014
61.92000 2.020
62.08000 0.000
62.24000 2.053
62.40000 1.009
62.56000 1.995
62.72000 0.000
62.88000 0.998
63.04000 2.059
63.20000 1.011
63.36000 0.000
63.52000 2.990
63.68000 1.985
63.84000 2.012
64.00000 1.011
64.16000 1.004
64.32000 0.991
64.48000 2.004
64.64000 0.000
64.80000 2.038
64.96000 0.992
65.00000 0.000