File: XRD/XRD/11-09-2025/XY Data/01092025_BTO_omega_1_001_06_8-345_-36-560.xy
20.00000 174.960
20.16000 174.433
20.32000 166.743
20.48000 165.951
20.64000 156.473
20.80000 132.248
20.96000 149.704
21.12000 120.225
21.28000 121.027
21.44000 110.056
21.60000 86.779
21.76000 109.205
21.92000 94.858
22.08000 79.943
22.24000 82.541
22.40000 73.829
22.56000 68.611
22.72000 67.501
22.88000 54.360
23.04000 64.638
23.20000 50.369
23.36000 45.492
23.52000 44.405
23.68000 36.397
23.84000 51.705
24.00000 29.223
24.16000 30.694
24.32000 36.238
24.48000 31.320
24.64000 24.384
24.80000 16.166
24.96000 17.052
25.12000 26.389
25.28000 20.190
25.44000 23.348
25.60000 16.157
25.76000 23.402
25.92000 14.234
26.08000 12.089
26.24000 18.187
26.40000 11.992
26.56000 15.295
26.72000 19.004
26.88000 12.169
27.04000 12.985
27.20000 11.057
27.36000 11.245
27.52000 12.166
27.68000 13.164
27.84000 16.222
28.00000 14.238
28.16000 11.195
28.32000 8.993
28.48000 15.186
28.64000 11.204
28.80000 12.120
28.96000 9.991
29.12000 5.110
29.28000 10.163
29.44000 9.040
29.60000 7.104
29.76000 10.099
29.92000 7.967
30.08000 9.112
30.24000 8.105
30.40000 14.233
30.56000 12.981
30.72000 8.028
30.88000 6.933
31.04000 9.213
31.20000 9.087
31.36000 11.209
31.52000 12.263
31.68000 9.201
31.84000 7.042
32.00000 6.158
32.16000 7.107
32.32000 11.107
32.48000 6.039
32.64000 8.135
32.80000 5.153
32.96000 6.162
33.12000 2.032
33.28000 6.219
33.44000 9.070
33.60000 2.003
33.76000 7.053
33.92000 5.037
34.08000 2.024
34.24000 7.109
34.40000 8.967
34.56000 4.990
34.72000 12.302
34.88000 4.099
35.04000 6.100
35.20000 9.047
35.36000 3.005
35.52000 12.121
35.68000 3.060
35.84000 5.044
36.00000 7.114
36.16000 3.951
36.32000 9.132
36.48000 5.074
36.64000 6.173
36.80000 3.047
36.96000 2.011
37.12000 5.060
37.28000 3.086
37.44000 3.114
37.60000 9.136
37.76000 2.995
37.92000 6.040
38.08000 5.035
38.24000 5.962
38.40000 5.112
38.56000 5.119
38.72000 6.060
38.88000 4.120
39.04000 4.011
39.20000 4.003
39.36000 6.111
39.52000 7.109
39.68000 5.990
39.84000 8.126
40.00000 4.087
40.16000 6.174
40.32000 3.048
40.48000 4.051
40.64000 3.990
40.80000 9.095
40.96000 3.127
41.12000 3.081
41.28000 4.963
41.44000 4.063
41.60000 4.986
41.76000 4.034
41.92000 2.016
42.08000 3.065
42.24000 4.100
42.40000 2.051
42.56000 3.988
42.72000 3.093
42.88000 3.073
43.04000 3.055
43.20000 4.041
43.36000 6.951
43.52000 4.032
43.68000 0.997
43.84000 4.061
44.00000 5.092
44.16000 3.009
44.32000 5.046
44.48000 1.978
44.64000 0.995
44.80000 2.077
44.96000 2.994
45.12000 3.052
45.28000 2.990
45.44000 4.000
45.60000 7.148
45.76000 2.032
45.92000 4.047
46.08000 6.092
46.24000 5.046
46.40000 3.053
46.56000 7.113
46.72000 3.032
46.88000 3.020
47.04000 5.028
47.20000 5.082
47.36000 7.070
47.52000 2.009
47.68000 1.018
47.84000 2.011
48.00000 6.015
48.16000 4.101
48.32000 4.058
48.48000 2.044
48.64000 3.023
48.80000 1.956
48.96000 3.019
49.12000 0.000
49.28000 1.049
49.44000 3.043
49.60000 1.016
49.76000 4.014
49.92000 2.069
50.08000 3.047
50.24000 2.064
50.40000 5.096
50.56000 2.076
50.72000 1.063
50.88000 4.119
51.04000 3.058
51.20000 2.012
51.36000 1.019
51.52000 5.031
51.68000 3.027
51.84000 1.046
52.00000 2.025
52.16000 1.015
52.32000 4.055
52.48000 2.080
52.64000 2.058
52.80000 1.008
52.96000 1.041
53.12000 2.050
53.28000 3.045
53.44000 3.067
53.60000 3.086
53.76000 3.003
53.92000 3.071
54.08000 1.983
54.24000 1.071
54.40000 2.020
54.56000 1.025
54.72000 3.998
54.88000 2.997
55.04000 3.031
55.20000 3.083
55.36000 2.996
55.52000 1.967
55.68000 2.039
55.84000 1.039
56.00000 3.044
56.16000 2.038
56.32000 2.069
56.48000 2.035
56.64000 1.011
56.80000 2.021
56.96000 2.040
57.12000 1.008
57.28000 5.070
57.44000 2.982
57.60000 6.030
57.76000 2.990
57.92000 3.090
58.08000 3.057
58.24000 0.998
58.40000 4.040
58.56000 2.975
58.72000 1.999
58.88000 0.986
59.04000 2.999
59.20000 0.995
59.36000 2.021
59.52000 1.003
59.68000 1.004
59.84000 3.054
60.00000 1.001
60.16000 1.071
60.32000 4.992
60.48000 2.961
60.64000 1.042
60.80000 2.004
60.96000 0.991
61.12000 0.981
61.28000 3.039
61.44000 1.010
61.60000 1.977
61.76000 4.045
61.92000 2.056
62.08000 7.135
62.24000 2.059
62.40000 1.962
62.56000 0.000
62.72000 2.027
62.88000 3.037
63.04000 1.025
63.20000 2.009
63.36000 0.000
63.52000 2.013
63.68000 2.995
63.84000 3.003
64.00000 1.991
64.16000 3.041
64.32000 3.013
64.48000 0.000
64.64000 1.001
64.80000 5.017
64.96000 1.995
65.00000 2.027