File: XRD/XRD/11-09-2025/XY Data/01092025_BTO_omega_1_001_27_25-000_0-000.xy
20.00000 13.212
20.16000 15.328
20.32000 19.227
20.48000 17.372
20.64000 10.187
20.80000 18.275
20.96000 27.275
21.12000 17.165
21.28000 20.081
21.44000 20.235
21.60000 15.223
21.76000 17.332
21.92000 17.231
22.08000 21.971
22.24000 21.313
22.40000 13.194
22.56000 24.207
22.72000 16.097
22.88000 20.219
23.04000 22.465
23.20000 15.132
23.36000 16.066
23.52000 16.281
23.68000 22.142
23.84000 21.279
24.00000 24.260
24.16000 24.335
24.32000 26.321
24.48000 24.000
24.64000 21.475
24.80000 21.220
24.96000 22.358
25.12000 34.360
25.28000 29.186
25.44000 30.300
25.60000 31.325
25.76000 32.377
25.92000 32.189
26.08000 25.491
26.24000 37.510
26.40000 47.510
26.56000 39.436
26.72000 37.368
26.88000 24.238
27.04000 40.652
27.20000 30.231
27.36000 43.426
27.52000 35.294
27.68000 39.421
27.84000 37.421
28.00000 35.491
28.16000 25.360
28.32000 37.542
28.48000 43.650
28.64000 23.343
28.80000 36.540
28.96000 34.576
29.12000 31.351
29.28000 40.246
29.44000 25.418
29.60000 27.409
29.76000 40.666
29.92000 19.151
30.08000 31.394
30.24000 28.357
30.40000 24.270
30.56000 19.188
30.72000 30.481
30.88000 22.209
31.04000 34.237
31.20000 20.310
31.36000 23.170
31.52000 18.323
31.68000 22.084
31.84000 14.069
32.00000 17.287
32.16000 20.195
32.32000 17.263
32.48000 19.153
32.64000 16.164
32.80000 17.325
32.96000 3.992
33.12000 16.212
33.28000 12.057
33.44000 16.337
33.60000 13.158
33.76000 14.195
33.92000 12.222
34.08000 11.138
34.24000 13.113
34.40000 12.264
34.56000 12.057
34.72000 13.064
34.88000 10.205
35.04000 11.089
35.20000 12.186
35.36000 8.149
35.52000 9.183
35.68000 18.302
35.84000 12.153
36.00000 10.229
36.16000 13.161
36.32000 17.230
36.48000 18.105
36.64000 8.120
36.80000 9.055
36.96000 14.115
37.12000 14.322
37.28000 14.308
37.44000 7.166
37.60000 16.364
37.76000 8.107
37.92000 13.154
38.08000 8.098
38.24000 13.108
38.40000 17.315
38.56000 17.403
38.72000 18.383
38.88000 10.164
39.04000 12.095
39.20000 13.211
39.36000 8.138
39.52000 12.319
39.68000 12.118
39.84000 18.244
40.00000 9.975
40.16000 8.948
40.32000 11.195
40.48000 13.998
40.64000 13.944
40.80000 7.095
40.96000 15.421
41.12000 16.082
41.28000 7.127
41.44000 10.014
41.60000 12.120
41.76000 17.131
41.92000 15.190
42.08000 16.230
42.24000 12.078
42.40000 14.223
42.56000 14.007
42.72000 13.171
42.88000 24.216
43.04000 12.052
43.20000 20.405
43.36000 9.107
43.52000 10.067
43.68000 13.166
43.84000 16.291
44.00000 12.190
44.16000 10.225
44.32000 10.154
44.48000 13.184
44.64000 10.992
44.80000 12.016
44.96000 10.184
45.12000 15.263
45.28000 5.991
45.44000 15.187
45.60000 11.035
45.76000 5.995
45.92000 20.621
46.08000 23.166
46.24000 12.251
46.40000 16.259
46.56000 15.351
46.72000 8.042
46.88000 14.064
47.04000 14.205
47.20000 16.207
47.36000 8.029
47.52000 15.119
47.68000 15.157
47.84000 9.005
48.00000 14.245
48.16000 12.218
48.32000 19.349
48.48000 10.149
48.64000 10.165
48.80000 9.275
48.96000 20.139
49.12000 11.068
49.28000 3.990
49.44000 10.272
49.60000 11.047
49.76000 9.089
49.92000 15.280
50.08000 11.150
50.24000 5.064
50.40000 14.236
50.56000 12.124
50.72000 12.189
50.88000 15.174
51.04000 9.106
51.20000 13.247
51.36000 12.186
51.52000 14.212
51.68000 6.156
51.84000 6.120
52.00000 6.138
52.16000 11.043
52.32000 20.380
52.48000 20.374
52.64000 10.180
52.80000 13.162
52.96000 13.129
53.12000 10.157
53.28000 11.106
53.44000 5.109
53.60000 5.116
53.76000 13.288
53.92000 8.075
54.08000 4.014
54.24000 12.109
54.40000 8.104
54.56000 12.081
54.72000 8.092
54.88000 10.098
55.04000 4.093
55.20000 8.025
55.36000 12.990
55.52000 11.060
55.68000 12.238
55.84000 9.175
56.00000 14.064
56.16000 12.203
56.32000 6.060
56.48000 5.124
56.64000 7.044
56.80000 7.068
56.96000 14.302
57.12000 9.106
57.28000 13.245
57.44000 12.349
57.60000 9.088
57.76000 8.249
57.92000 11.089
58.08000 5.996
58.24000 8.249
58.40000 4.110
58.56000 9.160
58.72000 13.274
58.88000 9.056
59.04000 6.058
59.20000 16.144
59.36000 13.169
59.52000 6.085
59.68000 9.971
59.84000 10.279
60.00000 9.123
60.16000 9.337
60.32000 3.051
60.48000 10.186
60.64000 8.179
60.80000 10.168
60.96000 5.197
61.12000 6.161
61.28000 14.284
61.44000 10.192
61.60000 8.155
61.76000 10.005
61.92000 7.131
62.08000 3.042
62.24000 10.143
62.40000 7.114
62.56000 6.115
62.72000 7.032
62.88000 5.082
63.04000 4.114
63.20000 4.082
63.36000 8.152
63.52000 15.108
63.68000 4.101
63.84000 9.012
64.00000 7.167
64.16000 2.067
64.32000 8.091
64.48000 5.047
64.64000 3.046
64.80000 9.178
64.96000 6.186
65.00000 9.135