File: XRD/XRD/11-09-2025/XY Data/01092025_BTO_omega_0_5_001_12_-2-782_12-187.xy
20.00000 16.096
20.16000 29.315
20.32000 19.175
20.48000 22.577
20.64000 13.221
20.80000 21.287
20.96000 18.314
21.12000 23.164
21.28000 13.094
21.44000 23.204
21.60000 25.474
21.76000 17.369
21.92000 25.487
22.08000 26.495
22.24000 19.143
22.40000 21.048
22.56000 22.257
22.72000 27.359
22.88000 25.407
23.04000 17.105
23.20000 18.266
23.36000 26.452
23.52000 24.177
23.68000 29.353
23.84000 24.312
24.00000 29.364
24.16000 28.251
24.32000 25.359
24.48000 31.578
24.64000 34.688
24.80000 38.130
24.96000 38.535
25.12000 33.486
25.28000 52.393
25.44000 44.619
25.60000 43.757
25.76000 41.465
25.92000 45.343
26.08000 50.666
26.24000 52.632
26.40000 46.635
26.56000 55.059
26.72000 60.854
26.88000 42.708
27.04000 73.040
27.20000 88.031
27.36000 68.187
27.52000 46.602
27.68000 52.523
27.84000 67.871
28.00000 41.357
28.16000 66.020
28.32000 70.169
28.48000 55.078
28.64000 60.733
28.80000 48.517
28.96000 49.328
29.12000 47.482
29.28000 42.621
29.44000 44.894
29.60000 49.632
29.76000 46.590
29.92000 44.703
30.08000 36.302
30.24000 41.619
30.40000 31.622
30.56000 34.520
30.72000 27.392
30.88000 39.698
31.04000 33.244
31.20000 34.626
31.36000 39.718
31.52000 28.264
31.68000 32.470
31.84000 25.664
32.00000 25.309
32.16000 32.511
32.32000 23.436
32.48000 25.300
32.64000 29.421
32.80000 21.254
32.96000 26.514
33.12000 23.504
33.28000 17.266
33.44000 29.539
33.60000 27.074
33.76000 23.288
33.92000 14.313
34.08000 19.469
34.24000 15.046
34.40000 21.243
34.56000 26.185
34.72000 17.407
34.88000 18.202
35.04000 23.240
35.20000 19.099
35.36000 19.165
35.52000 25.270
35.68000 12.027
35.84000 20.193
36.00000 21.330
36.16000 21.280
36.32000 14.301
36.48000 15.299
36.64000 17.167
36.80000 23.277
36.96000 22.286
37.12000 19.447
37.28000 20.251
37.44000 15.187
37.60000 16.259
37.76000 17.275
37.92000 20.183
38.08000 33.419
38.24000 25.447
38.40000 26.412
38.56000 23.311
38.72000 25.518
38.88000 13.283
39.04000 25.336
39.20000 17.389
39.36000 27.419
39.52000 24.451
39.68000 21.247
39.84000 21.366
40.00000 24.273
40.16000 22.298
40.32000 24.362
40.48000 25.416
40.64000 22.272
40.80000 18.098
40.96000 15.061
41.12000 23.416
41.28000 18.250
41.44000 19.346
41.60000 18.941
41.76000 24.081
41.92000 21.328
42.08000 20.372
42.24000 22.402
42.40000 26.182
42.56000 21.388
42.72000 20.393
42.88000 21.306
43.04000 21.291
43.20000 27.391
43.36000 22.227
43.52000 27.334
43.68000 27.166
43.84000 14.177
44.00000 18.283
44.16000 18.981
44.32000 16.303
44.48000 17.283
44.64000 29.506
44.80000 21.214
44.96000 24.252
45.12000 21.418
45.28000 23.201
45.44000 21.471
45.60000 23.171
45.76000 17.121
45.92000 18.145
46.08000 22.308
46.24000 23.403
46.40000 14.215
46.56000 15.285
46.72000 26.083
46.88000 16.197
47.04000 8.021
47.20000 18.112
47.36000 24.478
47.52000 19.292
47.68000 22.217
47.84000 16.243
48.00000 21.218
48.16000 26.273
48.32000 24.395
48.48000 21.307
48.64000 20.130
48.80000 22.173
48.96000 19.125
49.12000 29.284
49.28000 16.230
49.44000 22.278
49.60000 22.288
49.76000 12.992
49.92000 17.480
50.08000 22.547
50.24000 19.147
50.40000 16.173
50.56000 17.264
50.72000 11.102
50.88000 16.267
51.04000 15.159
51.20000 18.298
51.36000 18.077
51.52000 10.126
51.68000 17.339
51.84000 16.064
52.00000 20.105
52.16000 18.169
52.32000 12.056
52.48000 15.346
52.64000 16.278
52.80000 14.296
52.96000 18.397
53.12000 11.144
53.28000 18.210
53.44000 16.289
53.60000 14.193
53.76000 22.181
53.92000 18.383
54.08000 15.090
54.24000 12.133
54.40000 14.190
54.56000 16.229
54.72000 14.129
54.88000 12.168
55.04000 13.932
55.20000 16.323
55.36000 9.170
55.52000 13.257
55.68000 7.101
55.84000 15.224
56.00000 14.285
56.16000 10.195
56.32000 17.239
56.48000 16.163
56.64000 11.143
56.80000 15.366
56.96000 9.086
57.12000 19.138
57.28000 8.103
57.44000 8.259
57.60000 16.146
57.76000 13.149
57.92000 15.038
58.08000 11.355
58.24000 13.078
58.40000 8.088
58.56000 10.007
58.72000 11.149
58.88000 10.029
59.04000 19.272
59.20000 8.122
59.36000 8.016
59.52000 9.212
59.68000 8.041
59.84000 11.108
60.00000 17.215
60.16000 11.074
60.32000 10.164
60.48000 8.040
60.64000 8.273
60.80000 4.009
60.96000 9.065
61.12000 8.083
61.28000 8.234
61.44000 7.014
61.60000 13.288
61.76000 11.010
61.92000 7.049
62.08000 3.000
62.24000 8.076
62.40000 6.081
62.56000 11.092
62.72000 6.170
62.88000 11.200
63.04000 12.144
63.20000 3.057
63.36000 10.176
63.52000 12.098
63.68000 6.085
63.84000 7.088
64.00000 15.246
64.16000 9.190
64.32000 8.120
64.48000 10.149
64.64000 10.097
64.80000 4.959
64.96000 3.981
65.00000 7.876