File: XRD/XRD/11-09-2025/XY Data/01092025_BTO_omega_0_5_001_17_45-048_21-694.xy
20.00000 15.184
20.16000 14.208
20.32000 15.178
20.48000 18.191
20.64000 11.438
20.80000 17.176
20.96000 13.138
21.12000 22.227
21.28000 26.313
21.44000 12.159
21.60000 22.251
21.76000 11.126
21.92000 15.221
22.08000 32.427
22.24000 18.153
22.40000 21.252
22.56000 31.438
22.72000 17.336
22.88000 15.157
23.04000 20.342
23.20000 13.302
23.36000 17.328
23.52000 22.184
23.68000 17.328
23.84000 33.547
24.00000 22.380
24.16000 24.484
24.32000 28.622
24.48000 29.424
24.64000 24.211
24.80000 19.451
24.96000 30.465
25.12000 31.366
25.28000 31.534
25.44000 24.172
25.60000 30.673
25.76000 31.635
25.92000 40.786
26.08000 33.363
26.24000 41.771
26.40000 30.437
26.56000 50.462
26.72000 38.714
26.88000 43.437
27.04000 58.779
27.20000 35.386
27.36000 65.778
27.52000 52.913
27.68000 44.666
27.84000 43.745
28.00000 52.686
28.16000 52.988
28.32000 46.506
28.48000 46.424
28.64000 58.881
28.80000 47.090
28.96000 57.626
29.12000 47.593
29.28000 39.590
29.44000 54.572
29.60000 43.482
29.76000 36.700
29.92000 40.766
30.08000 38.684
30.24000 36.637
30.40000 35.313
30.56000 35.874
30.72000 21.269
30.88000 37.366
31.04000 24.404
31.20000 24.250
31.36000 27.343
31.52000 30.301
31.68000 26.236
31.84000 29.314
32.00000 22.308
32.16000 24.175
32.32000 16.303
32.48000 24.373
32.64000 15.241
32.80000 23.459
32.96000 17.215
33.12000 16.150
33.28000 12.255
33.44000 13.194
33.60000 12.029
33.76000 9.137
33.92000 22.293
34.08000 12.267
34.24000 15.327
34.40000 21.289
34.56000 7.106
34.72000 15.144
34.88000 16.357
35.04000 12.072
35.20000 10.298
35.36000 16.071
35.52000 13.162
35.68000 8.030
35.84000 16.242
36.00000 15.097
36.16000 15.295
36.32000 11.161
36.48000 16.283
36.64000 15.204
36.80000 16.231
36.96000 16.318
37.12000 23.406
37.28000 15.277
37.44000 18.268
37.60000 11.057
37.76000 19.211
37.92000 17.196
38.08000 18.300
38.24000 17.114
38.40000 17.110
38.56000 14.033
38.72000 9.001
38.88000 17.466
39.04000 15.156
39.20000 15.136
39.36000 13.148
39.52000 15.040
39.68000 18.301
39.84000 10.142
40.00000 21.134
40.16000 18.285
40.32000 16.194
40.48000 13.522
40.64000 22.221
40.80000 20.213
40.96000 15.142
41.12000 12.234
41.28000 24.416
41.44000 18.135
41.60000 18.121
41.76000 24.243
41.92000 21.251
42.08000 14.086
42.24000 20.366
42.40000 19.244
42.56000 21.507
42.72000 20.240
42.88000 16.179
43.04000 16.142
43.20000 13.300
43.36000 16.136
43.52000 15.161
43.68000 11.140
43.84000 17.121
44.00000 15.227
44.16000 21.247
44.32000 17.293
44.48000 19.322
44.64000 23.383
44.80000 17.327
44.96000 23.361
45.12000 15.159
45.28000 20.345
45.44000 26.400
45.60000 19.369
45.76000 20.281
45.92000 23.126
46.08000 18.323
46.24000 14.156
46.40000 19.163
46.56000 27.171
46.72000 26.312
46.88000 14.172
47.04000 13.172
47.20000 16.127
47.36000 14.204
47.52000 15.167
47.68000 17.107
47.84000 25.150
48.00000 14.052
48.16000 19.456
48.32000 19.271
48.48000 16.344
48.64000 19.368
48.80000 25.265
48.96000 14.246
49.12000 14.126
49.28000 15.201
49.44000 17.232
49.60000 18.086
49.76000 10.980
49.92000 16.187
50.08000 10.257
50.24000 11.231
50.40000 18.201
50.56000 13.068
50.72000 16.272
50.88000 12.250
51.04000 11.104
51.20000 12.281
51.36000 15.123
51.52000 11.173
51.68000 16.247
51.84000 17.127
52.00000 13.076
52.16000 15.241
52.32000 10.192
52.48000 9.074
52.64000 11.060
52.80000 12.120
52.96000 9.142
53.12000 12.317
53.28000 12.261
53.44000 6.969
53.60000 17.277
53.76000 16.194
53.92000 16.131
54.08000 8.216
54.24000 9.113
54.40000 15.118
54.56000 13.153
54.72000 16.293
54.88000 20.069
55.04000 9.154
55.20000 17.238
55.36000 16.168
55.52000 17.306
55.68000 16.322
55.84000 10.001
56.00000 9.088
56.16000 15.258
56.32000 12.248
56.48000 6.097
56.64000 6.078
56.80000 11.167
56.96000 19.141
57.12000 13.239
57.28000 11.049
57.44000 11.246
57.60000 10.178
57.76000 14.126
57.92000 7.052
58.08000 13.239
58.24000 15.192
58.40000 15.056
58.56000 8.075
58.72000 8.090
58.88000 8.170
59.04000 9.042
59.20000 7.995
59.36000 14.140
59.52000 8.233
59.68000 14.106
59.84000 9.062
60.00000 9.098
60.16000 5.183
60.32000 7.036
60.48000 7.119
60.64000 10.161
60.80000 7.107
60.96000 6.129
61.12000 7.124
61.28000 13.124
61.44000 7.032
61.60000 8.072
61.76000 9.126
61.92000 11.276
62.08000 8.142
62.24000 3.049
62.40000 6.006
62.56000 10.997
62.72000 6.021
62.88000 8.057
63.04000 5.073
63.20000 3.016
63.36000 6.063
63.52000 8.189
63.68000 10.207
63.84000 9.148
64.00000 4.981
64.16000 8.094
64.32000 3.055
64.48000 8.330
64.64000 10.162
64.80000 10.127
64.96000 14.150
65.00000 6.085