File: XRD/XRD/11-09-2025/XY Data/01092025_BTO_omega_1_001_16_-33-786_-16-271.xy
20.00000 133.641
20.16000 110.981
20.32000 117.042
20.48000 121.420
20.64000 108.182
20.80000 108.295
20.96000 79.445
21.12000 73.813
21.28000 76.382
21.44000 82.678
21.60000 84.914
21.76000 74.359
21.92000 54.705
22.08000 45.433
22.24000 61.323
22.40000 42.484
22.56000 47.492
22.72000 48.277
22.88000 44.694
23.04000 45.732
23.20000 41.383
23.36000 49.498
23.52000 33.407
23.68000 22.213
23.84000 32.405
24.00000 30.439
24.16000 28.496
24.32000 26.159
24.48000 17.998
24.64000 24.345
24.80000 14.051
24.96000 15.277
25.12000 14.111
25.28000 25.545
25.44000 18.257
25.60000 22.180
25.76000 27.272
25.92000 11.162
26.08000 18.084
26.24000 10.108
26.40000 16.242
26.56000 16.248
26.72000 16.160
26.88000 11.143
27.04000 13.216
27.20000 12.159
27.36000 16.276
27.52000 12.151
27.68000 15.349
27.84000 15.119
28.00000 11.028
28.16000 4.047
28.32000 10.111
28.48000 5.111
28.64000 12.153
28.80000 6.082
28.96000 8.112
29.12000 8.218
29.28000 11.253
29.44000 6.059
29.60000 10.041
29.76000 10.174
29.92000 8.152
30.08000 16.295
30.24000 16.234
30.40000 9.143
30.56000 5.035
30.72000 10.216
30.88000 12.129
31.04000 7.109
31.20000 14.106
31.36000 9.107
31.52000 7.148
31.68000 12.149
31.84000 8.152
32.00000 7.063
32.16000 9.101
32.32000 7.072
32.48000 6.140
32.64000 10.161
32.80000 10.194
32.96000 8.112
33.12000 6.086
33.28000 10.164
33.44000 9.069
33.60000 8.095
33.76000 11.141
33.92000 5.086
34.08000 7.045
34.24000 9.053
34.40000 6.175
34.56000 5.131
34.72000 3.037
34.88000 5.072
35.04000 6.047
35.20000 10.231
35.36000 3.039
35.52000 7.055
35.68000 3.037
35.84000 7.059
36.00000 6.211
36.16000 2.073
36.32000 2.049
36.48000 6.097
36.64000 5.063
36.80000 2.997
36.96000 5.012
37.12000 5.125
37.28000 8.157
37.44000 1.986
37.60000 7.120
37.76000 4.120
37.92000 4.034
38.08000 2.951
38.24000 6.124
38.40000 6.085
38.56000 3.010
38.72000 2.059
38.88000 5.202
39.04000 4.091
39.20000 10.129
39.36000 8.047
39.52000 7.241
39.68000 10.050
39.84000 3.040
40.00000 6.094
40.16000 4.073
40.32000 5.020
40.48000 4.076
40.64000 5.063
40.80000 5.112
40.96000 4.030
41.12000 5.129
41.28000 2.076
41.44000 2.013
41.60000 4.072
41.76000 3.076
41.92000 9.042
42.08000 5.107
42.24000 7.163
42.40000 2.034
42.56000 5.070
42.72000 4.159
42.88000 8.072
43.04000 3.033
43.20000 4.049
43.36000 4.075
43.52000 3.043
43.68000 0.000
43.84000 2.032
44.00000 3.025
44.16000 6.119
44.32000 1.045
44.48000 1.990
44.64000 2.038
44.80000 4.019
44.96000 6.062
45.12000 3.111
45.28000 8.229
45.44000 5.104
45.60000 9.079
45.76000 1.072
45.92000 1.005
46.08000 5.016
46.24000 7.066
46.40000 2.979
46.56000 2.971
46.72000 3.038
46.88000 2.026
47.04000 5.063
47.20000 6.045
47.36000 3.034
47.52000 2.034
47.68000 4.000
47.84000 3.086
48.00000 7.108
48.16000 2.023
48.32000 2.041
48.48000 2.994
48.64000 4.055
48.80000 2.021
48.96000 5.110
49.12000 4.972
49.28000 2.044
49.44000 2.058
49.60000 2.991
49.76000 4.110
49.92000 6.013
50.08000 0.983
50.24000 4.081
50.40000 3.010
50.56000 2.966
50.72000 3.024
50.88000 6.981
51.04000 0.000
51.20000 2.030
51.36000 5.093
51.52000 2.033
51.68000 2.033
51.84000 2.024
52.00000 2.002
52.16000 4.037
52.32000 5.037
52.48000 0.995
52.64000 2.017
52.80000 3.021
52.96000 0.987
53.12000 1.019
53.28000 1.011
53.44000 2.045
53.60000 3.045
53.76000 4.048
53.92000 2.026
54.08000 0.000
54.24000 4.078
54.40000 3.969
54.56000 2.043
54.72000 2.019
54.88000 0.000
55.04000 3.013
55.20000 3.011
55.36000 1.039
55.52000 2.997
55.68000 1.999
55.84000 3.023
56.00000 0.994
56.16000 1.988
56.32000 0.984
56.48000 2.029
56.64000 2.028
56.80000 1.954
56.96000 0.998
57.12000 3.056
57.28000 2.999
57.44000 0.000
57.60000 2.038
57.76000 1.039
57.92000 2.066
58.08000 5.019
58.24000 0.967
58.40000 3.964
58.56000 0.000
58.72000 0.982
58.88000 0.000
59.04000 3.981
59.20000 0.987
59.36000 1.982
59.52000 4.103
59.68000 5.033
59.84000 0.000
60.00000 3.035
60.16000 3.981
60.32000 2.053
60.48000 1.989
60.64000 0.000
60.80000 3.010
60.96000 2.024
61.12000 4.126
61.28000 3.036
61.44000 2.052
61.60000 2.028
61.76000 3.052
61.92000 1.025
62.08000 3.069
62.24000 2.053
62.40000 1.022
62.56000 1.996
62.72000 3.008
62.88000 1.038
63.04000 0.983
63.20000 2.020
63.36000 0.000
63.52000 3.064
63.68000 4.017
63.84000 4.057
64.00000 1.998
64.16000 2.007
64.32000 1.037
64.48000 1.986
64.64000 4.059
64.80000 0.000
64.96000 2.028
65.00000 5.022