File: XRD/XRD/11-09-2025/XY Data/01092025_BTO_omega_1_001_26_12-500_0-000.xy
20.00000 16.254
20.16000 21.284
20.32000 19.213
20.48000 18.088
20.64000 13.141
20.80000 21.331
20.96000 19.203
21.12000 12.148
21.28000 19.163
21.44000 13.151
21.60000 16.138
21.76000 20.278
21.92000 22.294
22.08000 11.201
22.24000 12.151
22.40000 16.234
22.56000 11.159
22.72000 16.230
22.88000 21.540
23.04000 24.541
23.20000 25.307
23.36000 24.337
23.52000 16.228
23.68000 19.200
23.84000 23.335
24.00000 22.454
24.16000 18.224
24.32000 30.195
24.48000 20.133
24.64000 19.249
24.80000 27.413
24.96000 27.467
25.12000 29.308
25.28000 34.502
25.44000 19.362
25.60000 41.314
25.76000 35.586
25.92000 36.390
26.08000 35.584
26.24000 45.675
26.40000 37.565
26.56000 39.329
26.72000 42.502
26.88000 25.294
27.04000 34.493
27.20000 31.649
27.36000 23.458
27.52000 46.579
27.68000 44.659
27.84000 35.214
28.00000 29.393
28.16000 38.389
28.32000 41.525
28.48000 38.322
28.64000 47.661
28.80000 42.370
28.96000 32.524
29.12000 36.343
29.28000 32.276
29.44000 35.391
29.60000 30.308
29.76000 36.049
29.92000 38.710
30.08000 34.525
30.24000 21.334
30.40000 18.317
30.56000 29.294
30.72000 17.122
30.88000 29.258
31.04000 19.288
31.20000 18.127
31.36000 23.235
31.52000 21.269
31.68000 14.186
31.84000 28.428
32.00000 20.426
32.16000 25.139
32.32000 36.497
32.48000 21.222
32.64000 24.454
32.80000 20.084
32.96000 13.160
33.12000 21.422
33.28000 12.031
33.44000 11.029
33.60000 13.187
33.76000 8.183
33.92000 23.422
34.08000 12.203
34.24000 15.293
34.40000 15.448
34.56000 11.136
34.72000 16.321
34.88000 8.097
35.04000 14.101
35.20000 10.278
35.36000 12.131
35.52000 6.982
35.68000 14.193
35.84000 12.217
36.00000 17.134
36.16000 9.192
36.32000 16.162
36.48000 21.201
36.64000 10.197
36.80000 10.262
36.96000 13.108
37.12000 3.960
37.28000 16.121
37.44000 21.503
37.60000 13.139
37.76000 12.160
37.92000 12.103
38.08000 15.155
38.24000 12.098
38.40000 9.088
38.56000 10.222
38.72000 10.033
38.88000 16.177
39.04000 17.349
39.20000 12.148
39.36000 20.378
39.52000 15.368
39.68000 18.176
39.84000 23.513
40.00000 15.056
40.16000 17.258
40.32000 12.046
40.48000 14.116
40.64000 5.134
40.80000 15.245
40.96000 12.222
41.12000 9.075
41.28000 12.193
41.44000 16.079
41.60000 18.196
41.76000 9.098
41.92000 10.020
42.08000 14.160
42.24000 13.238
42.40000 17.144
42.56000 17.426
42.72000 16.261
42.88000 12.254
43.04000 15.203
43.20000 11.274
43.36000 14.258
43.52000 12.091
43.68000 13.121
43.84000 14.140
44.00000 18.009
44.16000 18.321
44.32000 10.195
44.48000 22.444
44.64000 11.247
44.80000 15.340
44.96000 15.221
45.12000 20.283
45.28000 21.278
45.44000 7.177
45.60000 16.063
45.76000 17.237
45.92000 13.093
46.08000 17.243
46.24000 13.078
46.40000 21.240
46.56000 16.158
46.72000 25.245
46.88000 14.260
47.04000 16.230
47.20000 11.068
47.36000 16.266
47.52000 6.043
47.68000 6.046
47.84000 8.060
48.00000 15.181
48.16000 13.290
48.32000 16.253
48.48000 14.407
48.64000 6.111
48.80000 12.276
48.96000 9.119
49.12000 15.215
49.28000 9.270
49.44000 17.213
49.60000 17.160
49.76000 8.983
49.92000 21.380
50.08000 12.053
50.24000 13.175
50.40000 9.045
50.56000 8.225
50.72000 5.041
50.88000 15.207
51.04000 9.144
51.20000 8.110
51.36000 7.108
51.52000 13.090
51.68000 11.085
51.84000 23.466
52.00000 10.133
52.16000 11.133
52.32000 13.255
52.48000 6.054
52.64000 11.165
52.80000 12.047
52.96000 14.056
53.12000 15.168
53.28000 9.164
53.44000 10.174
53.60000 8.157
53.76000 11.176
53.92000 15.213
54.08000 11.995
54.24000 11.092
54.40000 12.050
54.56000 18.355
54.72000 9.133
54.88000 9.287
55.04000 8.039
55.20000 18.164
55.36000 11.125
55.52000 12.151
55.68000 10.186
55.84000 9.149
56.00000 13.181
56.16000 13.085
56.32000 12.031
56.48000 11.028
56.64000 7.160
56.80000 11.035
56.96000 12.193
57.12000 3.000
57.28000 7.097
57.44000 8.017
57.60000 13.265
57.76000 2.076
57.92000 2.065
58.08000 8.960
58.24000 5.186
58.40000 7.989
58.56000 6.062
58.72000 10.071
58.88000 8.217
59.04000 14.095
59.20000 7.008
59.36000 7.068
59.52000 7.036
59.68000 9.141
59.84000 9.131
60.00000 14.167
60.16000 10.147
60.32000 7.142
60.48000 6.908
60.64000 11.145
60.80000 8.244
60.96000 7.993
61.12000 10.190
61.28000 11.199
61.44000 9.055
61.60000 9.119
61.76000 6.038
61.92000 5.060
62.08000 8.008
62.24000 4.042
62.40000 7.021
62.56000 9.216
62.72000 6.098
62.88000 5.102
63.04000 14.117
63.20000 13.235
63.36000 8.210
63.52000 7.140
63.68000 9.153
63.84000 9.064
64.00000 9.121
64.16000 8.190
64.32000 5.035
64.48000 8.109
64.64000 6.029
64.80000 6.179
64.96000 6.090
65.00000 6.071