File: XRD/XRD/11-09-2025/XY Data/01092025_BTO_omega_1_001_33_-50-000_0-000.xy
20.00000 11.264
20.16000 16.021
20.32000 10.125
20.48000 18.158
20.64000 15.226
20.80000 9.020
20.96000 10.195
21.12000 12.261
21.28000 14.090
21.44000 14.106
21.60000 14.254
21.76000 8.133
21.92000 6.090
22.08000 10.151
22.24000 11.294
22.40000 8.127
22.56000 5.061
22.72000 8.126
22.88000 5.090
23.04000 5.967
23.20000 14.264
23.36000 5.017
23.52000 6.108
23.68000 9.151
23.84000 6.032
24.00000 7.038
24.16000 12.241
24.32000 6.073
24.48000 7.047
24.64000 14.165
24.80000 8.111
24.96000 8.042
25.12000 10.090
25.28000 9.060
25.44000 8.018
25.60000 8.088
25.76000 9.164
25.92000 6.300
26.08000 3.078
26.24000 11.063
26.40000 3.017
26.56000 6.195
26.72000 4.038
26.88000 9.199
27.04000 3.097
27.20000 4.041
27.36000 6.099
27.52000 6.029
27.68000 9.230
27.84000 1.997
28.00000 8.055
28.16000 15.123
28.32000 2.999
28.48000 6.132
28.64000 5.028
28.80000 7.156
28.96000 8.073
29.12000 2.980
29.28000 1.000
29.44000 9.127
29.60000 5.112
29.76000 2.031
29.92000 4.141
30.08000 1.060
30.24000 8.179
30.40000 8.079
30.56000 4.058
30.72000 0.000
30.88000 5.019
31.04000 6.025
31.20000 2.977
31.36000 7.079
31.52000 6.079
31.68000 2.023
31.84000 6.116
32.00000 7.156
32.16000 4.056
32.32000 8.012
32.48000 2.012
32.64000 4.017
32.80000 3.973
32.96000 5.025
33.12000 3.038
33.28000 13.069
33.44000 2.084
33.60000 3.032
33.76000 1.000
33.92000 2.035
34.08000 1.027
34.24000 9.129
34.40000 5.114
34.56000 2.994
34.72000 4.119
34.88000 6.160
35.04000 0.974
35.20000 5.120
35.36000 3.036
35.52000 0.974
35.68000 2.988
35.84000 2.059
36.00000 7.073
36.16000 6.086
36.32000 3.031
36.48000 3.009
36.64000 2.019
36.80000 6.051
36.96000 3.023
37.12000 6.135
37.28000 3.038
37.44000 1.033
37.60000 2.051
37.76000 1.055
37.92000 3.104
38.08000 4.049
38.24000 0.987
38.40000 3.029
38.56000 3.049
38.72000 2.036
38.88000 0.984
39.04000 0.000
39.20000 5.053
39.36000 5.093
39.52000 0.000
39.68000 3.072
39.84000 1.983
40.00000 6.124
40.16000 3.000
40.32000 2.015
40.48000 5.098
40.64000 4.010
40.80000 0.000
40.96000 0.000
41.12000 0.000
41.28000 3.049
41.44000 3.031
41.60000 0.993
41.76000 1.999
41.92000 1.041
42.08000 2.009
42.24000 4.025
42.40000 4.032
42.56000 4.099
42.72000 1.995
42.88000 1.021
43.04000 1.010
43.20000 4.007
43.36000 5.046
43.52000 4.051
43.68000 4.999
43.84000 4.062
44.00000 5.038
44.16000 4.064
44.32000 2.939
44.48000 6.045
44.64000 2.018
44.80000 2.020
44.96000 4.102
45.12000 0.994
45.28000 0.998
45.44000 2.025
45.60000 3.089
45.76000 2.017
45.92000 4.003
46.08000 2.071
46.24000 4.115
46.40000 1.975
46.56000 5.091
46.72000 6.034
46.88000 4.096
47.04000 1.031
47.20000 3.069
47.36000 2.019
47.52000 1.997
47.68000 3.019
47.84000 5.077
48.00000 1.064
48.16000 2.007
48.32000 6.038
48.48000 2.025
48.64000 1.005
48.80000 1.008
48.96000 2.054
49.12000 1.012
49.28000 3.010
49.44000 4.019
49.60000 3.060
49.76000 2.073
49.92000 2.057
50.08000 1.047
50.24000 1.017
50.40000 3.018
50.56000 0.000
50.72000 5.026
50.88000 2.044
51.04000 1.044
51.20000 2.010
51.36000 1.002
51.52000 1.988
51.68000 0.000
51.84000 2.028
52.00000 5.125
52.16000 6.050
52.32000 1.989
52.48000 1.025
52.64000 2.012
52.80000 1.040
52.96000 3.079
53.12000 3.067
53.28000 1.996
53.44000 1.986
53.60000 5.073
53.76000 3.042
53.92000 4.020
54.08000 2.968
54.24000 6.038
54.40000 1.024
54.56000 1.063
54.72000 3.016
54.88000 4.021
55.04000 2.137
55.20000 0.000
55.36000 3.087
55.52000 1.018
55.68000 1.010
55.84000 1.978
56.00000 6.141
56.16000 2.026
56.32000 2.029
56.48000 0.995
56.64000 0.000
56.80000 0.000
56.96000 3.028
57.12000 4.951
57.28000 2.993
57.44000 5.028
57.60000 3.018
57.76000 1.985
57.92000 2.000
58.08000 1.987
58.24000 1.033
58.40000 0.000
58.56000 2.111
58.72000 2.058
58.88000 1.003
59.04000 1.995
59.20000 5.067
59.36000 1.977
59.52000 1.007
59.68000 2.037
59.84000 3.980
60.00000 1.056
60.16000 0.000
60.32000 1.993
60.48000 3.063
60.64000 0.000
60.80000 1.024
60.96000 2.082
61.12000 0.994
61.28000 2.984
61.44000 3.043
61.60000 0.000
61.76000 2.009
61.92000 4.063
62.08000 0.000
62.24000 1.021
62.40000 0.990
62.56000 1.043
62.72000 2.033
62.88000 1.038
63.04000 5.088
63.20000 4.021
63.36000 1.028
63.52000 4.097
63.68000 1.048
63.84000 2.052
64.00000 1.012
64.16000 1.008
64.32000 2.083
64.48000 0.000
64.64000 0.000
64.80000 0.000
64.96000 0.000
65.00000 3.103