File: XRD/XRD/11-09-2025/XY Data/01092025_BTO_omega_1_001_02_11-126_-48-746.xy
20.00000 76.965
20.16000 74.529
20.32000 87.661
20.48000 76.741
20.64000 85.903
20.80000 73.576
20.96000 83.985
21.12000 81.792
21.28000 54.718
21.44000 81.997
21.60000 57.483
21.76000 50.202
21.92000 40.390
22.08000 54.460
22.24000 49.318
22.40000 44.353
22.56000 39.498
22.72000 30.405
22.88000 31.132
23.04000 47.341
23.20000 37.604
23.36000 33.296
23.52000 31.452
23.68000 28.227
23.84000 27.158
24.00000 23.342
24.16000 29.342
24.32000 19.299
24.48000 27.314
24.64000 22.508
24.80000 20.146
24.96000 19.225
25.12000 21.340
25.28000 18.142
25.44000 18.007
25.60000 14.157
25.76000 15.021
25.92000 13.251
26.08000 16.268
26.24000 11.064
26.40000 7.138
26.56000 16.302
26.72000 9.124
26.88000 19.188
27.04000 8.179
27.20000 13.211
27.36000 13.168
27.52000 16.290
27.68000 15.158
27.84000 8.123
28.00000 15.129
28.16000 8.155
28.32000 9.245
28.48000 8.242
28.64000 10.180
28.80000 12.056
28.96000 11.292
29.12000 11.100
29.28000 12.077
29.44000 8.970
29.60000 4.018
29.76000 11.292
29.92000 8.222
30.08000 11.232
30.24000 10.061
30.40000 7.008
30.56000 5.122
30.72000 6.074
30.88000 6.076
31.04000 11.206
31.20000 9.117
31.36000 11.201
31.52000 12.272
31.68000 9.187
31.84000 6.002
32.00000 10.096
32.16000 8.099
32.32000 3.972
32.48000 7.008
32.64000 5.090
32.80000 5.091
32.96000 6.125
33.12000 12.117
33.28000 5.117
33.44000 4.087
33.60000 10.037
33.76000 9.109
33.92000 1.035
34.08000 5.103
34.24000 4.053
34.40000 8.218
34.56000 3.050
34.72000 7.101
34.88000 9.182
35.04000 0.990
35.20000 4.939
35.36000 7.213
35.52000 3.019
35.68000 2.970
35.84000 2.062
36.00000 13.227
36.16000 4.052
36.32000 6.094
36.48000 4.020
36.64000 3.985
36.80000 7.051
36.96000 3.044
37.12000 5.105
37.28000 5.982
37.44000 12.058
37.60000 6.288
37.76000 5.122
37.92000 5.095
38.08000 2.009
38.24000 4.072
38.40000 3.019
38.56000 4.017
38.72000 6.141
38.88000 1.038
39.04000 1.988
39.20000 8.171
39.36000 4.040
39.52000 7.061
39.68000 6.959
39.84000 2.032
40.00000 11.126
40.16000 10.125
40.32000 3.030
40.48000 3.018
40.64000 4.035
40.80000 2.108
40.96000 6.124
41.12000 2.029
41.28000 3.021
41.44000 3.041
41.60000 4.046
41.76000 5.099
41.92000 2.045
42.08000 8.194
42.24000 4.090
42.40000 6.101
42.56000 2.016
42.72000 4.080
42.88000 0.986
43.04000 5.076
43.20000 2.995
43.36000 7.202
43.52000 6.096
43.68000 1.024
43.84000 6.008
44.00000 2.958
44.16000 4.039
44.32000 4.042
44.48000 5.052
44.64000 2.032
44.80000 5.129
44.96000 6.032
45.12000 5.161
45.28000 6.138
45.44000 3.008
45.60000 1.999
45.76000 6.101
45.92000 4.038
46.08000 0.000
46.24000 5.020
46.40000 2.006
46.56000 0.983
46.72000 3.040
46.88000 4.121
47.04000 4.120
47.20000 1.976
47.36000 1.041
47.52000 1.979
47.68000 2.050
47.84000 3.016
48.00000 5.086
48.16000 5.042
48.32000 3.019
48.48000 3.060
48.64000 3.043
48.80000 2.050
48.96000 2.029
49.12000 4.073
49.28000 2.054
49.44000 2.020
49.60000 1.043
49.76000 2.015
49.92000 2.991
50.08000 2.002
50.24000 3.052
50.40000 5.053
50.56000 0.000
50.72000 2.016
50.88000 3.022
51.04000 2.007
51.20000 0.000
51.36000 5.061
51.52000 1.033
51.68000 1.994
51.84000 2.027
52.00000 3.028
52.16000 4.017
52.32000 4.038
52.48000 2.999
52.64000 3.039
52.80000 2.041
52.96000 5.042
53.12000 3.093
53.28000 0.000
53.44000 2.063
53.60000 3.060
53.76000 1.074
53.92000 2.987
54.08000 2.024
54.24000 1.973
54.40000 2.019
54.56000 2.970
54.72000 4.077
54.88000 2.975
55.04000 1.021
55.20000 5.014
55.36000 5.084
55.52000 0.000
55.68000 2.049
55.84000 2.016
56.00000 3.007
56.16000 2.004
56.32000 6.029
56.48000 1.978
56.64000 2.014
56.80000 0.000
56.96000 0.000
57.12000 2.026
57.28000 3.123
57.44000 0.000
57.60000 0.000
57.76000 0.987
57.92000 0.000
58.08000 2.042
58.24000 5.020
58.40000 2.982
58.56000 3.000
58.72000 0.000
58.88000 3.074
59.04000 5.095
59.20000 1.036
59.36000 1.016
59.52000 1.994
59.68000 0.000
59.84000 3.071
60.00000 1.983
60.16000 0.000
60.32000 0.990
60.48000 2.045
60.64000 0.000
60.80000 2.060
60.96000 4.097
61.12000 1.038
61.28000 0.991
61.44000 1.997
61.60000 2.048
61.76000 4.967
61.92000 1.017
62.08000 0.990
62.24000 2.955
62.40000 1.021
62.56000 0.000
62.72000 0.000
62.88000 1.988
63.04000 1.055
63.20000 0.997
63.36000 0.997
63.52000 5.058
63.68000 3.048
63.84000 2.986
64.00000 0.999
64.16000 1.033
64.32000 0.983
64.48000 1.015
64.64000 1.010
64.80000 3.041
64.96000 1.023
65.00000 1.999