File: XRD/XRD/11-09-2025/XY Data/01092025_BTO_omega_0_5_001_06_-11-138_5-675.xy
20.00000 19.364
20.16000 19.137
20.32000 15.274
20.48000 20.255
20.64000 14.310
20.80000 12.044
20.96000 19.147
21.12000 26.177
21.28000 18.040
21.44000 27.480
21.60000 24.228
21.76000 27.216
21.92000 28.233
22.08000 27.325
22.24000 20.198
22.40000 31.388
22.56000 30.484
22.72000 23.330
22.88000 25.437
23.04000 20.153
23.20000 28.440
23.36000 20.409
23.52000 34.332
23.68000 41.631
23.84000 18.400
24.00000 25.386
24.16000 37.297
24.32000 23.139
24.48000 27.251
24.64000 35.159
24.80000 48.318
24.96000 21.293
25.12000 47.703
25.28000 43.571
25.44000 42.228
25.60000 48.665
25.76000 37.508
25.92000 46.686
26.08000 48.582
26.24000 37.484
26.40000 59.837
26.56000 52.796
26.72000 67.993
26.88000 55.671
27.04000 57.776
27.20000 55.617
27.36000 65.076
27.52000 54.944
27.68000 58.735
27.84000 66.918
28.00000 66.474
28.16000 60.805
28.32000 54.680
28.48000 57.063
28.64000 48.611
28.80000 55.446
28.96000 52.898
29.12000 68.695
29.28000 42.595
29.44000 42.327
29.60000 57.007
29.76000 50.063
29.92000 41.892
30.08000 37.641
30.24000 34.412
30.40000 42.319
30.56000 36.394
30.72000 37.567
30.88000 41.557
31.04000 33.349
31.20000 29.450
31.36000 40.664
31.52000 28.430
31.68000 25.081
31.84000 28.735
32.00000 26.527
32.16000 25.179
32.32000 28.563
32.48000 28.067
32.64000 21.349
32.80000 24.264
32.96000 20.166
33.12000 22.150
33.28000 19.161
33.44000 28.148
33.60000 32.532
33.76000 21.314
33.92000 26.237
34.08000 16.210
34.24000 25.430
34.40000 21.341
34.56000 18.159
34.72000 19.316
34.88000 25.155
35.04000 14.093
35.20000 15.039
35.36000 16.218
35.52000 16.122
35.68000 20.237
35.84000 18.248
36.00000 18.142
36.16000 14.250
36.32000 19.163
36.48000 16.190
36.64000 18.317
36.80000 28.393
36.96000 11.013
37.12000 19.164
37.28000 21.292
37.44000 19.060
37.60000 24.473
37.76000 28.318
37.92000 18.163
38.08000 26.316
38.24000 30.559
38.40000 29.411
38.56000 29.361
38.72000 19.329
38.88000 22.101
39.04000 24.460
39.20000 27.276
39.36000 23.022
39.52000 28.435
39.68000 18.393
39.84000 20.206
40.00000 19.283
40.16000 21.405
40.32000 16.213
40.48000 24.185
40.64000 24.518
40.80000 25.204
40.96000 17.127
41.12000 25.296
41.28000 28.284
41.44000 14.073
41.60000 19.322
41.76000 26.042
41.92000 24.502
42.08000 19.958
42.24000 19.090
42.40000 21.246
42.56000 16.163
42.72000 19.494
42.88000 24.341
43.04000 20.281
43.20000 21.284
43.36000 18.286
43.52000 15.216
43.68000 25.466
43.84000 19.350
44.00000 19.108
44.16000 29.340
44.32000 26.275
44.48000 25.448
44.64000 21.188
44.80000 25.288
44.96000 25.366
45.12000 16.143
45.28000 17.134
45.44000 22.102
45.60000 26.405
45.76000 26.447
45.92000 29.401
46.08000 28.509
46.24000 23.405
46.40000 26.468
46.56000 23.339
46.72000 13.190
46.88000 26.360
47.04000 19.207
47.20000 27.462
47.36000 16.432
47.52000 15.188
47.68000 22.213
47.84000 19.274
48.00000 24.581
48.16000 18.237
48.32000 15.234
48.48000 24.387
48.64000 21.239
48.80000 14.172
48.96000 20.970
49.12000 13.269
49.28000 20.314
49.44000 14.102
49.60000 14.112
49.76000 19.278
49.92000 16.257
50.08000 12.164
50.24000 26.446
50.40000 17.118
50.56000 18.194
50.72000 8.075
50.88000 14.156
51.04000 16.101
51.20000 12.065
51.36000 17.060
51.52000 11.162
51.68000 12.195
51.84000 17.202
52.00000 15.217
52.16000 9.135
52.32000 19.372
52.48000 18.155
52.64000 14.165
52.80000 12.175
52.96000 19.354
53.12000 12.148
53.28000 22.202
53.44000 19.112
53.60000 15.324
53.76000 12.151
53.92000 13.173
54.08000 14.225
54.24000 13.052
54.40000 7.172
54.56000 12.149
54.72000 13.288
54.88000 18.333
55.04000 10.145
55.20000 10.114
55.36000 19.276
55.52000 16.128
55.68000 9.186
55.84000 12.139
56.00000 10.229
56.16000 7.043
56.32000 13.223
56.48000 13.102
56.64000 10.154
56.80000 13.123
56.96000 10.144
57.12000 11.175
57.28000 11.991
57.44000 12.123
57.60000 10.162
57.76000 15.266
57.92000 10.137
58.08000 9.132
58.24000 13.254
58.40000 14.220
58.56000 13.338
58.72000 9.030
58.88000 9.135
59.04000 13.274
59.20000 11.099
59.36000 8.109
59.52000 13.964
59.68000 10.046
59.84000 8.123
60.00000 9.173
60.16000 12.076
60.32000 7.094
60.48000 8.997
60.64000 6.035
60.80000 7.005
60.96000 5.955
61.12000 6.114
61.28000 12.085
61.44000 11.184
61.60000 12.063
61.76000 11.190
61.92000 12.172
62.08000 14.267
62.24000 11.072
62.40000 6.042
62.56000 10.230
62.72000 10.117
62.88000 6.032
63.04000 7.130
63.20000 13.082
63.36000 5.957
63.52000 13.094
63.68000 10.021
63.84000 16.230
64.00000 10.096
64.16000 14.223
64.32000 9.195
64.48000 6.083
64.64000 7.103
64.80000 6.159
64.96000 10.033
65.00000 10.164