File: XRD/XRD/11-09-2025/XY Data/01092025_BTO_omega_1_001_47_-45-048_21-694.xy
20.00000 14.138
20.16000 13.134
20.32000 12.093
20.48000 15.291
20.64000 15.130
20.80000 9.072
20.96000 9.062
21.12000 8.087
21.28000 4.997
21.44000 7.059
21.60000 17.327
21.76000 7.975
21.92000 6.080
22.08000 11.158
22.24000 6.998
22.40000 15.295
22.56000 10.089
22.72000 4.972
22.88000 4.140
23.04000 8.065
23.20000 7.068
23.36000 11.089
23.52000 3.087
23.68000 6.108
23.84000 4.077
24.00000 5.088
24.16000 17.272
24.32000 7.996
24.48000 9.032
24.64000 9.160
24.80000 8.043
24.96000 2.041
25.12000 8.243
25.28000 11.027
25.44000 7.015
25.60000 10.014
25.76000 10.049
25.92000 9.139
26.08000 7.099
26.24000 11.150
26.40000 11.047
26.56000 7.177
26.72000 7.022
26.88000 6.116
27.04000 2.040
27.20000 8.097
27.36000 6.089
27.52000 4.020
27.68000 6.000
27.84000 7.133
28.00000 5.075
28.16000 11.358
28.32000 6.119
28.48000 3.043
28.64000 7.040
28.80000 5.144
28.96000 6.111
29.12000 4.086
29.28000 6.025
29.44000 5.958
29.60000 9.159
29.76000 5.183
29.92000 4.015
30.08000 5.092
30.24000 3.032
30.40000 2.054
30.56000 4.152
30.72000 7.133
30.88000 6.145
31.04000 1.038
31.20000 5.025
31.36000 6.082
31.52000 0.986
31.68000 2.976
31.84000 5.152
32.00000 4.074
32.16000 3.003
32.32000 4.158
32.48000 6.212
32.64000 6.057
32.80000 4.068
32.96000 5.104
33.12000 3.024
33.28000 1.973
33.44000 5.023
33.60000 6.004
33.76000 3.062
33.92000 1.008
34.08000 6.185
34.24000 7.257
34.40000 5.980
34.56000 3.001
34.72000 4.028
34.88000 4.034
35.04000 1.026
35.20000 2.030
35.36000 6.131
35.52000 5.005
35.68000 7.077
35.84000 3.043
36.00000 6.127
36.16000 7.046
36.32000 5.011
36.48000 2.029
36.64000 4.028
36.80000 0.000
36.96000 4.067
37.12000 3.057
37.28000 2.049
37.44000 2.038
37.60000 3.078
37.76000 1.030
37.92000 3.043
38.08000 7.073
38.24000 1.025
38.40000 3.073
38.56000 6.054
38.72000 2.031
38.88000 3.042
39.04000 4.062
39.20000 0.982
39.36000 2.075
39.52000 2.011
39.68000 0.000
39.84000 3.971
40.00000 3.024
40.16000 3.031
40.32000 3.034
40.48000 3.034
40.64000 1.023
40.80000 7.179
40.96000 3.133
41.12000 4.069
41.28000 4.114
41.44000 3.126
41.60000 1.019
41.76000 3.027
41.92000 2.022
42.08000 2.040
42.24000 3.023
42.40000 4.132
42.56000 6.105
42.72000 3.025
42.88000 1.045
43.04000 4.007
43.20000 5.084
43.36000 2.030
43.52000 2.071
43.68000 3.050
43.84000 2.994
44.00000 6.138
44.16000 3.039
44.32000 1.032
44.48000 3.964
44.64000 5.136
44.80000 0.000
44.96000 3.009
45.12000 3.018
45.28000 0.992
45.44000 5.060
45.60000 0.977
45.76000 4.073
45.92000 0.000
46.08000 2.996
46.24000 3.048
46.40000 1.063
46.56000 2.991
46.72000 0.000
46.88000 4.079
47.04000 2.045
47.20000 0.000
47.36000 3.006
47.52000 2.000
47.68000 4.016
47.84000 4.022
48.00000 0.000
48.16000 0.000
48.32000 1.039
48.48000 0.000
48.64000 3.935
48.80000 2.029
48.96000 1.018
49.12000 1.051
49.28000 0.986
49.44000 0.000
49.60000 3.072
49.76000 5.072
49.92000 3.145
50.08000 4.112
50.24000 3.069
50.40000 4.026
50.56000 3.047
50.72000 5.013
50.88000 2.007
51.04000 5.130
51.20000 4.043
51.36000 6.008
51.52000 4.111
51.68000 4.022
51.84000 5.003
52.00000 3.987
52.16000 1.001
52.32000 8.921
52.48000 2.004
52.64000 1.996
52.80000 0.000
52.96000 4.073
53.12000 4.026
53.28000 8.169
53.44000 3.016
53.60000 5.084
53.76000 1.035
53.92000 1.990
54.08000 1.001
54.24000 4.049
54.40000 0.000
54.56000 6.046
54.72000 5.109
54.88000 6.073
55.04000 5.036
55.20000 8.099
55.36000 2.050
55.52000 1.025
55.68000 3.985
55.84000 1.010
56.00000 1.056
56.16000 6.080
56.32000 1.969
56.48000 5.012
56.64000 1.017
56.80000 2.039
56.96000 4.033
57.12000 4.059
57.28000 1.055
57.44000 2.969
57.60000 1.026
57.76000 1.004
57.92000 2.002
58.08000 2.995
58.24000 3.069
58.40000 1.992
58.56000 5.047
58.72000 5.145
58.88000 1.021
59.04000 0.995
59.20000 3.028
59.36000 2.035
59.52000 3.017
59.68000 3.047
59.84000 1.048
60.00000 2.008
60.16000 3.103
60.32000 3.023
60.48000 3.028
60.64000 2.004
60.80000 0.000
60.96000 3.129
61.12000 4.119
61.28000 1.022
61.44000 4.048
61.60000 4.025
61.76000 0.000
61.92000 2.071
62.08000 3.041
62.24000 0.000
62.40000 2.078
62.56000 3.003
62.72000 4.963
62.88000 1.016
63.04000 0.000
63.20000 1.055
63.36000 2.031
63.52000 1.013
63.68000 0.000
63.84000 2.021
64.00000 0.000
64.16000 1.019
64.32000 2.006
64.48000 3.006
64.64000 2.070
64.80000 1.970
64.96000 2.053
65.00000 3.017