File: XRD/XRD/11-09-2025/XY Data/01092025_BTO_omega_1_001_20_-22-524_-10-847.xy
20.00000 12.237
20.16000 13.270
20.32000 11.183
20.48000 21.097
20.64000 22.400
20.80000 13.118
20.96000 14.449
21.12000 17.189
21.28000 21.200
21.44000 18.303
21.60000 10.085
21.76000 17.356
21.92000 15.201
22.08000 11.257
22.24000 11.242
22.40000 9.137
22.56000 24.325
22.72000 12.206
22.88000 20.318
23.04000 14.291
23.20000 11.122
23.36000 18.076
23.52000 9.149
23.68000 15.216
23.84000 14.164
24.00000 18.143
24.16000 16.164
24.32000 6.053
24.48000 11.204
24.64000 15.345
24.80000 14.114
24.96000 8.134
25.12000 10.167
25.28000 9.097
25.44000 9.187
25.60000 6.092
25.76000 10.044
25.92000 12.209
26.08000 13.176
26.24000 18.369
26.40000 9.051
26.56000 7.082
26.72000 13.018
26.88000 10.139
27.04000 14.152
27.20000 11.154
27.36000 4.029
27.52000 7.135
27.68000 6.999
27.84000 4.096
28.00000 8.082
28.16000 9.065
28.32000 12.279
28.48000 13.062
28.64000 13.187
28.80000 8.108
28.96000 12.043
29.12000 8.140
29.28000 3.981
29.44000 13.073
29.60000 11.100
29.76000 9.157
29.92000 11.247
30.08000 9.133
30.24000 11.127
30.40000 5.031
30.56000 7.168
30.72000 5.012
30.88000 7.212
31.04000 8.058
31.20000 4.020
31.36000 8.252
31.52000 5.110
31.68000 9.126
31.84000 5.119
32.00000 5.036
32.16000 6.045
32.32000 8.020
32.48000 5.191
32.64000 10.170
32.80000 6.067
32.96000 6.021
33.12000 8.985
33.28000 4.033
33.44000 7.014
33.60000 7.017
33.76000 2.027
33.92000 9.165
34.08000 10.247
34.24000 6.120
34.40000 2.011
34.56000 4.038
34.72000 3.046
34.88000 3.041
35.04000 6.045
35.20000 5.941
35.36000 3.037
35.52000 4.090
35.68000 3.103
35.84000 7.044
36.00000 8.141
36.16000 4.110
36.32000 2.032
36.48000 5.033
36.64000 1.992
36.80000 3.085
36.96000 6.092
37.12000 2.002
37.28000 5.113
37.44000 5.073
37.60000 3.125
37.76000 4.062
37.92000 1.042
38.08000 6.085
38.24000 4.079
38.40000 2.054
38.56000 3.007
38.72000 5.088
38.88000 4.142
39.04000 5.021
39.20000 13.196
39.36000 5.071
39.52000 5.048
39.68000 2.053
39.84000 7.887
40.00000 6.158
40.16000 3.077
40.32000 3.047
40.48000 3.009
40.64000 2.995
40.80000 2.003
40.96000 5.052
41.12000 6.058
41.28000 8.093
41.44000 3.074
41.60000 2.035
41.76000 4.106
41.92000 5.069
42.08000 4.115
42.24000 9.241
42.40000 4.060
42.56000 6.065
42.72000 4.073
42.88000 4.010
43.04000 3.120
43.20000 0.000
43.36000 6.044
43.52000 0.000
43.68000 6.028
43.84000 0.000
44.00000 3.019
44.16000 3.004
44.32000 3.076
44.48000 9.065
44.64000 0.998
44.80000 2.046
44.96000 2.018
45.12000 3.993
45.28000 5.029
45.44000 0.999
45.60000 0.999
45.76000 3.036
45.92000 1.013
46.08000 1.029
46.24000 4.001
46.40000 7.061
46.56000 4.076
46.72000 0.000
46.88000 3.058
47.04000 3.094
47.20000 3.080
47.36000 1.027
47.52000 2.032
47.68000 2.011
47.84000 0.982
48.00000 3.092
48.16000 0.998
48.32000 2.046
48.48000 0.000
48.64000 4.019
48.80000 3.976
48.96000 2.086
49.12000 1.985
49.28000 5.058
49.44000 2.022
49.60000 1.014
49.76000 0.993
49.92000 2.062
50.08000 0.000
50.24000 0.979
50.40000 3.036
50.56000 3.995
50.72000 1.981
50.88000 2.035
51.04000 1.968
51.20000 5.154
51.36000 4.021
51.52000 1.009
51.68000 2.111
51.84000 1.040
52.00000 3.077
52.16000 1.026
52.32000 2.990
52.48000 3.071
52.64000 0.000
52.80000 0.000
52.96000 0.000
53.12000 1.976
53.28000 0.000
53.44000 0.000
53.60000 3.956
53.76000 3.063
53.92000 0.000
54.08000 1.987
54.24000 0.000
54.40000 0.000
54.56000 3.038
54.72000 2.969
54.88000 4.052
55.04000 3.981
55.20000 1.020
55.36000 2.007
55.52000 2.037
55.68000 5.100
55.84000 0.995
56.00000 0.978
56.16000 1.063
56.32000 2.987
56.48000 1.004
56.64000 1.976
56.80000 1.009
56.96000 1.007
57.12000 6.049
57.28000 1.048
57.44000 0.000
57.60000 1.993
57.76000 1.995
57.92000 3.045
58.08000 2.041
58.24000 0.000
58.40000 1.015
58.56000 0.992
58.72000 0.000
58.88000 2.944
59.04000 2.019
59.20000 1.977
59.36000 0.000
59.52000 2.027
59.68000 1.015
59.84000 1.986
60.00000 3.013
60.16000 2.013
60.32000 0.979
60.48000 5.042
60.64000 3.031
60.80000 1.000
60.96000 1.007
61.12000 0.000
61.28000 1.993
61.44000 2.011
61.60000 1.016
61.76000 5.062
61.92000 1.024
62.08000 0.000
62.24000 4.085
62.40000 0.994
62.56000 3.010
62.72000 2.139
62.88000 2.041
63.04000 1.965
63.20000 0.000
63.36000 2.078
63.52000 1.029
63.68000 0.000
63.84000 3.066
64.00000 0.000
64.16000 1.026
64.32000 4.054
64.48000 1.003
64.64000 1.001
64.80000 2.970
64.96000 3.039
65.00000 3.039