File: XRD/XRD/11-09-2025/XY Data/01092025_BTO_omega_1_001_37_7-794_9-773.xy
20.00000 15.118
20.16000 18.425
20.32000 13.022
20.48000 24.093
20.64000 20.459
20.80000 10.260
20.96000 17.206
21.12000 24.082
21.28000 21.216
21.44000 22.263
21.60000 29.563
21.76000 26.273
21.92000 20.352
22.08000 17.027
22.24000 26.425
22.40000 23.218
22.56000 22.317
22.72000 16.135
22.88000 13.123
23.04000 24.131
23.20000 19.155
23.36000 19.155
23.52000 29.435
23.68000 29.498
23.84000 27.440
24.00000 28.348
24.16000 21.301
24.32000 28.483
24.48000 22.161
24.64000 22.185
24.80000 26.278
24.96000 32.307
25.12000 38.283
25.28000 30.321
25.44000 41.576
25.60000 31.341
25.76000 39.568
25.92000 45.447
26.08000 33.501
26.24000 48.552
26.40000 41.439
26.56000 41.577
26.72000 48.710
26.88000 51.061
27.04000 59.540
27.20000 39.578
27.36000 47.548
27.52000 49.654
27.68000 50.451
27.84000 39.426
28.00000 52.675
28.16000 53.715
28.32000 43.546
28.48000 44.592
28.64000 47.223
28.80000 39.359
28.96000 36.406
29.12000 41.523
29.28000 35.433
29.44000 45.624
29.60000 50.743
29.76000 31.522
29.92000 40.755
30.08000 34.323
30.24000 40.635
30.40000 49.848
30.56000 27.162
30.72000 28.198
30.88000 24.362
31.04000 31.403
31.20000 21.220
31.36000 28.388
31.52000 20.167
31.68000 28.439
31.84000 25.378
32.00000 19.517
32.16000 28.390
32.32000 23.256
32.48000 26.211
32.64000 22.066
32.80000 19.112
32.96000 23.403
33.12000 24.272
33.28000 20.096
33.44000 7.237
33.60000 12.093
33.76000 14.215
33.92000 13.159
34.08000 9.105
34.24000 16.249
34.40000 18.282
34.56000 17.195
34.72000 22.195
34.88000 13.027
35.04000 17.177
35.20000 13.202
35.36000 15.218
35.52000 18.189
35.68000 20.395
35.84000 22.381
36.00000 14.167
36.16000 8.153
36.32000 18.070
36.48000 21.283
36.64000 20.274
36.80000 18.249
36.96000 26.276
37.12000 11.307
37.28000 18.246
37.44000 9.117
37.60000 19.206
37.76000 13.186
37.92000 16.184
38.08000 19.249
38.24000 13.007
38.40000 15.272
38.56000 17.134
38.72000 16.157
38.88000 18.269
39.04000 14.070
39.20000 11.112
39.36000 14.089
39.52000 19.105
39.68000 15.240
39.84000 23.397
40.00000 14.353
40.16000 21.422
40.32000 16.973
40.48000 15.985
40.64000 29.475
40.80000 24.308
40.96000 22.394
41.12000 23.329
41.28000 15.315
41.44000 20.144
41.60000 11.233
41.76000 23.200
41.92000 22.509
42.08000 12.248
42.24000 27.363
42.40000 12.013
42.56000 19.120
42.72000 25.246
42.88000 13.153
43.04000 26.394
43.20000 24.262
43.36000 16.272
43.52000 22.289
43.68000 14.089
43.84000 17.310
44.00000 14.279
44.16000 22.109
44.32000 13.147
44.48000 18.419
44.64000 20.312
44.80000 15.285
44.96000 14.200
45.12000 13.165
45.28000 15.983
45.44000 20.242
45.60000 25.291
45.76000 17.118
45.92000 18.030
46.08000 24.345
46.24000 24.179
46.40000 16.208
46.56000 16.139
46.72000 10.127
46.88000 22.486
47.04000 18.166
47.20000 11.236
47.36000 21.317
47.52000 15.216
47.68000 12.252
47.84000 13.103
48.00000 24.312
48.16000 9.204
48.32000 18.070
48.48000 13.127
48.64000 17.437
48.80000 18.378
48.96000 23.420
49.12000 18.440
49.28000 11.307
49.44000 17.140
49.60000 19.175
49.76000 17.189
49.92000 23.232
50.08000 16.333
50.24000 16.165
50.40000 20.255
50.56000 20.058
50.72000 13.955
50.88000 15.219
51.04000 17.212
51.20000 13.036
51.36000 16.337
51.52000 15.226
51.68000 13.180
51.84000 13.207
52.00000 17.328
52.16000 8.117
52.32000 11.069
52.48000 17.236
52.64000 18.270
52.80000 17.182
52.96000 14.311
53.12000 16.256
53.28000 14.046
53.44000 22.386
53.60000 20.337
53.76000 17.304
53.92000 10.165
54.08000 13.123
54.24000 14.221
54.40000 14.216
54.56000 10.005
54.72000 22.317
54.88000 11.238
55.04000 10.110
55.20000 10.015
55.36000 8.994
55.52000 12.187
55.68000 16.280
55.84000 13.210
56.00000 10.253
56.16000 8.148
56.32000 11.170
56.48000 12.099
56.64000 19.145
56.80000 13.280
56.96000 18.169
57.12000 7.081
57.28000 16.235
57.44000 14.209
57.60000 15.127
57.76000 10.040
57.92000 17.313
58.08000 9.125
58.24000 10.170
58.40000 14.303
58.56000 12.210
58.72000 14.067
58.88000 14.288
59.04000 11.170
59.20000 8.058
59.36000 13.227
59.52000 12.086
59.68000 5.923
59.84000 9.152
60.00000 13.045
60.16000 8.143
60.32000 15.335
60.48000 9.127
60.64000 11.283
60.80000 12.200
60.96000 10.084
61.12000 8.980
61.28000 12.052
61.44000 7.129
61.60000 5.102
61.76000 9.113
61.92000 8.154
62.08000 9.165
62.24000 8.080
62.40000 10.985
62.56000 7.030
62.72000 20.211
62.88000 11.029
63.04000 7.106
63.20000 5.041
63.36000 9.180
63.52000 9.125
63.68000 7.075
63.84000 7.216
64.00000 10.187
64.16000 8.128
64.32000 12.270
64.48000 10.152
64.64000 8.110
64.80000 13.271
64.96000 7.006
65.00000 11.115