File: XRD/XRD/11-09-2025/XY Data/01092025_BTO_omega_1_001_09_-5-563_-24-373.xy
20.00000 174.584
20.16000 177.226
20.32000 155.112
20.48000 159.448
20.64000 156.494
20.80000 126.225
20.96000 125.119
21.12000 129.718
21.28000 121.363
21.44000 93.928
21.60000 88.103
21.76000 99.718
21.92000 86.815
22.08000 86.627
22.24000 74.744
22.40000 67.560
22.56000 68.746
22.72000 60.939
22.88000 54.870
23.04000 55.669
23.20000 47.670
23.36000 48.545
23.52000 44.519
23.68000 36.382
23.84000 37.161
24.00000 45.437
24.16000 30.243
24.32000 34.302
24.48000 36.443
24.64000 39.245
24.80000 22.334
24.96000 25.409
25.12000 26.369
25.28000 30.197
25.44000 19.178
25.60000 14.076
25.76000 16.135
25.92000 21.324
26.08000 14.040
26.24000 9.159
26.40000 19.189
26.56000 9.041
26.72000 16.166
26.88000 10.002
27.04000 16.260
27.20000 11.167
27.36000 18.237
27.52000 12.146
27.68000 14.196
27.84000 9.106
28.00000 8.163
28.16000 16.249
28.32000 9.053
28.48000 4.993
28.64000 9.987
28.80000 6.071
28.96000 9.285
29.12000 11.171
29.28000 10.206
29.44000 14.134
29.60000 11.199
29.76000 9.083
29.92000 12.172
30.08000 14.112
30.24000 16.470
30.40000 9.042
30.56000 9.025
30.72000 11.273
30.88000 7.115
31.04000 5.001
31.20000 9.098
31.36000 7.080
31.52000 15.119
31.68000 6.146
31.84000 12.058
32.00000 6.022
32.16000 9.097
32.32000 9.108
32.48000 5.091
32.64000 10.170
32.80000 8.037
32.96000 12.182
33.12000 11.092
33.28000 4.975
33.44000 9.119
33.60000 9.126
33.76000 11.243
33.92000 5.988
34.08000 4.048
34.24000 4.131
34.40000 6.060
34.56000 10.231
34.72000 12.016
34.88000 4.070
35.04000 9.254
35.20000 10.070
35.36000 8.089
35.52000 5.987
35.68000 2.053
35.84000 4.052
36.00000 6.186
36.16000 6.167
36.32000 7.103
36.48000 6.123
36.64000 6.161
36.80000 2.016
36.96000 5.101
37.12000 10.056
37.28000 2.058
37.44000 6.978
37.60000 5.018
37.76000 3.016
37.92000 10.258
38.08000 11.049
38.24000 3.016
38.40000 3.009
38.56000 6.177
38.72000 3.046
38.88000 6.037
39.04000 5.126
39.20000 5.102
39.36000 5.085
39.52000 2.033
39.68000 3.034
39.84000 4.994
40.00000 2.042
40.16000 7.032
40.32000 4.140
40.48000 7.008
40.64000 3.061
40.80000 5.172
40.96000 1.972
41.12000 5.093
41.28000 4.953
41.44000 3.041
41.60000 1.993
41.76000 4.112
41.92000 2.086
42.08000 2.038
42.24000 3.017
42.40000 2.024
42.56000 6.068
42.72000 3.008
42.88000 6.100
43.04000 3.137
43.20000 1.017
43.36000 5.015
43.52000 5.067
43.68000 2.024
43.84000 2.023
44.00000 1.003
44.16000 1.949
44.32000 1.982
44.48000 4.125
44.64000 1.997
44.80000 4.067
44.96000 4.055
45.12000 2.050
45.28000 1.017
45.44000 3.991
45.60000 5.029
45.76000 2.047
45.92000 4.077
46.08000 2.018
46.24000 2.072
46.40000 2.001
46.56000 0.000
46.72000 0.983
46.88000 4.074
47.04000 5.067
47.20000 1.042
47.36000 3.031
47.52000 1.029
47.68000 4.172
47.84000 5.017
48.00000 3.970
48.16000 4.066
48.32000 1.037
48.48000 0.974
48.64000 4.042
48.80000 3.048
48.96000 6.106
49.12000 1.015
49.28000 6.086
49.44000 2.012
49.60000 6.225
49.76000 3.093
49.92000 2.022
50.08000 3.050
50.24000 1.014
50.40000 4.050
50.56000 3.003
50.72000 2.029
50.88000 2.085
51.04000 5.018
51.20000 0.000
51.36000 4.099
51.52000 1.989
51.68000 1.003
51.84000 2.027
52.00000 2.992
52.16000 3.021
52.32000 2.078
52.48000 5.091
52.64000 1.977
52.80000 2.018
52.96000 2.053
53.12000 3.943
53.28000 4.007
53.44000 3.071
53.60000 1.031
53.76000 3.025
53.92000 1.947
54.08000 4.021
54.24000 0.000
54.40000 2.077
54.56000 1.979
54.72000 3.057
54.88000 1.027
55.04000 3.021
55.20000 2.018
55.36000 0.000
55.52000 5.013
55.68000 0.994
55.84000 3.071
56.00000 2.001
56.16000 7.152
56.32000 3.006
56.48000 3.027
56.64000 2.032
56.80000 3.034
56.96000 1.067
57.12000 2.012
57.28000 1.025
57.44000 5.118
57.60000 3.010
57.76000 2.983
57.92000 5.112
58.08000 3.014
58.24000 7.054
58.40000 0.989
58.56000 0.993
58.72000 0.977
58.88000 3.068
59.04000 3.052
59.20000 3.025
59.36000 1.991
59.52000 1.010
59.68000 2.031
59.84000 1.045
60.00000 1.993
60.16000 3.054
60.32000 1.023
60.48000 1.005
60.64000 1.981
60.80000 4.029
60.96000 0.997
61.12000 4.100
61.28000 5.097
61.44000 4.057
61.60000 0.000
61.76000 0.993
61.92000 4.091
62.08000 2.036
62.24000 2.008
62.40000 4.055
62.56000 0.000
62.72000 3.078
62.88000 0.987
63.04000 3.924
63.20000 2.008
63.36000 1.988
63.52000 1.044
63.68000 3.949
63.84000 2.015
64.00000 0.993
64.16000 0.000
64.32000 4.064
64.48000 3.027
64.64000 1.005
64.80000 1.012
64.96000 3.039
65.00000 1.046