File: XRD/XRD/11-09-2025/XY Data/01092025_BTO_omega_1_001_25_0-000_0-000.xy
20.00000 22.036
20.16000 15.116
20.32000 15.189
20.48000 24.106
20.64000 19.234
20.80000 28.465
20.96000 17.212
21.12000 17.267
21.28000 19.312
21.44000 15.261
21.60000 20.337
21.76000 18.128
21.92000 14.027
22.08000 25.246
22.24000 21.255
22.40000 20.337
22.56000 30.541
22.72000 14.245
22.88000 16.168
23.04000 17.069
23.20000 17.160
23.36000 21.121
23.52000 21.392
23.68000 21.394
23.84000 22.256
24.00000 22.304
24.16000 22.257
24.32000 25.344
24.48000 32.167
24.64000 22.301
24.80000 24.195
24.96000 23.216
25.12000 31.414
25.28000 42.560
25.44000 28.309
25.60000 23.267
25.76000 39.402
25.92000 24.413
26.08000 43.587
26.24000 40.784
26.40000 40.418
26.56000 32.371
26.72000 41.272
26.88000 48.429
27.04000 28.435
27.20000 36.520
27.36000 24.202
27.52000 37.346
27.68000 39.103
27.84000 25.467
28.00000 37.374
28.16000 35.606
28.32000 39.508
28.48000 41.501
28.64000 28.383
28.80000 33.543
28.96000 33.632
29.12000 34.353
29.28000 39.453
29.44000 25.427
29.60000 32.361
29.76000 26.370
29.92000 19.237
30.08000 29.303
30.24000 30.344
30.40000 26.523
30.56000 22.427
30.72000 22.441
30.88000 20.091
31.04000 14.236
31.20000 20.309
31.36000 17.287
31.52000 21.354
31.68000 22.230
31.84000 25.439
32.00000 10.122
32.16000 24.185
32.32000 16.289
32.48000 29.592
32.64000 22.278
32.80000 15.215
32.96000 14.063
33.12000 13.205
33.28000 8.127
33.44000 16.132
33.60000 15.921
33.76000 13.065
33.92000 14.170
34.08000 17.166
34.24000 9.050
34.40000 13.125
34.56000 12.361
34.72000 12.214
34.88000 12.183
35.04000 16.055
35.20000 13.131
35.36000 12.182
35.52000 15.215
35.68000 12.194
35.84000 15.348
36.00000 19.280
36.16000 13.139
36.32000 14.192
36.48000 14.159
36.64000 12.200
36.80000 10.255
36.96000 12.229
37.12000 18.345
37.28000 21.323
37.44000 5.107
37.60000 19.067
37.76000 11.901
37.92000 16.234
38.08000 14.293
38.24000 16.313
38.40000 15.297
38.56000 9.105
38.72000 11.227
38.88000 10.207
39.04000 14.125
39.20000 12.126
39.36000 20.395
39.52000 12.242
39.68000 9.130
39.84000 14.154
40.00000 15.128
40.16000 22.180
40.32000 15.068
40.48000 18.172
40.64000 7.145
40.80000 17.316
40.96000 10.274
41.12000 18.214
41.28000 12.189
41.44000 18.318
41.60000 16.519
41.76000 13.070
41.92000 20.305
42.08000 13.173
42.24000 14.270
42.40000 20.366
42.56000 16.330
42.72000 19.333
42.88000 21.384
43.04000 20.167
43.20000 7.038
43.36000 19.369
43.52000 15.179
43.68000 11.960
43.84000 19.335
44.00000 12.130
44.16000 10.116
44.32000 15.210
44.48000 16.191
44.64000 12.258
44.80000 16.113
44.96000 18.203
45.12000 17.159
45.28000 18.113
45.44000 10.287
45.60000 16.135
45.76000 21.267
45.92000 12.253
46.08000 21.180
46.24000 17.186
46.40000 17.287
46.56000 17.235
46.72000 16.171
46.88000 17.132
47.04000 17.171
47.20000 10.134
47.36000 13.085
47.52000 16.300
47.68000 9.170
47.84000 17.162
48.00000 12.152
48.16000 18.237
48.32000 6.964
48.48000 9.089
48.64000 20.261
48.80000 8.198
48.96000 13.157
49.12000 17.221
49.28000 10.156
49.44000 16.347
49.60000 15.095
49.76000 12.159
49.92000 9.175
50.08000 7.106
50.24000 11.198
50.40000 7.147
50.56000 11.272
50.72000 10.044
50.88000 13.225
51.04000 15.136
51.20000 17.188
51.36000 12.160
51.52000 7.040
51.68000 10.035
51.84000 16.185
52.00000 7.112
52.16000 16.168
52.32000 8.180
52.48000 11.179
52.64000 11.283
52.80000 9.287
52.96000 12.220
53.12000 16.221
53.28000 7.198
53.44000 15.147
53.60000 12.250
53.76000 18.200
53.92000 9.027
54.08000 15.986
54.24000 8.112
54.40000 13.254
54.56000 4.104
54.72000 9.147
54.88000 8.216
55.04000 12.105
55.20000 6.097
55.36000 11.115
55.52000 6.122
55.68000 10.071
55.84000 5.061
56.00000 16.547
56.16000 11.085
56.32000 13.083
56.48000 13.136
56.64000 15.224
56.80000 9.200
56.96000 5.014
57.12000 9.142
57.28000 8.090
57.44000 13.184
57.60000 11.188
57.76000 10.278
57.92000 9.254
58.08000 8.095
58.24000 5.094
58.40000 6.108
58.56000 7.060
58.72000 12.073
58.88000 8.043
59.04000 8.083
59.20000 8.066
59.36000 10.040
59.52000 9.133
59.68000 8.015
59.84000 14.279
60.00000 7.231
60.16000 11.144
60.32000 12.122
60.48000 6.085
60.64000 9.020
60.80000 7.054
60.96000 9.175
61.12000 4.102
61.28000 3.062
61.44000 11.254
61.60000 5.104
61.76000 6.126
61.92000 4.084
62.08000 7.095
62.24000 12.123
62.40000 9.122
62.56000 5.119
62.72000 8.164
62.88000 8.079
63.04000 8.093
63.20000 7.084
63.36000 3.997
63.52000 6.089
63.68000 12.261
63.84000 6.104
64.00000 9.166
64.16000 10.924
64.32000 4.034
64.48000 10.197
64.64000 5.035
64.80000 5.082
64.96000 4.059
65.00000 9.060