File: XRD/XRD/11-09-2025/XY Data/01092025_BTO_omega_1_001_38_22-524_10-847.xy
20.00000 15.142
20.16000 19.204
20.32000 22.372
20.48000 20.249
20.64000 23.359
20.80000 15.323
20.96000 20.183
21.12000 16.141
21.28000 27.180
21.44000 21.423
21.60000 13.188
21.76000 19.353
21.92000 13.203
22.08000 17.216
22.24000 24.224
22.40000 23.224
22.56000 28.415
22.72000 19.140
22.88000 18.206
23.04000 25.280
23.20000 22.343
23.36000 26.108
23.52000 26.266
23.68000 24.560
23.84000 28.487
24.00000 24.247
24.16000 18.104
24.32000 30.549
24.48000 31.363
24.64000 32.462
24.80000 31.377
24.96000 28.338
25.12000 36.581
25.28000 35.489
25.44000 56.818
25.60000 37.279
25.76000 38.721
25.92000 36.684
26.08000 46.715
26.24000 43.539
26.40000 46.573
26.56000 40.841
26.72000 53.581
26.88000 36.437
27.04000 65.775
27.20000 46.379
27.36000 51.047
27.52000 51.737
27.68000 43.585
27.84000 57.605
28.00000 50.561
28.16000 56.631
28.32000 47.645
28.48000 42.362
28.64000 60.810
28.80000 54.653
28.96000 37.565
29.12000 42.588
29.28000 45.631
29.44000 52.681
29.60000 41.571
29.76000 33.601
29.92000 33.474
30.08000 32.331
30.24000 37.817
30.40000 28.427
30.56000 33.219
30.72000 34.516
30.88000 27.247
31.04000 25.424
31.20000 27.309
31.36000 17.282
31.52000 20.218
31.68000 37.463
31.84000 23.329
32.00000 23.308
32.16000 37.746
32.32000 24.165
32.48000 26.259
32.64000 17.209
32.80000 29.364
32.96000 12.123
33.12000 23.338
33.28000 18.344
33.44000 25.162
33.60000 18.128
33.76000 24.303
33.92000 10.161
34.08000 12.048
34.24000 16.133
34.40000 11.173
34.56000 14.089
34.72000 19.281
34.88000 25.390
35.04000 21.259
35.20000 18.253
35.36000 15.155
35.52000 10.166
35.68000 12.094
35.84000 15.204
36.00000 16.159
36.16000 19.314
36.32000 9.272
36.48000 17.310
36.64000 11.232
36.80000 13.284
36.96000 14.272
37.12000 18.227
37.28000 18.204
37.44000 17.120
37.60000 17.222
37.76000 15.056
37.92000 21.207
38.08000 15.157
38.24000 18.186
38.40000 18.405
38.56000 18.274
38.72000 20.198
38.88000 21.385
39.04000 25.364
39.20000 18.070
39.36000 23.429
39.52000 16.302
39.68000 16.268
39.84000 19.180
40.00000 21.413
40.16000 27.354
40.32000 24.320
40.48000 16.244
40.64000 22.345
40.80000 26.246
40.96000 9.166
41.12000 20.187
41.28000 22.514
41.44000 21.294
41.60000 14.039
41.76000 25.272
41.92000 31.474
42.08000 23.424
42.24000 18.197
42.40000 26.234
42.56000 23.089
42.72000 13.121
42.88000 13.147
43.04000 11.171
43.20000 19.059
43.36000 16.248
43.52000 10.313
43.68000 19.127
43.84000 19.020
44.00000 20.348
44.16000 26.363
44.32000 29.290
44.48000 9.133
44.64000 17.222
44.80000 27.622
44.96000 23.237
45.12000 16.058
45.28000 19.073
45.44000 17.137
45.60000 16.397
45.76000 21.232
45.92000 24.360
46.08000 26.394
46.24000 23.427
46.40000 19.112
46.56000 18.156
46.72000 22.422
46.88000 12.255
47.04000 23.225
47.20000 26.453
47.36000 21.360
47.52000 17.227
47.68000 16.362
47.84000 23.183
48.00000 22.077
48.16000 17.181
48.32000 18.160
48.48000 15.227
48.64000 11.152
48.80000 32.445
48.96000 21.369
49.12000 12.086
49.28000 11.097
49.44000 18.192
49.60000 17.239
49.76000 10.086
49.92000 22.439
50.08000 27.235
50.24000 17.258
50.40000 24.149
50.56000 16.130
50.72000 11.163
50.88000 20.218
51.04000 15.304
51.20000 15.205
51.36000 14.233
51.52000 14.329
51.68000 16.275
51.84000 20.416
52.00000 7.979
52.16000 22.252
52.32000 15.150
52.48000 12.144
52.64000 22.236
52.80000 15.254
52.96000 10.105
53.12000 17.184
53.28000 18.304
53.44000 13.303
53.60000 15.260
53.76000 14.288
53.92000 13.094
54.08000 15.108
54.24000 14.296
54.40000 11.106
54.56000 14.293
54.72000 9.129
54.88000 9.054
55.04000 12.161
55.20000 9.118
55.36000 7.094
55.52000 11.326
55.68000 15.151
55.84000 15.069
56.00000 12.176
56.16000 9.187
56.32000 19.310
56.48000 14.372
56.64000 13.160
56.80000 16.250
56.96000 14.303
57.12000 19.069
57.28000 13.199
57.44000 9.017
57.60000 17.246
57.76000 6.113
57.92000 8.987
58.08000 13.128
58.24000 15.268
58.40000 8.125
58.56000 13.094
58.72000 13.340
58.88000 6.022
59.04000 12.143
59.20000 15.006
59.36000 9.110
59.52000 11.107
59.68000 12.258
59.84000 17.182
60.00000 10.184
60.16000 15.204
60.32000 9.080
60.48000 11.152
60.64000 7.883
60.80000 8.141
60.96000 10.098
61.12000 9.087
61.28000 8.068
61.44000 11.988
61.60000 11.134
61.76000 10.157
61.92000 9.167
62.08000 8.053
62.24000 10.229
62.40000 8.113
62.56000 8.090
62.72000 9.207
62.88000 7.015
63.04000 10.108
63.20000 8.021
63.36000 14.124
63.52000 12.090
63.68000 13.291
63.84000 8.055
64.00000 11.240
64.16000 13.161
64.32000 11.185
64.48000 18.269
64.64000 7.022
64.80000 6.108
64.96000 9.041
65.00000 10.080