File: XRD/XRD/11-09-2025/XY Data/01092025_BTO_omega_0_5_001_23_8-345_36-560.xy
20.00000 15.061
20.16000 22.348
20.32000 15.172
20.48000 21.415
20.64000 17.470
20.80000 11.067
20.96000 30.427
21.12000 23.314
21.28000 12.098
21.44000 19.185
21.60000 24.325
21.76000 15.304
21.92000 21.269
22.08000 14.444
22.24000 22.412
22.40000 21.247
22.56000 25.205
22.72000 26.345
22.88000 25.363
23.04000 18.349
23.20000 26.392
23.36000 35.536
23.52000 26.258
23.68000 34.420
23.84000 21.433
24.00000 29.500
24.16000 40.783
24.32000 32.416
24.48000 40.662
24.64000 35.481
24.80000 28.242
24.96000 42.454
25.12000 40.454
25.28000 46.720
25.44000 35.599
25.60000 45.668
25.76000 46.693
25.92000 45.482
26.08000 51.654
26.24000 53.935
26.40000 53.655
26.56000 50.357
26.72000 66.193
26.88000 50.727
27.04000 60.587
27.20000 58.992
27.36000 57.087
27.52000 56.636
27.68000 57.818
27.84000 53.880
28.00000 57.692
28.16000 68.011
28.32000 60.839
28.48000 73.135
28.64000 66.687
28.80000 44.570
28.96000 62.984
29.12000 53.612
29.28000 61.098
29.44000 50.492
29.60000 50.345
29.76000 50.712
29.92000 36.500
30.08000 51.793
30.24000 46.930
30.40000 50.805
30.56000 42.295
30.72000 48.861
30.88000 35.040
31.04000 37.405
31.20000 29.338
31.36000 26.164
31.52000 19.381
31.68000 30.428
31.84000 23.475
32.00000 23.275
32.16000 39.884
32.32000 26.282
32.48000 24.328
32.64000 33.633
32.80000 19.279
32.96000 20.183
33.12000 28.336
33.28000 25.185
33.44000 12.999
33.60000 14.025
33.76000 21.253
33.92000 24.260
34.08000 18.284
34.24000 16.122
34.40000 14.156
34.56000 17.142
34.72000 13.952
34.88000 17.073
35.04000 23.466
35.20000 21.380
35.36000 23.296
35.52000 19.260
35.68000 20.309
35.84000 19.312
36.00000 14.254
36.16000 18.228
36.32000 18.101
36.48000 21.204
36.64000 17.324
36.80000 14.218
36.96000 25.240
37.12000 18.233
37.28000 16.312
37.44000 19.410
37.60000 21.303
37.76000 23.468
37.92000 20.180
38.08000 15.136
38.24000 15.202
38.40000 16.263
38.56000 22.167
38.72000 19.243
38.88000 20.297
39.04000 27.608
39.20000 13.276
39.36000 23.433
39.52000 28.235
39.68000 19.289
39.84000 18.392
40.00000 26.273
40.16000 20.104
40.32000 19.064
40.48000 19.296
40.64000 17.169
40.80000 19.290
40.96000 20.239
41.12000 21.219
41.28000 24.311
41.44000 19.345
41.60000 16.261
41.76000 23.359
41.92000 30.666
42.08000 29.273
42.24000 18.268
42.40000 20.053
42.56000 31.649
42.72000 28.183
42.88000 20.375
43.04000 29.186
43.20000 25.337
43.36000 18.079
43.52000 24.349
43.68000 28.312
43.84000 25.255
44.00000 24.292
44.16000 24.420
44.32000 26.315
44.48000 18.254
44.64000 27.512
44.80000 25.279
44.96000 17.153
45.12000 25.333
45.28000 22.566
45.44000 20.398
45.60000 23.346
45.76000 22.335
45.92000 27.261
46.08000 27.262
46.24000 21.359
46.40000 18.308
46.56000 27.238
46.72000 24.306
46.88000 17.308
47.04000 26.572
47.20000 13.134
47.36000 17.352
47.52000 21.218
47.68000 19.971
47.84000 18.401
48.00000 21.306
48.16000 17.192
48.32000 18.416
48.48000 18.350
48.64000 26.183
48.80000 15.283
48.96000 23.361
49.12000 17.253
49.28000 24.259
49.44000 20.274
49.60000 8.135
49.76000 16.196
49.92000 18.316
50.08000 19.353
50.24000 11.274
50.40000 16.402
50.56000 18.050
50.72000 18.197
50.88000 24.368
51.04000 15.061
51.20000 25.414
51.36000 14.275
51.52000 12.163
51.68000 16.124
51.84000 28.487
52.00000 14.186
52.16000 11.088
52.32000 17.147
52.48000 11.116
52.64000 15.164
52.80000 22.299
52.96000 11.191
53.12000 16.189
53.28000 11.139
53.44000 11.102
53.60000 12.248
53.76000 8.067
53.92000 10.037
54.08000 20.441
54.24000 12.165
54.40000 20.177
54.56000 12.902
54.72000 16.193
54.88000 8.084
55.04000 16.224
55.20000 10.032
55.36000 15.204
55.52000 21.459
55.68000 16.387
55.84000 15.279
56.00000 14.411
56.16000 14.001
56.32000 18.208
56.48000 7.094
56.64000 14.207
56.80000 13.299
56.96000 14.459
57.12000 9.019
57.28000 13.130
57.44000 12.166
57.60000 10.230
57.76000 9.196
57.92000 13.047
58.08000 12.560
58.24000 9.035
58.40000 9.221
58.56000 10.077
58.72000 10.072
58.88000 8.987
59.04000 16.400
59.20000 15.143
59.36000 8.932
59.52000 17.983
59.68000 13.064
59.84000 8.185
60.00000 9.134
60.16000 7.090
60.32000 13.163
60.48000 9.221
60.64000 7.083
60.80000 9.100
60.96000 11.250
61.12000 15.163
61.28000 12.161
61.44000 7.075
61.60000 5.057
61.76000 6.128
61.92000 14.063
62.08000 4.018
62.24000 6.106
62.40000 7.152
62.56000 6.068
62.72000 7.116
62.88000 9.125
63.04000 12.181
63.20000 9.202
63.36000 6.069
63.52000 13.165
63.68000 7.184
63.84000 7.121
64.00000 7.098
64.16000 6.047
64.32000 15.153
64.48000 5.088
64.64000 6.150
64.80000 5.051
64.96000 14.162
65.00000 7.072