File: XRD/XRD/11-09-2025/XY Data/01092025_BTO_omega_1_001_12_-45-048_-21-694.xy
20.00000 146.291
20.16000 147.041
20.32000 113.398
20.48000 100.079
20.64000 96.046
20.80000 98.755
20.96000 97.279
21.12000 75.633
21.28000 69.505
21.44000 81.541
21.60000 75.606
21.76000 69.778
21.92000 56.833
22.08000 58.692
22.24000 58.647
22.40000 35.583
22.56000 45.142
22.72000 35.435
22.88000 31.249
23.04000 30.301
23.20000 24.310
23.36000 28.327
23.52000 31.429
23.68000 29.340
23.84000 33.136
24.00000 19.180
24.16000 31.129
24.32000 27.302
24.48000 11.090
24.64000 16.154
24.80000 23.388
24.96000 20.283
25.12000 18.399
25.28000 19.156
25.44000 19.547
25.60000 18.169
25.76000 17.348
25.92000 19.310
26.08000 9.000
26.24000 17.472
26.40000 14.232
26.56000 12.110
26.72000 12.173
26.88000 19.284
27.04000 12.125
27.20000 12.211
27.36000 10.278
27.52000 11.196
27.68000 13.205
27.84000 9.153
28.00000 8.322
28.16000 7.201
28.32000 7.059
28.48000 16.135
28.64000 11.168
28.80000 15.247
28.96000 12.370
29.12000 17.199
29.28000 9.069
29.44000 4.019
29.60000 7.101
29.76000 11.207
29.92000 10.160
30.08000 6.082
30.24000 6.074
30.40000 7.048
30.56000 11.347
30.72000 11.015
30.88000 10.176
31.04000 11.211
31.20000 5.023
31.36000 14.230
31.52000 8.147
31.68000 11.187
31.84000 11.110
32.00000 5.042
32.16000 12.134
32.32000 10.076
32.48000 7.027
32.64000 2.996
32.80000 10.141
32.96000 8.037
33.12000 7.022
33.28000 8.098
33.44000 5.036
33.60000 7.946
33.76000 6.972
33.92000 9.143
34.08000 8.031
34.24000 5.167
34.40000 5.074
34.56000 6.056
34.72000 0.990
34.88000 5.033
35.04000 7.066
35.20000 4.039
35.36000 6.027
35.52000 5.052
35.68000 5.071
35.84000 1.000
36.00000 10.200
36.16000 6.043
36.32000 11.162
36.48000 4.033
36.64000 6.031
36.80000 6.984
36.96000 5.117
37.12000 0.991
37.28000 6.158
37.44000 8.081
37.60000 4.087
37.76000 4.987
37.92000 4.104
38.08000 5.121
38.24000 3.964
38.40000 6.135
38.56000 7.096
38.72000 3.970
38.88000 1.992
39.04000 8.142
39.20000 3.032
39.36000 8.047
39.52000 4.072
39.68000 6.054
39.84000 3.059
40.00000 2.020
40.16000 6.080
40.32000 4.094
40.48000 2.002
40.64000 4.030
40.80000 7.199
40.96000 6.077
41.12000 1.988
41.28000 3.067
41.44000 2.049
41.60000 3.050
41.76000 3.055
41.92000 3.074
42.08000 4.023
42.24000 0.000
42.40000 3.037
42.56000 5.072
42.72000 3.070
42.88000 7.076
43.04000 0.990
43.20000 2.067
43.36000 5.094
43.52000 3.979
43.68000 5.095
43.84000 3.045
44.00000 6.089
44.16000 1.034
44.32000 2.102
44.48000 1.048
44.64000 2.017
44.80000 3.008
44.96000 2.096
45.12000 2.026
45.28000 6.153
45.44000 5.087
45.60000 0.000
45.76000 1.976
45.92000 3.036
46.08000 3.035
46.24000 1.000
46.40000 2.058
46.56000 2.030
46.72000 1.015
46.88000 3.062
47.04000 1.047
47.20000 2.061
47.36000 3.980
47.52000 3.042
47.68000 5.087
47.84000 3.083
48.00000 5.037
48.16000 5.127
48.32000 3.092
48.48000 2.995
48.64000 1.992
48.80000 3.003
48.96000 6.011
49.12000 3.034
49.28000 5.114
49.44000 0.990
49.60000 2.061
49.76000 3.970
49.92000 2.069
50.08000 1.032
50.24000 6.036
50.40000 1.994
50.56000 3.974
50.72000 1.024
50.88000 0.994
51.04000 0.979
51.20000 4.104
51.36000 0.990
51.52000 5.019
51.68000 6.966
51.84000 1.002
52.00000 1.019
52.16000 4.986
52.32000 4.033
52.48000 1.978
52.64000 3.119
52.80000 4.027
52.96000 5.075
53.12000 2.043
53.28000 0.000
53.44000 3.993
53.60000 2.007
53.76000 2.025
53.92000 2.963
54.08000 2.977
54.24000 5.009
54.40000 1.014
54.56000 3.987
54.72000 2.981
54.88000 1.020
55.04000 0.000
55.20000 2.030
55.36000 4.099
55.52000 1.012
55.68000 1.028
55.84000 3.057
56.00000 6.090
56.16000 2.004
56.32000 1.006
56.48000 1.976
56.64000 1.023
56.80000 0.000
56.96000 1.028
57.12000 3.032
57.28000 0.000
57.44000 0.000
57.60000 0.990
57.76000 3.985
57.92000 1.010
58.08000 4.050
58.24000 0.000
58.40000 3.026
58.56000 0.000
58.72000 0.980
58.88000 5.080
59.04000 2.035
59.20000 0.000
59.36000 3.006
59.52000 3.055
59.68000 2.028
59.84000 2.026
60.00000 2.940
60.16000 1.001
60.32000 2.074
60.48000 1.041
60.64000 3.018
60.80000 1.034
60.96000 0.000
61.12000 1.982
61.28000 1.058
61.44000 3.037
61.60000 2.029
61.76000 1.048
61.92000 3.057
62.08000 3.075
62.24000 1.988
62.40000 2.058
62.56000 2.017
62.72000 0.977
62.88000 1.043
63.04000 2.061
63.20000 1.018
63.36000 4.066
63.52000 1.051
63.68000 1.977
63.84000 1.010
64.00000 0.000
64.16000 1.003
64.32000 0.000
64.48000 2.029
64.64000 3.018
64.80000 3.022
64.96000 1.025
65.00000 2.022