File: XRD/08-10-2025 Dep 7/XY Data/BTO_Mapping_Theta2Theta_08-10-2025_001_17_12-361_38-042.xy
20.00000 483.280
20.17000 464.653
20.34000 465.205
20.51000 480.636
20.68000 458.286
20.85000 475.285
21.02000 477.382
21.19000 454.837
21.36000 478.677
21.53000 471.713
21.70000 470.745
21.87000 485.283
22.04000 509.673
22.21000 507.730
22.38000 478.181
22.55000 466.930
22.72000 449.069
22.89000 454.742
23.06000 420.569
23.23000 431.753
23.40000 439.081
23.57000 459.761
23.74000 477.164
23.91000 507.246
24.08000 530.057
24.25000 472.489
24.42000 433.391
24.59000 435.300
24.76000 414.519
24.93000 413.937
25.10000 405.353
25.27000 403.775
25.44000 406.605
25.61000 400.660
25.78000 400.036
25.95000 407.158
26.12000 394.182
26.29000 398.180
26.46000 385.793
26.63000 378.387
26.80000 389.843
26.97000 386.897
27.14000 379.880
27.31000 393.201
27.48000 369.928
27.65000 371.022
27.82000 364.397
27.99000 362.784
28.16000 371.643
28.33000 360.416
28.50000 367.084
28.67000 359.394
28.84000 364.001
29.01000 349.936
29.18000 368.378
29.35000 367.610
29.52000 355.036
29.69000 375.429
29.86000 375.492
30.03000 399.882
30.20000 367.250
30.37000 379.221
30.54000 380.029
30.71000 392.859
30.88000 414.357
31.05000 499.351
31.22000 819.673
31.39000 1081.126
31.56000 806.625
31.73000 484.531
31.90000 391.711
32.07000 366.082
32.24000 335.771
32.41000 336.440
32.58000 334.384
32.75000 316.407
32.92000 322.298
33.09000 309.150
33.26000 305.498
33.43000 299.556
33.60000 301.145
33.77000 296.322
33.94000 308.439
34.11000 319.517
34.28000 326.329
34.45000 320.155
34.62000 298.690
34.79000 292.882
34.96000 271.555
35.13000 275.661
35.30000 259.318
35.47000 248.184
35.64000 272.140
35.81000 272.489
35.98000 252.201
36.15000 249.698
36.32000 259.284
36.49000 273.853
36.66000 250.444
36.83000 257.691
37.00000 269.629
37.17000 249.629
37.34000 252.651
37.51000 255.259
37.68000 249.640
37.85000 237.091
38.02000 259.853
38.19000 270.117
38.36000 297.772
38.53000 445.660
38.70000 676.473
38.87000 507.337
39.04000 304.779
39.21000 242.540
39.38000 217.410
39.55000 242.339
39.72000 237.677
39.89000 221.881
40.06000 225.087
40.23000 226.170
40.40000 217.720
40.57000 225.138
40.74000 227.879
40.91000 220.085
41.08000 218.625
41.25000 209.788
41.42000 213.154
41.59000 217.745
41.76000 211.693
41.93000 218.681
42.10000 227.988
42.27000 223.554
42.44000 207.505
42.61000 213.817
42.78000 205.603
42.95000 213.167
43.12000 202.463
43.29000 196.086
43.46000 191.871
43.63000 187.078
43.80000 199.093
43.97000 203.929
44.14000 197.765
44.31000 198.117
44.48000 204.482
44.65000 220.572
44.82000 221.972
44.99000 231.075
45.16000 230.996
45.33000 232.634
45.50000 199.069
45.67000 187.715
45.84000 181.497
46.01000 169.399
46.18000 173.273
46.35000 175.624
46.52000 181.211
46.69000 175.794
46.86000 150.999
47.03000 172.519
47.20000 173.939
47.37000 168.910
47.54000 159.441
47.71000 165.864
47.88000 150.871
48.05000 162.537
48.22000 160.044
48.39000 168.056
48.56000 167.181
48.73000 150.966
48.90000 145.193
49.07000 159.707
49.24000 161.300
49.41000 149.414
49.58000 153.245
49.75000 155.060
49.92000 163.085
50.09000 154.328
50.26000 157.447
50.43000 165.404
50.60000 167.569
50.77000 182.029
50.94000 168.616
51.11000 151.986
51.28000 152.106
51.45000 144.624
51.62000 149.721
51.79000 139.154
51.96000 142.244
52.13000 135.512
52.30000 138.177
52.47000 140.995
52.64000 133.385
52.81000 150.156
52.98000 150.257
53.15000 138.745
53.32000 145.464
53.49000 142.356
53.66000 138.411
53.83000 144.017
54.00000 137.092
54.17000 138.640
54.34000 144.122
54.51000 135.773
54.68000 141.814
54.85000 132.061
55.02000 146.332
55.19000 144.864
55.36000 155.809
55.53000 187.630
55.70000 248.317
55.87000 313.461
56.04000 304.126
56.21000 247.770
56.38000 176.003
56.55000 145.981
56.72000 141.298
56.89000 137.004
57.06000 142.073
57.23000 127.170
57.40000 129.352
57.57000 122.909
57.74000 124.337
57.91000 123.537
58.08000 123.032
58.25000 124.214
58.42000 119.008
58.59000 121.061
58.76000 126.535
58.93000 123.727
59.10000 130.741
59.27000 121.274
59.44000 115.155
59.61000 122.969
59.78000 111.926
59.95000 121.728
60.12000 116.879
60.29000 117.978
60.46000 116.621
60.63000 109.105
60.80000 127.656
60.97000 124.970
61.14000 115.236
61.31000 125.725
61.48000 132.271
61.65000 289.143
61.82000 209.948
61.99000 139.348
62.16000 129.084
62.33000 124.226
62.50000 124.222
62.67000 126.889
62.84000 135.112
63.01000 133.589
63.18000 128.644
63.35000 139.837
63.52000 144.598
63.69000 133.288
63.86000 152.163
64.03000 145.451
64.20000 154.261
64.37000 143.708
64.54000 159.724
64.71000 157.607
64.88000 186.972
65.05000 189.535
65.22000 222.390
65.39000 242.229
65.56000 326.033
65.73000 986.259
65.90000 1939.949
66.07000 528.639
66.24000 398.098
66.41000 645.137
66.58000 426.159
66.75000 329.627
66.92000 353.623
67.09000 392.693
67.26000 385.362
67.43000 406.826
67.60000 441.939
67.77000 462.790
67.94000 482.129
68.11000 515.722
68.28000 603.775
68.45000 651.112
68.62000 905.909
68.79000 1593.295
68.96000 8345.369
69.13000 44544.359
69.30000 24524.664
69.47000 6447.268
69.64000 940.767
69.81000 620.800
69.98000 513.273
70.00000 516.947