File: XRD/08-10-2025 Dep 7/XY Data/BTO_Mapping_Theta2Theta_08-10-2025_001_39_-16-180_-11-756.xy
20.00000 458.694
20.17000 470.083
20.34000 475.891
20.51000 471.693
20.68000 468.622
20.85000 466.533
21.02000 479.272
21.19000 450.547
21.36000 445.496
21.53000 457.112
21.70000 505.469
21.87000 535.183
22.04000 611.948
22.21000 526.131
22.38000 501.967
22.55000 461.686
22.72000 440.174
22.89000 461.695
23.06000 446.448
23.23000 450.686
23.40000 407.765
23.57000 435.334
23.74000 434.779
23.91000 429.981
24.08000 454.797
24.25000 418.001
24.42000 418.722
24.59000 420.503
24.76000 404.400
24.93000 400.647
25.10000 408.547
25.27000 409.938
25.44000 405.677
25.61000 387.593
25.78000 399.898
25.95000 399.284
26.12000 395.535
26.29000 382.272
26.46000 402.010
26.63000 376.263
26.80000 385.983
26.97000 390.123
27.14000 375.557
27.31000 363.679
27.48000 382.553
27.65000 376.843
27.82000 375.663
27.99000 368.907
28.16000 367.717
28.33000 359.416
28.50000 351.122
28.67000 364.425
28.84000 364.353
29.01000 339.649
29.18000 361.447
29.35000 359.835
29.52000 358.774
29.69000 375.218
29.86000 404.735
30.03000 443.626
30.20000 395.913
30.37000 365.527
30.54000 376.090
30.71000 376.524
30.88000 425.360
31.05000 736.377
31.22000 1788.870
31.39000 2340.828
31.56000 1131.368
31.73000 476.171
31.90000 370.446
32.07000 340.926
32.24000 332.291
32.41000 322.473
32.58000 321.674
32.75000 300.820
32.92000 321.622
33.09000 320.156
33.26000 306.716
33.43000 299.747
33.60000 292.887
33.77000 298.614
33.94000 315.115
34.11000 306.505
34.28000 332.401
34.45000 325.793
34.62000 321.134
34.79000 298.357
34.96000 295.522
35.13000 259.145
35.30000 282.478
35.47000 258.912
35.64000 253.472
35.81000 259.059
35.98000 281.756
36.15000 263.888
36.32000 248.812
36.49000 251.743
36.66000 270.060
36.83000 271.579
37.00000 279.224
37.17000 268.002
37.34000 266.296
37.51000 254.117
37.68000 248.473
37.85000 256.617
38.02000 273.434
38.19000 275.080
38.36000 380.184
38.53000 700.366
38.70000 939.029
38.87000 621.560
39.04000 322.141
39.21000 256.902
39.38000 245.544
39.55000 232.614
39.72000 252.535
39.89000 214.205
40.06000 227.436
40.23000 207.831
40.40000 218.163
40.57000 216.730
40.74000 219.623
40.91000 206.188
41.08000 210.700
41.25000 215.648
41.42000 201.433
41.59000 208.221
41.76000 208.028
41.93000 207.064
42.10000 204.523
42.27000 213.895
42.44000 207.296
42.61000 201.403
42.78000 192.675
42.95000 197.416
43.12000 197.290
43.29000 204.370
43.46000 196.012
43.63000 203.918
43.80000 188.129
43.97000 203.324
44.14000 211.819
44.31000 200.514
44.48000 211.463
44.65000 234.146
44.82000 278.415
44.99000 303.224
45.16000 308.861
45.33000 254.889
45.50000 237.945
45.67000 204.336
45.84000 203.704
46.01000 185.748
46.18000 169.858
46.35000 173.039
46.52000 181.047
46.69000 167.501
46.86000 180.656
47.03000 163.152
47.20000 164.682
47.37000 163.250
47.54000 163.659
47.71000 173.283
47.88000 146.637
48.05000 158.996
48.22000 150.904
48.39000 161.096
48.56000 154.097
48.73000 150.106
48.90000 163.129
49.07000 152.771
49.24000 148.437
49.41000 165.697
49.58000 148.924
49.75000 161.971
49.92000 155.918
50.09000 163.360
50.26000 160.197
50.43000 194.479
50.60000 225.764
50.77000 222.898
50.94000 169.686
51.11000 157.613
51.28000 152.718
51.45000 153.997
51.62000 136.920
51.79000 141.997
51.96000 145.642
52.13000 147.749
52.30000 138.418
52.47000 143.544
52.64000 142.968
52.81000 134.667
52.98000 145.198
53.15000 160.891
53.32000 154.068
53.49000 148.152
53.66000 155.501
53.83000 146.877
54.00000 138.170
54.17000 133.165
54.34000 138.617
54.51000 144.208
54.68000 143.731
54.85000 147.396
55.02000 156.046
55.19000 151.205
55.36000 202.323
55.53000 355.349
55.70000 570.327
55.87000 681.669
56.04000 530.802
56.21000 292.522
56.38000 185.836
56.55000 150.859
56.72000 143.520
56.89000 137.659
57.06000 133.873
57.23000 138.006
57.40000 138.025
57.57000 131.409
57.74000 123.814
57.91000 119.254
58.08000 120.069
58.25000 126.923
58.42000 122.607
58.59000 134.447
58.76000 119.077
58.93000 118.408
59.10000 126.831
59.27000 119.696
59.44000 123.835
59.61000 117.011
59.78000 112.947
59.95000 127.197
60.12000 111.491
60.29000 119.755
60.46000 116.123
60.63000 122.958
60.80000 120.138
60.97000 120.591
61.14000 122.096
61.31000 142.302
61.48000 125.828
61.65000 294.199
61.82000 215.309
61.99000 124.606
62.16000 128.213
62.33000 124.040
62.50000 126.056
62.67000 127.173
62.84000 129.514
63.01000 132.448
63.18000 129.086
63.35000 132.368
63.52000 132.106
63.69000 139.530
63.86000 136.898
64.03000 140.767
64.20000 142.298
64.37000 148.060
64.54000 166.086
64.71000 162.706
64.88000 205.348
65.05000 213.419
65.22000 263.980
65.39000 334.502
65.56000 396.265
65.73000 1000.195
65.90000 2192.292
66.07000 603.885
66.24000 390.609
66.41000 678.989
66.58000 445.287
66.75000 372.176
66.92000 364.993
67.09000 391.761
67.26000 398.579
67.43000 419.277
67.60000 452.114
67.77000 467.144
67.94000 490.111
68.11000 538.333
68.28000 591.176
68.45000 650.966
68.62000 895.694
68.79000 1632.523
68.96000 7935.163
69.13000 49489.246
69.30000 28947.705
69.47000 8451.676
69.64000 1017.969
69.81000 668.347
69.98000 532.792
70.00000 518.302