File: XRD/08-10-2025 Dep 7/XY Data/BTO_Mapping_Theta2Theta_08-10-2025_001_36_-29-344_-6-237.xy
20.00000 479.401
20.17000 465.746
20.34000 478.623
20.51000 466.274
20.68000 476.529
20.85000 448.233
21.02000 491.988
21.19000 488.066
21.36000 495.772
21.53000 485.231
21.70000 516.383
21.87000 664.357
22.04000 774.193
22.21000 620.870
22.38000 513.662
22.55000 453.391
22.72000 434.480
22.89000 420.517
23.06000 451.532
23.23000 425.342
23.40000 427.478
23.57000 417.409
23.74000 442.227
23.91000 431.308
24.08000 438.410
24.25000 410.027
24.42000 412.887
24.59000 416.773
24.76000 394.447
24.93000 398.880
25.10000 401.702
25.27000 417.608
25.44000 404.578
25.61000 400.388
25.78000 403.199
25.95000 390.252
26.12000 371.092
26.29000 405.883
26.46000 382.425
26.63000 370.042
26.80000 363.948
26.97000 380.679
27.14000 368.412
27.31000 381.706
27.48000 380.275
27.65000 393.998
27.82000 376.777
27.99000 360.574
28.16000 372.147
28.33000 375.233
28.50000 349.182
28.67000 366.380
28.84000 358.781
29.01000 361.006
29.18000 353.571
29.35000 357.540
29.52000 356.864
29.69000 371.208
29.86000 428.724
30.03000 449.808
30.20000 421.492
30.37000 399.776
30.54000 377.537
30.71000 389.444
30.88000 476.047
31.05000 858.767
31.22000 2206.624
31.39000 2785.600
31.56000 1320.692
31.73000 536.972
31.90000 376.712
32.07000 338.589
32.24000 321.064
32.41000 318.007
32.58000 318.685
32.75000 322.121
32.92000 324.194
33.09000 324.744
33.26000 288.752
33.43000 279.472
33.60000 305.794
33.77000 289.862
33.94000 293.816
34.11000 294.937
34.28000 311.360
34.45000 291.025
34.62000 297.355
34.79000 283.654
34.96000 275.070
35.13000 286.107
35.30000 264.189
35.47000 261.424
35.64000 262.476
35.81000 279.312
35.98000 271.996
36.15000 243.066
36.32000 284.278
36.49000 253.175
36.66000 256.816
36.83000 249.486
37.00000 257.073
37.17000 257.156
37.34000 243.992
37.51000 255.549
37.68000 245.234
37.85000 256.040
38.02000 248.302
38.19000 264.317
38.36000 332.312
38.53000 511.097
38.70000 571.653
38.87000 413.604
39.04000 279.494
39.21000 228.180
39.38000 234.463
39.55000 223.129
39.72000 225.474
39.89000 236.525
40.06000 218.290
40.23000 224.796
40.40000 230.917
40.57000 212.105
40.74000 221.064
40.91000 226.379
41.08000 212.715
41.25000 207.299
41.42000 209.676
41.59000 208.654
41.76000 210.918
41.93000 207.394
42.10000 212.273
42.27000 206.979
42.44000 213.103
42.61000 189.088
42.78000 200.218
42.95000 205.986
43.12000 210.069
43.29000 198.892
43.46000 200.563
43.63000 209.591
43.80000 205.585
43.97000 195.054
44.14000 198.787
44.31000 221.210
44.48000 234.650
44.65000 293.998
44.82000 431.384
44.99000 478.804
45.16000 364.337
45.33000 284.666
45.50000 249.396
45.67000 224.901
45.84000 193.852
46.01000 180.881
46.18000 194.601
46.35000 180.586
46.52000 177.363
46.69000 173.764
46.86000 172.137
47.03000 173.833
47.20000 171.334
47.37000 163.545
47.54000 162.813
47.71000 166.913
47.88000 164.036
48.05000 165.770
48.22000 166.836
48.39000 167.141
48.56000 167.040
48.73000 162.565
48.90000 157.784
49.07000 154.819
49.24000 157.742
49.41000 156.595
49.58000 153.811
49.75000 158.009
49.92000 155.134
50.09000 169.508
50.26000 195.031
50.43000 233.161
50.60000 248.833
50.77000 230.336
50.94000 179.327
51.11000 158.202
51.28000 141.414
51.45000 141.057
51.62000 130.757
51.79000 145.346
51.96000 146.473
52.13000 148.958
52.30000 143.574
52.47000 141.603
52.64000 149.374
52.81000 146.802
52.98000 145.112
53.15000 152.602
53.32000 160.274
53.49000 147.065
53.66000 141.512
53.83000 144.265
54.00000 147.094
54.17000 139.115
54.34000 139.913
54.51000 136.444
54.68000 147.255
54.85000 150.310
55.02000 153.593
55.19000 164.189
55.36000 225.465
55.53000 394.953
55.70000 601.045
55.87000 668.759
56.04000 472.678
56.21000 299.786
56.38000 193.964
56.55000 150.796
56.72000 142.166
56.89000 129.997
57.06000 132.636
57.23000 114.019
57.40000 139.092
57.57000 125.549
57.74000 128.684
57.91000 120.235
58.08000 128.580
58.25000 123.726
58.42000 122.152
58.59000 115.505
58.76000 119.615
58.93000 119.048
59.10000 124.925
59.27000 120.916
59.44000 115.171
59.61000 115.950
59.78000 120.949
59.95000 120.612
60.12000 114.222
60.29000 117.069
60.46000 120.506
60.63000 124.981
60.80000 123.543
60.97000 125.462
61.14000 127.801
61.31000 124.730
61.48000 121.919
61.65000 333.501
61.82000 251.851
61.99000 140.277
62.16000 131.491
62.33000 130.382
62.50000 119.984
62.67000 125.600
62.84000 130.387
63.01000 131.517
63.18000 130.645
63.35000 136.640
63.52000 148.837
63.69000 130.653
63.86000 150.138
64.03000 148.577
64.20000 140.135
64.37000 155.968
64.54000 162.429
64.71000 180.439
64.88000 204.553
65.05000 237.087
65.22000 314.208
65.39000 385.760
65.56000 438.728
65.73000 1047.983
65.90000 2504.957
66.07000 730.726
66.24000 440.684
66.41000 753.440
66.58000 515.609
66.75000 400.618
66.92000 377.641
67.09000 404.649
67.26000 415.140
67.43000 450.465
67.60000 448.445
67.77000 514.953
67.94000 542.256
68.11000 568.551
68.28000 597.575
68.45000 706.532
68.62000 956.630
68.79000 1826.520
68.96000 7946.193
69.13000 56007.016
69.30000 36068.582
69.47000 11799.675
69.64000 1156.922
69.81000 682.812
69.98000 546.128
70.00000 545.363