File: XRD/08-10-2025 Dep 7/XY Data/BTO_Mapping_Theta2Theta_08-10-2025_001_51_6-180_-19-021.xy
20.00000 463.376
20.17000 482.443
20.34000 471.285
20.51000 477.497
20.68000 470.980
20.85000 461.599
21.02000 468.266
21.19000 483.670
21.36000 464.911
21.53000 483.779
21.70000 447.278
21.87000 518.835
22.04000 559.196
22.21000 508.113
22.38000 476.065
22.55000 459.414
22.72000 449.916
22.89000 436.888
23.06000 426.443
23.23000 433.461
23.40000 431.792
23.57000 459.437
23.74000 467.771
23.91000 512.608
24.08000 504.019
24.25000 462.445
24.42000 432.909
24.59000 413.208
24.76000 400.724
24.93000 403.641
25.10000 395.854
25.27000 404.030
25.44000 393.588
25.61000 401.679
25.78000 368.755
25.95000 390.662
26.12000 375.045
26.29000 388.792
26.46000 371.825
26.63000 372.918
26.80000 385.550
26.97000 379.206
27.14000 364.929
27.31000 364.010
27.48000 385.391
27.65000 369.990
27.82000 373.573
27.99000 363.346
28.16000 357.876
28.33000 363.873
28.50000 355.494
28.67000 364.653
28.84000 345.841
29.01000 340.819
29.18000 364.660
29.35000 346.130
29.52000 352.096
29.69000 359.689
29.86000 386.718
30.03000 372.594
30.20000 364.943
30.37000 371.116
30.54000 360.912
30.71000 367.036
30.88000 389.006
31.05000 489.269
31.22000 843.243
31.39000 1152.276
31.56000 788.609
31.73000 440.790
31.90000 353.874
32.07000 339.805
32.24000 324.649
32.41000 324.630
32.58000 314.631
32.75000 324.912
32.92000 317.057
33.09000 301.365
33.26000 295.234
33.43000 301.924
33.60000 285.018
33.77000 302.206
33.94000 309.293
34.11000 324.679
34.28000 346.878
34.45000 341.192
34.62000 322.874
34.79000 294.590
34.96000 286.022
35.13000 270.415
35.30000 262.686
35.47000 271.930
35.64000 273.933
35.81000 268.892
35.98000 266.472
36.15000 265.042
36.32000 263.881
36.49000 250.599
36.66000 263.270
36.83000 283.502
37.00000 278.518
37.17000 274.429
37.34000 260.865
37.51000 256.864
37.68000 251.542
37.85000 250.124
38.02000 253.345
38.19000 262.911
38.36000 341.807
38.53000 742.090
38.70000 1167.192
38.87000 783.797
39.04000 342.033
39.21000 250.211
39.38000 237.739
39.55000 239.490
39.72000 225.319
39.89000 236.814
40.06000 228.029
40.23000 225.248
40.40000 219.132
40.57000 208.450
40.74000 216.490
40.91000 223.899
41.08000 205.787
41.25000 202.958
41.42000 214.261
41.59000 206.973
41.76000 204.083
41.93000 209.444
42.10000 218.021
42.27000 206.507
42.44000 217.615
42.61000 210.227
42.78000 207.910
42.95000 196.237
43.12000 198.470
43.29000 196.147
43.46000 194.799
43.63000 199.187
43.80000 186.409
43.97000 207.378
44.14000 199.896
44.31000 200.084
44.48000 206.756
44.65000 231.905
44.82000 247.332
44.99000 269.492
45.16000 266.253
45.33000 238.628
45.50000 209.656
45.67000 201.006
45.84000 188.375
46.01000 189.601
46.18000 177.822
46.35000 179.079
46.52000 182.988
46.69000 173.762
46.86000 156.983
47.03000 160.418
47.20000 163.410
47.37000 163.305
47.54000 162.742
47.71000 157.122
47.88000 161.673
48.05000 157.064
48.22000 155.061
48.39000 169.014
48.56000 154.428
48.73000 154.561
48.90000 167.992
49.07000 161.714
49.24000 154.695
49.41000 157.725
49.58000 151.221
49.75000 155.226
49.92000 153.056
50.09000 154.633
50.26000 146.580
50.43000 162.037
50.60000 167.812
50.77000 161.475
50.94000 153.055
51.11000 154.315
51.28000 145.430
51.45000 148.995
51.62000 141.728
51.79000 144.533
51.96000 137.529
52.13000 139.572
52.30000 145.762
52.47000 141.337
52.64000 147.214
52.81000 121.819
52.98000 150.532
53.15000 143.492
53.32000 165.738
53.49000 155.160
53.66000 145.992
53.83000 140.207
54.00000 137.822
54.17000 152.131
54.34000 136.148
54.51000 137.699
54.68000 148.939
54.85000 143.257
55.02000 152.146
55.19000 150.087
55.36000 181.299
55.53000 253.323
55.70000 433.273
55.87000 668.591
56.04000 619.952
56.21000 351.438
56.38000 195.453
56.55000 158.871
56.72000 140.975
56.89000 140.056
57.06000 133.109
57.23000 132.201
57.40000 124.888
57.57000 133.646
57.74000 130.283
57.91000 130.571
58.08000 125.828
58.25000 129.758
58.42000 120.739
58.59000 118.767
58.76000 126.095
58.93000 112.867
59.10000 121.491
59.27000 122.539
59.44000 119.730
59.61000 115.953
59.78000 109.345
59.95000 121.278
60.12000 118.302
60.29000 113.917
60.46000 115.127
60.63000 124.490
60.80000 120.972
60.97000 122.660
61.14000 125.680
61.31000 126.485
61.48000 134.860
61.65000 259.807
61.82000 194.654
61.99000 128.740
62.16000 125.660
62.33000 129.100
62.50000 125.824
62.67000 130.604
62.84000 134.333
63.01000 137.730
63.18000 135.674
63.35000 139.379
63.52000 134.175
63.69000 133.355
63.86000 137.833
64.03000 153.175
64.20000 148.742
64.37000 157.253
64.54000 149.950
64.71000 160.159
64.88000 175.040
65.05000 168.986
65.22000 212.640
65.39000 247.034
65.56000 324.456
65.73000 979.385
65.90000 1836.699
66.07000 466.295
66.24000 377.858
66.41000 580.949
66.58000 398.487
66.75000 341.999
66.92000 327.696
67.09000 371.868
67.26000 394.002
67.43000 424.731
67.60000 403.382
67.77000 440.052
67.94000 483.180
68.11000 487.409
68.28000 555.916
68.45000 609.775
68.62000 863.122
68.79000 1539.257
68.96000 9022.198
69.13000 41821.820
69.30000 22400.746
69.47000 5350.570
69.64000 842.703
69.81000 596.172
69.98000 498.526
70.00000 485.467