File: XRD/08-10-2025 Dep 7/XY Data/BTO_Mapping_Theta2Theta_08-10-2025_001_40_-24-271_-17-634.xy
20.00000 475.276
20.17000 471.643
20.34000 466.599
20.51000 479.111
20.68000 456.284
20.85000 473.782
21.02000 482.932
21.19000 468.940
21.36000 491.561
21.53000 476.378
21.70000 502.418
21.87000 646.878
22.04000 738.079
22.21000 602.417
22.38000 489.815
22.55000 455.491
22.72000 448.819
22.89000 440.594
23.06000 442.848
23.23000 444.999
23.40000 433.535
23.57000 431.754
23.74000 444.401
23.91000 429.071
24.08000 420.307
24.25000 417.255
24.42000 402.501
24.59000 406.844
24.76000 425.949
24.93000 400.826
25.10000 406.755
25.27000 395.894
25.44000 401.140
25.61000 391.303
25.78000 391.134
25.95000 409.725
26.12000 385.702
26.29000 394.304
26.46000 396.115
26.63000 387.296
26.80000 379.921
26.97000 364.431
27.14000 369.472
27.31000 391.539
27.48000 366.280
27.65000 361.909
27.82000 365.068
27.99000 376.944
28.16000 373.596
28.33000 376.652
28.50000 361.169
28.67000 363.258
28.84000 379.571
29.01000 353.899
29.18000 349.978
29.35000 349.515
29.52000 365.279
29.69000 379.726
29.86000 435.101
30.03000 454.474
30.20000 416.919
30.37000 364.662
30.54000 387.790
30.71000 383.414
30.88000 465.439
31.05000 909.912
31.22000 2197.545
31.39000 2661.076
31.56000 1232.403
31.73000 507.488
31.90000 373.819
32.07000 333.372
32.24000 336.998
32.41000 330.413
32.58000 341.242
32.75000 316.831
32.92000 332.196
33.09000 321.876
33.26000 299.118
33.43000 294.292
33.60000 304.124
33.77000 307.674
33.94000 306.764
34.11000 305.114
34.28000 303.804
34.45000 314.942
34.62000 302.966
34.79000 287.926
34.96000 277.548
35.13000 278.436
35.30000 270.003
35.47000 260.369
35.64000 258.147
35.81000 260.656
35.98000 276.746
36.15000 259.085
36.32000 257.479
36.49000 261.479
36.66000 273.762
36.83000 269.729
37.00000 273.433
37.17000 264.424
37.34000 251.096
37.51000 235.381
37.68000 251.675
37.85000 252.059
38.02000 243.106
38.19000 283.345
38.36000 360.284
38.53000 544.851
38.70000 595.513
38.87000 431.245
39.04000 279.178
39.21000 238.925
39.38000 242.310
39.55000 213.883
39.72000 245.953
39.89000 230.208
40.06000 224.324
40.23000 211.442
40.40000 228.341
40.57000 224.213
40.74000 204.714
40.91000 218.399
41.08000 207.491
41.25000 215.708
41.42000 209.812
41.59000 206.366
41.76000 213.727
41.93000 200.898
42.10000 227.032
42.27000 201.878
42.44000 210.338
42.61000 195.651
42.78000 204.891
42.95000 204.955
43.12000 231.158
43.29000 201.754
43.46000 207.256
43.63000 198.153
43.80000 198.832
43.97000 195.726
44.14000 200.604
44.31000 212.974
44.48000 217.421
44.65000 299.202
44.82000 407.137
44.99000 459.434
45.16000 350.596
45.33000 293.086
45.50000 244.377
45.67000 217.483
45.84000 197.388
46.01000 184.566
46.18000 185.158
46.35000 177.437
46.52000 174.400
46.69000 183.678
46.86000 166.832
47.03000 169.770
47.20000 162.407
47.37000 162.620
47.54000 162.926
47.71000 163.495
47.88000 159.700
48.05000 162.956
48.22000 156.626
48.39000 159.177
48.56000 157.890
48.73000 156.197
48.90000 163.212
49.07000 155.850
49.24000 154.671
49.41000 167.256
49.58000 154.361
49.75000 171.746
49.92000 157.520
50.09000 171.876
50.26000 191.430
50.43000 236.208
50.60000 261.177
50.77000 218.394
50.94000 187.311
51.11000 160.479
51.28000 158.552
51.45000 146.205
51.62000 147.907
51.79000 141.760
51.96000 145.459
52.13000 143.351
52.30000 149.300
52.47000 130.441
52.64000 137.882
52.81000 135.792
52.98000 143.564
53.15000 146.697
53.32000 156.223
53.49000 151.161
53.66000 142.055
53.83000 147.648
54.00000 127.844
54.17000 144.506
54.34000 145.248
54.51000 152.892
54.68000 143.627
54.85000 147.607
55.02000 151.032
55.19000 167.740
55.36000 240.583
55.53000 400.263
55.70000 607.684
55.87000 664.127
56.04000 503.360
56.21000 292.758
56.38000 182.822
56.55000 152.981
56.72000 147.067
56.89000 147.489
57.06000 132.015
57.23000 134.110
57.40000 132.439
57.57000 123.195
57.74000 127.424
57.91000 123.014
58.08000 133.764
58.25000 129.147
58.42000 119.647
58.59000 118.966
58.76000 119.629
58.93000 115.733
59.10000 128.026
59.27000 128.875
59.44000 127.128
59.61000 127.156
59.78000 113.811
59.95000 121.930
60.12000 115.312
60.29000 110.620
60.46000 112.077
60.63000 122.256
60.80000 118.549
60.97000 115.879
61.14000 114.815
61.31000 128.430
61.48000 135.929
61.65000 305.701
61.82000 241.121
61.99000 134.155
62.16000 126.029
62.33000 130.258
62.50000 127.413
62.67000 122.018
62.84000 138.034
63.01000 133.392
63.18000 130.573
63.35000 137.771
63.52000 134.873
63.69000 134.653
63.86000 150.854
64.03000 146.536
64.20000 141.830
64.37000 156.558
64.54000 179.565
64.71000 163.957
64.88000 194.909
65.05000 242.574
65.22000 309.248
65.39000 367.771
65.56000 433.146
65.73000 1055.929
65.90000 2455.370
66.07000 693.567
66.24000 411.909
66.41000 729.383
66.58000 480.786
66.75000 383.000
66.92000 391.345
67.09000 406.346
67.26000 423.073
67.43000 420.587
67.60000 461.524
67.77000 488.014
67.94000 501.585
68.11000 558.686
68.28000 607.739
68.45000 701.065
68.62000 948.140
68.79000 1774.009
68.96000 8443.357
69.13000 54935.371
69.30000 33767.516
69.47000 10514.940
69.64000 1103.353
69.81000 687.539
69.98000 542.619
70.00000 528.828