File: XRD/08-10-2025 Dep 7/XY Data/BTO_Mapping_Theta2Theta_08-10-2025_001_57_26-765_-29-726.xy
20.00000 491.305
20.17000 479.059
20.34000 471.356
20.51000 463.408
20.68000 482.967
20.85000 472.203
21.02000 478.945
21.19000 482.866
21.36000 483.299
21.53000 485.819
21.70000 503.401
21.87000 507.195
22.04000 518.265
22.21000 501.364
22.38000 482.837
22.55000 464.376
22.72000 472.452
22.89000 467.637
23.06000 450.731
23.23000 447.064
23.40000 459.523
23.57000 467.512
23.74000 503.746
23.91000 560.793
24.08000 561.402
24.25000 481.334
24.42000 435.555
24.59000 423.133
24.76000 422.776
24.93000 422.381
25.10000 404.213
25.27000 413.990
25.44000 403.724
25.61000 394.674
25.78000 409.827
25.95000 406.959
26.12000 391.971
26.29000 398.189
26.46000 373.741
26.63000 377.969
26.80000 379.734
26.97000 384.477
27.14000 389.579
27.31000 401.931
27.48000 382.268
27.65000 373.728
27.82000 373.562
27.99000 388.672
28.16000 373.304
28.33000 368.432
28.50000 370.155
28.67000 355.897
28.84000 388.399
29.01000 374.220
29.18000 377.759
29.35000 360.415
29.52000 354.704
29.69000 385.058
29.86000 365.788
30.03000 384.447
30.20000 372.116
30.37000 345.616
30.54000 384.312
30.71000 395.130
30.88000 424.619
31.05000 548.292
31.22000 901.471
31.39000 1123.221
31.56000 715.409
31.73000 473.315
31.90000 390.888
32.07000 351.474
32.24000 351.820
32.41000 346.547
32.58000 326.600
32.75000 338.446
32.92000 321.308
33.09000 302.943
33.26000 313.383
33.43000 315.564
33.60000 288.558
33.77000 303.346
33.94000 317.383
34.11000 327.801
34.28000 346.723
34.45000 329.192
34.62000 307.769
34.79000 299.199
34.96000 296.350
35.13000 274.620
35.30000 277.121
35.47000 262.873
35.64000 268.631
35.81000 268.285
35.98000 267.840
36.15000 262.171
36.32000 261.657
36.49000 249.169
36.66000 273.752
36.83000 261.823
37.00000 283.359
37.17000 273.433
37.34000 251.942
37.51000 260.897
37.68000 256.116
37.85000 267.824
38.02000 266.921
38.19000 276.367
38.36000 333.668
38.53000 607.751
38.70000 845.037
38.87000 551.752
39.04000 298.535
39.21000 262.092
39.38000 240.542
39.55000 239.107
39.72000 235.029
39.89000 235.160
40.06000 235.791
40.23000 218.923
40.40000 217.523
40.57000 218.941
40.74000 228.865
40.91000 213.392
41.08000 220.864
41.25000 215.025
41.42000 209.531
41.59000 209.849
41.76000 216.453
41.93000 217.214
42.10000 226.860
42.27000 219.528
42.44000 221.221
42.61000 214.971
42.78000 221.303
42.95000 217.276
43.12000 203.823
43.29000 211.970
43.46000 199.062
43.63000 199.595
43.80000 197.793
43.97000 190.191
44.14000 193.839
44.31000 207.010
44.48000 210.224
44.65000 226.828
44.82000 231.953
44.99000 240.774
45.16000 229.144
45.33000 223.716
45.50000 214.206
45.67000 185.603
45.84000 190.567
46.01000 180.781
46.18000 191.740
46.35000 174.734
46.52000 182.788
46.69000 169.763
46.86000 165.119
47.03000 174.245
47.20000 174.469
47.37000 160.091
47.54000 170.225
47.71000 168.060
47.88000 152.131
48.05000 179.307
48.22000 164.500
48.39000 169.667
48.56000 164.502
48.73000 153.101
48.90000 161.871
49.07000 153.554
49.24000 148.522
49.41000 162.411
49.58000 150.970
49.75000 158.191
49.92000 161.002
50.09000 156.524
50.26000 157.054
50.43000 155.396
50.60000 169.178
50.77000 176.431
50.94000 158.454
51.11000 147.088
51.28000 148.539
51.45000 142.253
51.62000 137.133
51.79000 145.000
51.96000 144.438
52.13000 147.381
52.30000 136.488
52.47000 138.441
52.64000 130.826
52.81000 138.735
52.98000 149.063
53.15000 145.365
53.32000 151.796
53.49000 144.190
53.66000 144.452
53.83000 143.199
54.00000 150.438
54.17000 152.361
54.34000 143.838
54.51000 142.519
54.68000 135.866
54.85000 144.533
55.02000 146.338
55.19000 159.356
55.36000 175.076
55.53000 218.395
55.70000 299.822
55.87000 418.016
56.04000 374.127
56.21000 256.096
56.38000 182.978
56.55000 157.738
56.72000 137.947
56.89000 136.856
57.06000 132.530
57.23000 129.192
57.40000 134.300
57.57000 125.935
57.74000 126.059
57.91000 129.740
58.08000 128.116
58.25000 128.177
58.42000 124.398
58.59000 121.070
58.76000 122.196
58.93000 119.098
59.10000 122.096
59.27000 126.841
59.44000 125.373
59.61000 119.079
59.78000 122.513
59.95000 119.015
60.12000 115.343
60.29000 115.924
60.46000 120.538
60.63000 119.697
60.80000 127.977
60.97000 119.807
61.14000 119.860
61.31000 125.742
61.48000 139.363
61.65000 304.804
61.82000 186.222
61.99000 138.269
62.16000 127.380
62.33000 120.423
62.50000 131.294
62.67000 134.941
62.84000 129.739
63.01000 145.993
63.18000 140.403
63.35000 131.043
63.52000 128.777
63.69000 137.341
63.86000 135.817
64.03000 146.993
64.20000 137.079
64.37000 151.763
64.54000 158.228
64.71000 172.683
64.88000 187.837
65.05000 194.518
65.22000 223.940
65.39000 242.812
65.56000 331.783
65.73000 1178.637
65.90000 1874.354
66.07000 449.641
66.24000 394.816
66.41000 619.876
66.58000 396.931
66.75000 346.347
66.92000 363.007
67.09000 368.201
67.26000 370.165
67.43000 400.390
67.60000 428.384
67.77000 472.758
67.94000 509.841
68.11000 533.059
68.28000 559.115
68.45000 662.768
68.62000 943.406
68.79000 1652.739
68.96000 12674.375
69.13000 44610.809
69.30000 22124.262
69.47000 4237.405
69.64000 851.120
69.81000 602.674
69.98000 495.174
70.00000 480.929