File: XRD/08-10-2025 Dep 7/XY Data/BTO_Mapping_Theta2Theta_08-10-2025_001_01_0-000_0-000.xy
20.00000 477.914
20.17000 464.320
20.34000 472.587
20.51000 451.271
20.68000 464.831
20.85000 456.954
21.02000 464.150
21.19000 456.405
21.36000 441.681
21.53000 448.119
21.70000 448.807
21.87000 499.667
22.04000 530.803
22.21000 517.293
22.38000 472.003
22.55000 462.350
22.72000 444.393
22.89000 447.009
23.06000 419.521
23.23000 440.436
23.40000 425.116
23.57000 429.445
23.74000 448.557
23.91000 503.635
24.08000 495.282
24.25000 452.483
24.42000 416.211
24.59000 412.773
24.76000 416.841
24.93000 395.497
25.10000 405.848
25.27000 401.104
25.44000 402.381
25.61000 397.503
25.78000 405.195
25.95000 403.891
26.12000 379.314
26.29000 377.995
26.46000 375.411
26.63000 385.213
26.80000 381.171
26.97000 397.867
27.14000 363.737
27.31000 367.188
27.48000 381.663
27.65000 360.800
27.82000 371.544
27.99000 358.213
28.16000 368.269
28.33000 355.169
28.50000 354.255
28.67000 347.101
28.84000 342.441
29.01000 355.014
29.18000 351.280
29.35000 347.742
29.52000 344.994
29.69000 357.988
29.86000 367.944
30.03000 379.513
30.20000 357.668
30.37000 355.319
30.54000 340.704
30.71000 349.580
30.88000 381.620
31.05000 485.018
31.22000 807.256
31.39000 1092.918
31.56000 741.132
31.73000 440.321
31.90000 343.528
32.07000 347.282
32.24000 333.059
32.41000 327.744
32.58000 309.993
32.75000 302.167
32.92000 320.343
33.09000 290.649
33.26000 305.463
33.43000 297.694
33.60000 305.302
33.77000 298.605
33.94000 320.873
34.11000 311.298
34.28000 335.174
34.45000 357.317
34.62000 325.717
34.79000 304.501
34.96000 264.816
35.13000 273.051
35.30000 258.582
35.47000 276.339
35.64000 262.065
35.81000 275.620
35.98000 265.436
36.15000 261.179
36.32000 256.500
36.49000 257.127
36.66000 260.476
36.83000 256.983
37.00000 293.107
37.17000 266.512
37.34000 256.559
37.51000 252.628
37.68000 235.691
37.85000 239.287
38.02000 256.169
38.19000 262.888
38.36000 354.447
38.53000 693.372
38.70000 1175.511
38.87000 824.491
39.04000 325.092
39.21000 245.478
39.38000 250.180
39.55000 227.563
39.72000 216.944
39.89000 224.762
40.06000 229.048
40.23000 220.948
40.40000 210.780
40.57000 219.359
40.74000 207.185
40.91000 210.204
41.08000 209.973
41.25000 206.960
41.42000 203.806
41.59000 208.372
41.76000 207.667
41.93000 208.636
42.10000 211.458
42.27000 219.239
42.44000 221.400
42.61000 201.068
42.78000 214.944
42.95000 201.799
43.12000 206.906
43.29000 196.475
43.46000 201.474
43.63000 190.627
43.80000 189.174
43.97000 196.318
44.14000 193.930
44.31000 192.713
44.48000 210.165
44.65000 218.445
44.82000 237.148
44.99000 260.117
45.16000 265.266
45.33000 236.974
45.50000 211.941
45.67000 203.812
45.84000 192.687
46.01000 191.972
46.18000 171.199
46.35000 180.583
46.52000 177.222
46.69000 164.691
46.86000 172.946
47.03000 176.546
47.20000 177.948
47.37000 161.344
47.54000 169.373
47.71000 170.543
47.88000 166.222
48.05000 161.694
48.22000 164.508
48.39000 174.397
48.56000 154.949
48.73000 151.628
48.90000 147.935
49.07000 161.143
49.24000 152.049
49.41000 155.682
49.58000 154.221
49.75000 155.730
49.92000 145.076
50.09000 150.580
50.26000 150.561
50.43000 164.437
50.60000 162.402
50.77000 165.195
50.94000 155.769
51.11000 163.710
51.28000 160.040
51.45000 155.162
51.62000 143.815
51.79000 133.528
51.96000 144.924
52.13000 132.259
52.30000 139.539
52.47000 148.719
52.64000 137.938
52.81000 136.930
52.98000 141.310
53.15000 147.191
53.32000 158.630
53.49000 152.040
53.66000 151.777
53.83000 144.240
54.00000 142.113
54.17000 146.353
54.34000 137.763
54.51000 139.731
54.68000 151.550
54.85000 148.393
55.02000 146.874
55.19000 167.283
55.36000 170.078
55.53000 250.346
55.70000 417.376
55.87000 676.562
56.04000 609.433
56.21000 369.498
56.38000 201.069
56.55000 160.495
56.72000 134.182
56.89000 142.193
57.06000 130.998
57.23000 133.191
57.40000 122.827
57.57000 121.839
57.74000 116.835
57.91000 126.973
58.08000 126.986
58.25000 121.885
58.42000 126.436
58.59000 124.238
58.76000 128.147
58.93000 120.796
59.10000 114.729
59.27000 117.370
59.44000 115.522
59.61000 127.932
59.78000 119.151
59.95000 109.818
60.12000 118.330
60.29000 117.676
60.46000 115.916
60.63000 115.123
60.80000 122.046
60.97000 119.097
61.14000 121.534
61.31000 129.817
61.48000 131.108
61.65000 283.797
61.82000 192.979
61.99000 138.680
62.16000 127.515
62.33000 116.411
62.50000 129.370
62.67000 127.589
62.84000 125.715
63.01000 118.371
63.18000 123.099
63.35000 120.913
63.52000 137.623
63.69000 142.475
63.86000 142.014
64.03000 143.856
64.20000 140.622
64.37000 143.895
64.54000 151.891
64.71000 163.048
64.88000 163.471
65.05000 192.621
65.22000 221.013
65.39000 242.230
65.56000 312.300
65.73000 944.143
65.90000 1864.597
66.07000 502.609
66.24000 377.008
66.41000 607.340
66.58000 399.007
66.75000 327.512
66.92000 349.628
67.09000 366.035
67.26000 387.757
67.43000 413.503
67.60000 433.099
67.77000 434.712
67.94000 471.932
68.11000 515.327
68.28000 547.137
68.45000 635.408
68.62000 849.577
68.79000 1525.462
68.96000 8248.289
69.13000 43058.473
69.30000 23772.568
69.47000 6108.448
69.64000 909.268
69.81000 622.774
69.98000 506.947
70.00000 493.063