File: XRD/08-10-2025 Dep 7/XY Data/BTO_Mapping_Theta2Theta_08-10-2025_001_44_-15-000_-25-981.xy
20.00000 494.354
20.17000 472.129
20.34000 478.085
20.51000 463.375
20.68000 464.685
20.85000 469.020
21.02000 467.633
21.19000 472.951
21.36000 482.549
21.53000 476.142
21.70000 483.476
21.87000 571.420
22.04000 621.445
22.21000 538.092
22.38000 491.102
22.55000 456.734
22.72000 447.531
22.89000 430.314
23.06000 453.295
23.23000 439.712
23.40000 435.066
23.57000 421.513
23.74000 453.451
23.91000 453.419
24.08000 459.893
24.25000 446.926
24.42000 414.376
24.59000 410.036
24.76000 404.097
24.93000 417.075
25.10000 412.082
25.27000 389.465
25.44000 389.226
25.61000 398.358
25.78000 380.719
25.95000 403.666
26.12000 382.093
26.29000 383.340
26.46000 379.324
26.63000 385.835
26.80000 382.711
26.97000 374.128
27.14000 382.405
27.31000 372.561
27.48000 382.408
27.65000 367.097
27.82000 382.759
27.99000 355.798
28.16000 366.829
28.33000 379.486
28.50000 362.982
28.67000 357.282
28.84000 345.030
29.01000 353.758
29.18000 366.670
29.35000 354.562
29.52000 346.543
29.69000 375.510
29.86000 397.870
30.03000 439.617
30.20000 411.100
30.37000 393.457
30.54000 354.397
30.71000 405.246
30.88000 453.863
31.05000 796.154
31.22000 1798.791
31.39000 2298.501
31.56000 1129.454
31.73000 468.277
31.90000 378.416
32.07000 340.111
32.24000 339.891
32.41000 319.928
32.58000 318.883
32.75000 309.691
32.92000 333.248
33.09000 309.659
33.26000 293.905
33.43000 280.675
33.60000 296.228
33.77000 293.582
33.94000 321.080
34.11000 316.356
34.28000 323.941
34.45000 338.635
34.62000 309.827
34.79000 302.944
34.96000 259.306
35.13000 280.611
35.30000 283.429
35.47000 273.209
35.64000 260.541
35.81000 270.290
35.98000 266.858
36.15000 265.886
36.32000 251.898
36.49000 261.527
36.66000 273.185
36.83000 279.897
37.00000 283.133
37.17000 270.796
37.34000 262.678
37.51000 252.588
37.68000 248.664
37.85000 264.033
38.02000 270.891
38.19000 282.723
38.36000 413.694
38.53000 734.334
38.70000 926.184
38.87000 623.997
39.04000 327.949
39.21000 236.082
39.38000 237.530
39.55000 242.695
39.72000 225.562
39.89000 221.583
40.06000 225.642
40.23000 228.360
40.40000 223.970
40.57000 218.758
40.74000 226.971
40.91000 207.000
41.08000 212.526
41.25000 209.431
41.42000 211.352
41.59000 197.332
41.76000 200.464
41.93000 212.327
42.10000 208.230
42.27000 194.475
42.44000 196.608
42.61000 201.452
42.78000 199.778
42.95000 201.242
43.12000 201.004
43.29000 200.497
43.46000 210.704
43.63000 196.025
43.80000 189.455
43.97000 189.428
44.14000 191.811
44.31000 211.035
44.48000 218.173
44.65000 250.604
44.82000 291.504
44.99000 333.004
45.16000 296.067
45.33000 249.008
45.50000 226.241
45.67000 213.740
45.84000 200.117
46.01000 183.493
46.18000 184.177
46.35000 171.410
46.52000 185.133
46.69000 179.981
46.86000 172.131
47.03000 174.978
47.20000 173.289
47.37000 167.335
47.54000 165.637
47.71000 156.060
47.88000 165.738
48.05000 155.902
48.22000 156.417
48.39000 166.364
48.56000 159.466
48.73000 153.689
48.90000 157.776
49.07000 155.540
49.24000 158.500
49.41000 153.416
49.58000 145.492
49.75000 155.904
49.92000 155.869
50.09000 157.182
50.26000 181.450
50.43000 213.275
50.60000 226.542
50.77000 215.797
50.94000 171.783
51.11000 161.333
51.28000 154.901
51.45000 142.637
51.62000 141.677
51.79000 158.931
51.96000 142.955
52.13000 136.040
52.30000 144.562
52.47000 140.478
52.64000 135.865
52.81000 139.090
52.98000 152.491
53.15000 151.084
53.32000 162.537
53.49000 153.502
53.66000 154.986
53.83000 142.752
54.00000 139.436
54.17000 139.174
54.34000 154.218
54.51000 135.272
54.68000 139.068
54.85000 146.383
55.02000 149.870
55.19000 162.564
55.36000 227.395
55.53000 357.399
55.70000 622.113
55.87000 709.547
56.04000 512.759
56.21000 297.042
56.38000 180.896
56.55000 140.493
56.72000 130.735
56.89000 135.008
57.06000 132.591
57.23000 139.362
57.40000 127.914
57.57000 130.401
57.74000 126.540
57.91000 127.798
58.08000 126.732
58.25000 129.327
58.42000 123.202
58.59000 113.802
58.76000 119.338
58.93000 122.557
59.10000 118.325
59.27000 115.159
59.44000 118.896
59.61000 110.242
59.78000 121.611
59.95000 119.463
60.12000 113.503
60.29000 116.024
60.46000 116.784
60.63000 116.196
60.80000 124.436
60.97000 120.497
61.14000 113.978
61.31000 121.295
61.48000 135.292
61.65000 314.150
61.82000 215.677
61.99000 131.866
62.16000 140.532
62.33000 126.745
62.50000 147.240
62.67000 133.437
62.84000 126.263
63.01000 136.458
63.18000 141.330
63.35000 138.162
63.52000 133.757
63.69000 130.635
63.86000 137.800
64.03000 144.598
64.20000 146.329
64.37000 161.527
64.54000 171.667
64.71000 175.236
64.88000 174.308
65.05000 212.979
65.22000 286.365
65.39000 345.809
65.56000 389.088
65.73000 1034.828
65.90000 2249.508
66.07000 583.681
66.24000 385.047
66.41000 673.418
66.58000 432.958
66.75000 350.587
66.92000 375.241
67.09000 382.813
67.26000 402.627
67.43000 401.462
67.60000 426.380
67.77000 477.802
67.94000 507.632
68.11000 514.346
68.28000 586.319
68.45000 645.446
68.62000 905.986
68.79000 1698.925
68.96000 8596.841
69.13000 49702.781
69.30000 28670.896
69.47000 8057.371
69.64000 989.898
69.81000 650.302
69.98000 536.971
70.00000 520.343