File: XRD/08-10-2025 Dep 7/XY Data/BTO_Mapping_Theta2Theta_08-10-2025_001_59_18-271_-8-135.xy
20.00000 489.554
20.17000 479.564
20.34000 469.022
20.51000 474.324
20.68000 460.126
20.85000 460.892
21.02000 473.364
21.19000 470.117
21.36000 433.998
21.53000 487.854
21.70000 464.661
21.87000 489.005
22.04000 515.442
22.21000 510.305
22.38000 460.356
22.55000 459.375
22.72000 440.886
22.89000 472.445
23.06000 448.683
23.23000 446.472
23.40000 441.324
23.57000 452.232
23.74000 491.583
23.91000 563.379
24.08000 529.684
24.25000 473.481
24.42000 450.578
24.59000 421.606
24.76000 405.488
24.93000 417.497
25.10000 416.321
25.27000 402.613
25.44000 411.561
25.61000 391.992
25.78000 401.678
25.95000 390.335
26.12000 398.532
26.29000 391.818
26.46000 386.682
26.63000 386.507
26.80000 390.103
26.97000 378.267
27.14000 392.019
27.31000 370.373
27.48000 375.575
27.65000 363.930
27.82000 376.552
27.99000 351.794
28.16000 372.165
28.33000 366.152
28.50000 367.708
28.67000 359.496
28.84000 384.551
29.01000 351.689
29.18000 339.098
29.35000 341.963
29.52000 342.324
29.69000 351.395
29.86000 380.071
30.03000 387.031
30.20000 389.841
30.37000 374.154
30.54000 376.476
30.71000 381.442
30.88000 415.836
31.05000 529.883
31.22000 886.520
31.39000 1112.784
31.56000 752.880
31.73000 486.760
31.90000 377.467
32.07000 374.729
32.24000 367.043
32.41000 336.318
32.58000 326.985
32.75000 325.775
32.92000 323.505
33.09000 307.690
33.26000 311.680
33.43000 308.473
33.60000 304.907
33.77000 312.364
33.94000 311.959
34.11000 338.334
34.28000 349.234
34.45000 341.733
34.62000 330.628
34.79000 303.053
34.96000 281.433
35.13000 281.879
35.30000 289.332
35.47000 271.195
35.64000 262.719
35.81000 267.986
35.98000 263.965
36.15000 260.831
36.32000 265.897
36.49000 269.381
36.66000 281.631
36.83000 268.308
37.00000 276.012
37.17000 267.230
37.34000 260.268
37.51000 258.183
37.68000 260.318
37.85000 257.465
38.02000 245.990
38.19000 271.685
38.36000 323.198
38.53000 566.703
38.70000 910.316
38.87000 600.417
39.04000 315.763
39.21000 248.824
39.38000 242.242
39.55000 226.936
39.72000 242.101
39.89000 227.044
40.06000 234.217
40.23000 236.387
40.40000 232.306
40.57000 221.505
40.74000 226.861
40.91000 208.718
41.08000 204.885
41.25000 211.238
41.42000 210.586
41.59000 220.983
41.76000 223.596
41.93000 212.531
42.10000 235.573
42.27000 214.929
42.44000 228.877
42.61000 218.661
42.78000 221.223
42.95000 209.379
43.12000 197.149
43.29000 202.144
43.46000 200.487
43.63000 203.728
43.80000 199.139
43.97000 203.973
44.14000 205.484
44.31000 207.929
44.48000 222.487
44.65000 240.028
44.82000 239.369
44.99000 230.050
45.16000 235.488
45.33000 214.498
45.50000 201.300
45.67000 196.496
45.84000 182.717
46.01000 185.017
46.18000 176.709
46.35000 165.457
46.52000 179.822
46.69000 175.811
46.86000 180.626
47.03000 176.238
47.20000 177.942
47.37000 177.387
47.54000 171.016
47.71000 169.681
47.88000 172.812
48.05000 147.829
48.22000 150.667
48.39000 158.653
48.56000 164.123
48.73000 163.408
48.90000 158.234
49.07000 155.709
49.24000 158.589
49.41000 153.397
49.58000 156.851
49.75000 151.170
49.92000 153.005
50.09000 156.347
50.26000 155.048
50.43000 167.118
50.60000 163.556
50.77000 157.660
50.94000 162.471
51.11000 144.431
51.28000 132.707
51.45000 146.852
51.62000 140.740
51.79000 145.467
51.96000 136.857
52.13000 142.803
52.30000 145.959
52.47000 139.063
52.64000 145.682
52.81000 136.224
52.98000 147.393
53.15000 151.785
53.32000 154.101
53.49000 164.270
53.66000 142.604
53.83000 141.968
54.00000 135.607
54.17000 143.415
54.34000 139.969
54.51000 151.411
54.68000 143.459
54.85000 147.140
55.02000 152.303
55.19000 163.851
55.36000 179.043
55.53000 219.042
55.70000 322.114
55.87000 426.350
56.04000 434.145
56.21000 282.315
56.38000 186.898
56.55000 155.411
56.72000 155.103
56.89000 138.082
57.06000 140.644
57.23000 136.577
57.40000 125.853
57.57000 133.240
57.74000 131.584
57.91000 132.323
58.08000 129.641
58.25000 126.672
58.42000 122.330
58.59000 128.568
58.76000 118.690
58.93000 115.337
59.10000 127.321
59.27000 123.756
59.44000 120.938
59.61000 126.780
59.78000 119.206
59.95000 121.406
60.12000 113.464
60.29000 118.946
60.46000 123.944
60.63000 113.391
60.80000 127.266
60.97000 126.824
61.14000 119.492
61.31000 133.670
61.48000 136.594
61.65000 283.563
61.82000 165.263
61.99000 133.917
62.16000 126.487
62.33000 126.042
62.50000 138.505
62.67000 138.216
62.84000 125.622
63.01000 125.981
63.18000 146.806
63.35000 136.170
63.52000 141.253
63.69000 138.158
63.86000 131.698
64.03000 153.385
64.20000 151.319
64.37000 165.362
64.54000 164.069
64.71000 165.529
64.88000 181.082
65.05000 189.044
65.22000 210.380
65.39000 253.687
65.56000 314.089
65.73000 1084.578
65.90000 1899.369
66.07000 452.546
66.24000 390.902
66.41000 607.776
66.58000 393.168
66.75000 344.442
66.92000 361.218
67.09000 370.666
67.26000 397.133
67.43000 398.479
67.60000 426.329
67.77000 452.870
67.94000 483.548
68.11000 506.008
68.28000 567.174
68.45000 638.137
68.62000 916.969
68.79000 1612.023
68.96000 10632.297
69.13000 43657.969
69.30000 22486.244
69.47000 4850.474
69.64000 897.044
69.81000 602.407
69.98000 493.709
70.00000 493.600