File: XRD/08-10-2025 Dep 7/XY Data/BTO_Mapping_Theta2Theta_08-10-2025_001_50_3-090_-9-511.xy
20.00000 487.799
20.17000 475.722
20.34000 489.491
20.51000 456.361
20.68000 464.677
20.85000 481.218
21.02000 467.561
21.19000 483.815
21.36000 481.314
21.53000 464.146
21.70000 467.915
21.87000 487.900
22.04000 546.495
22.21000 543.317
22.38000 476.327
22.55000 467.623
22.72000 453.563
22.89000 432.256
23.06000 449.581
23.23000 449.698
23.40000 440.630
23.57000 433.542
23.74000 464.530
23.91000 488.769
24.08000 513.093
24.25000 460.466
24.42000 421.522
24.59000 425.148
24.76000 408.834
24.93000 416.573
25.10000 389.151
25.27000 394.648
25.44000 396.039
25.61000 402.832
25.78000 387.388
25.95000 393.719
26.12000 391.353
26.29000 392.494
26.46000 387.917
26.63000 384.431
26.80000 399.977
26.97000 387.458
27.14000 395.697
27.31000 388.092
27.48000 368.352
27.65000 389.069
27.82000 377.289
27.99000 376.768
28.16000 365.931
28.33000 368.178
28.50000 355.660
28.67000 345.330
28.84000 350.558
29.01000 370.077
29.18000 347.615
29.35000 365.228
29.52000 350.758
29.69000 362.070
29.86000 368.060
30.03000 367.977
30.20000 374.839
30.37000 348.339
30.54000 350.689
30.71000 375.890
30.88000 392.842
31.05000 476.184
31.22000 785.217
31.39000 1128.664
31.56000 757.820
31.73000 453.717
31.90000 363.578
32.07000 325.311
32.24000 356.567
32.41000 323.324
32.58000 332.659
32.75000 328.126
32.92000 334.799
33.09000 306.462
33.26000 284.067
33.43000 295.852
33.60000 293.207
33.77000 311.006
33.94000 314.706
34.11000 327.981
34.28000 356.719
34.45000 335.628
34.62000 321.856
34.79000 297.218
34.96000 295.389
35.13000 290.520
35.30000 281.992
35.47000 257.708
35.64000 261.502
35.81000 265.861
35.98000 269.929
36.15000 263.335
36.32000 252.714
36.49000 266.768
36.66000 265.031
36.83000 274.752
37.00000 292.257
37.17000 282.932
37.34000 261.572
37.51000 251.902
37.68000 254.768
37.85000 257.173
38.02000 255.293
38.19000 275.065
38.36000 361.034
38.53000 699.661
38.70000 1180.409
38.87000 829.995
39.04000 339.996
39.21000 241.358
39.38000 237.983
39.55000 252.313
39.72000 230.793
39.89000 223.006
40.06000 221.318
40.23000 222.733
40.40000 209.787
40.57000 220.049
40.74000 218.926
40.91000 203.693
41.08000 219.681
41.25000 208.471
41.42000 211.258
41.59000 208.713
41.76000 213.389
41.93000 210.219
42.10000 215.978
42.27000 211.601
42.44000 208.390
42.61000 218.650
42.78000 208.512
42.95000 205.506
43.12000 204.661
43.29000 206.090
43.46000 199.260
43.63000 203.270
43.80000 190.279
43.97000 195.042
44.14000 205.356
44.31000 200.860
44.48000 212.306
44.65000 227.715
44.82000 236.738
44.99000 258.423
45.16000 249.170
45.33000 221.654
45.50000 222.458
45.67000 211.768
45.84000 200.892
46.01000 179.318
46.18000 182.913
46.35000 186.939
46.52000 176.518
46.69000 176.278
46.86000 189.838
47.03000 174.022
47.20000 171.389
47.37000 160.292
47.54000 149.207
47.71000 162.722
47.88000 155.259
48.05000 157.932
48.22000 148.972
48.39000 158.905
48.56000 168.682
48.73000 159.492
48.90000 161.758
49.07000 155.306
49.24000 147.183
49.41000 156.455
49.58000 155.193
49.75000 158.992
49.92000 148.939
50.09000 153.641
50.26000 166.718
50.43000 160.345
50.60000 158.946
50.77000 159.893
50.94000 147.438
51.11000 165.203
51.28000 150.363
51.45000 142.662
51.62000 151.483
51.79000 145.017
51.96000 142.189
52.13000 136.259
52.30000 142.968
52.47000 144.587
52.64000 144.709
52.81000 136.301
52.98000 145.084
53.15000 148.368
53.32000 159.812
53.49000 164.730
53.66000 145.519
53.83000 138.992
54.00000 140.332
54.17000 136.808
54.34000 141.607
54.51000 132.140
54.68000 142.550
54.85000 143.279
55.02000 148.655
55.19000 160.155
55.36000 181.081
55.53000 241.440
55.70000 422.292
55.87000 685.428
56.04000 621.803
56.21000 369.961
56.38000 220.220
56.55000 145.130
56.72000 150.085
56.89000 134.738
57.06000 126.157
57.23000 136.171
57.40000 121.002
57.57000 126.933
57.74000 126.996
57.91000 124.028
58.08000 123.633
58.25000 116.101
58.42000 118.481
58.59000 124.162
58.76000 114.648
58.93000 117.966
59.10000 106.990
59.27000 114.960
59.44000 113.551
59.61000 124.941
59.78000 114.849
59.95000 110.843
60.12000 116.432
60.29000 109.207
60.46000 110.221
60.63000 123.186
60.80000 112.439
60.97000 119.221
61.14000 125.855
61.31000 127.328
61.48000 122.270
61.65000 259.277
61.82000 180.778
61.99000 132.890
62.16000 119.006
62.33000 131.434
62.50000 127.902
62.67000 126.165
62.84000 125.353
63.01000 136.797
63.18000 132.109
63.35000 138.337
63.52000 127.962
63.69000 139.775
63.86000 135.963
64.03000 145.406
64.20000 141.352
64.37000 149.215
64.54000 160.381
64.71000 168.582
64.88000 176.192
65.05000 193.109
65.22000 206.535
65.39000 252.138
65.56000 324.774
65.73000 926.862
65.90000 1822.565
66.07000 481.573
66.24000 372.707
66.41000 597.551
66.58000 415.346
66.75000 352.685
66.92000 346.281
67.09000 371.571
67.26000 392.307
67.43000 394.687
67.60000 417.593
67.77000 447.521
67.94000 466.211
68.11000 513.694
68.28000 542.557
68.45000 631.964
68.62000 863.463
68.79000 1491.210
68.96000 8476.960
69.13000 42044.336
69.30000 22931.682
69.47000 5770.151
69.64000 878.180
69.81000 615.887
69.98000 503.073
70.00000 496.782