File: XRD/08-10-2025 Dep 7/XY Data/BTO_Mapping_Theta2Theta_08-10-2025_001_20_-3-136_29-836.xy
20.00000 471.875
20.17000 480.395
20.34000 470.507
20.51000 466.730
20.68000 454.682
20.85000 460.621
21.02000 449.076
21.19000 471.517
21.36000 467.578
21.53000 491.264
21.70000 458.011
21.87000 493.785
22.04000 515.019
22.21000 505.509
22.38000 478.109
22.55000 438.736
22.72000 448.313
22.89000 446.056
23.06000 447.550
23.23000 424.193
23.40000 449.298
23.57000 428.917
23.74000 462.828
23.91000 491.144
24.08000 497.815
24.25000 460.707
24.42000 425.366
24.59000 430.005
24.76000 424.715
24.93000 401.993
25.10000 419.592
25.27000 397.412
25.44000 402.603
25.61000 413.825
25.78000 384.185
25.95000 391.460
26.12000 389.081
26.29000 378.933
26.46000 387.568
26.63000 377.610
26.80000 392.414
26.97000 378.150
27.14000 359.743
27.31000 377.054
27.48000 380.206
27.65000 380.259
27.82000 363.600
27.99000 368.004
28.16000 361.460
28.33000 370.519
28.50000 360.859
28.67000 353.885
28.84000 354.354
29.01000 358.489
29.18000 357.295
29.35000 354.673
29.52000 356.953
29.69000 359.901
29.86000 355.049
30.03000 375.756
30.20000 361.685
30.37000 358.634
30.54000 385.721
30.71000 371.046
30.88000 412.808
31.05000 484.891
31.22000 820.483
31.39000 1273.991
31.56000 921.021
31.73000 504.170
31.90000 371.287
32.07000 341.324
32.24000 340.828
32.41000 336.155
32.58000 322.101
32.75000 307.498
32.92000 338.002
33.09000 307.478
33.26000 306.991
33.43000 286.481
33.60000 304.368
33.77000 296.821
33.94000 302.671
34.11000 322.426
34.28000 361.097
34.45000 339.243
34.62000 320.969
34.79000 297.429
34.96000 275.872
35.13000 274.264
35.30000 270.310
35.47000 276.181
35.64000 260.759
35.81000 271.294
35.98000 268.347
36.15000 264.332
36.32000 253.543
36.49000 244.369
36.66000 270.837
36.83000 250.228
37.00000 272.195
37.17000 268.045
37.34000 264.493
37.51000 246.565
37.68000 256.333
37.85000 251.847
38.02000 256.011
38.19000 269.907
38.36000 302.577
38.53000 497.710
38.70000 934.945
38.87000 712.400
39.04000 329.313
39.21000 229.971
39.38000 222.565
39.55000 218.371
39.72000 234.590
39.89000 220.463
40.06000 241.927
40.23000 234.946
40.40000 206.041
40.57000 203.095
40.74000 218.841
40.91000 225.970
41.08000 207.361
41.25000 200.927
41.42000 212.987
41.59000 202.432
41.76000 206.531
41.93000 222.999
42.10000 213.606
42.27000 213.095
42.44000 211.436
42.61000 204.566
42.78000 209.204
42.95000 208.424
43.12000 203.875
43.29000 192.975
43.46000 203.454
43.63000 184.358
43.80000 200.555
43.97000 187.962
44.14000 184.169
44.31000 203.969
44.48000 207.182
44.65000 207.463
44.82000 226.266
44.99000 238.229
45.16000 232.698
45.33000 226.521
45.50000 201.234
45.67000 198.140
45.84000 193.882
46.01000 187.021
46.18000 179.097
46.35000 167.748
46.52000 187.276
46.69000 170.684
46.86000 169.658
47.03000 176.053
47.20000 167.017
47.37000 169.855
47.54000 165.571
47.71000 168.152
47.88000 159.746
48.05000 165.367
48.22000 175.116
48.39000 161.159
48.56000 166.123
48.73000 164.002
48.90000 148.728
49.07000 157.131
49.24000 164.785
49.41000 146.108
49.58000 144.466
49.75000 155.013
49.92000 163.458
50.09000 146.249
50.26000 140.874
50.43000 160.860
50.60000 164.754
50.77000 163.930
50.94000 160.131
51.11000 146.452
51.28000 147.701
51.45000 144.405
51.62000 141.653
51.79000 138.473
51.96000 143.931
52.13000 138.774
52.30000 133.683
52.47000 136.695
52.64000 140.549
52.81000 139.398
52.98000 132.716
53.15000 150.601
53.32000 159.510
53.49000 151.255
53.66000 153.303
53.83000 150.249
54.00000 147.565
54.17000 133.588
54.34000 139.869
54.51000 152.831
54.68000 134.744
54.85000 143.626
55.02000 143.969
55.19000 143.324
55.36000 163.640
55.53000 215.957
55.70000 313.272
55.87000 493.504
56.04000 533.859
56.21000 335.166
56.38000 193.332
56.55000 159.549
56.72000 140.300
56.89000 138.954
57.06000 135.682
57.23000 133.044
57.40000 132.263
57.57000 128.828
57.74000 128.730
57.91000 120.019
58.08000 124.428
58.25000 122.399
58.42000 123.850
58.59000 118.037
58.76000 119.591
58.93000 114.107
59.10000 123.502
59.27000 115.948
59.44000 111.444
59.61000 117.470
59.78000 116.311
59.95000 114.255
60.12000 119.617
60.29000 113.796
60.46000 120.933
60.63000 110.654
60.80000 118.308
60.97000 117.703
61.14000 119.466
61.31000 128.873
61.48000 129.229
61.65000 293.242
61.82000 199.622
61.99000 132.444
62.16000 132.494
62.33000 126.570
62.50000 127.026
62.67000 126.058
62.84000 133.740
63.01000 120.707
63.18000 130.632
63.35000 132.434
63.52000 130.457
63.69000 127.987
63.86000 145.085
64.03000 146.269
64.20000 144.690
64.37000 152.630
64.54000 162.059
64.71000 169.394
64.88000 178.038
65.05000 205.011
65.22000 212.428
65.39000 271.667
65.56000 322.038
65.73000 905.325
65.90000 1838.611
66.07000 540.290
66.24000 372.204
66.41000 612.671
66.58000 421.457
66.75000 337.948
66.92000 353.656
67.09000 382.798
67.26000 366.089
67.43000 415.522
67.60000 421.681
67.77000 446.535
67.94000 481.465
68.11000 529.160
68.28000 568.382
68.45000 635.388
68.62000 847.036
68.79000 1543.791
68.96000 6978.867
69.13000 42369.746
69.30000 24434.623
69.47000 7012.677
69.64000 903.636
69.81000 637.634
69.98000 514.966
70.00000 509.154