File: XRD/08-10-2025 Dep 7/XY Data/BTO_Mapping_Theta2Theta_08-10-2025_001_21_-4-181_39-781.xy
20.00000 474.245
20.17000 469.491
20.34000 466.588
20.51000 466.663
20.68000 477.459
20.85000 472.870
21.02000 465.554
21.19000 460.870
21.36000 476.282
21.53000 452.889
21.70000 467.565
21.87000 477.803
22.04000 483.531
22.21000 514.766
22.38000 482.577
22.55000 448.695
22.72000 448.200
22.89000 452.329
23.06000 424.545
23.23000 427.555
23.40000 432.262
23.57000 444.615
23.74000 458.220
23.91000 520.126
24.08000 520.616
24.25000 466.238
24.42000 417.572
24.59000 398.355
24.76000 414.114
24.93000 408.678
25.10000 394.290
25.27000 409.347
25.44000 385.482
25.61000 407.558
25.78000 404.822
25.95000 403.449
26.12000 387.911
26.29000 382.116
26.46000 371.375
26.63000 381.581
26.80000 394.501
26.97000 379.930
27.14000 386.861
27.31000 381.852
27.48000 393.709
27.65000 381.444
27.82000 358.987
27.99000 361.492
28.16000 377.367
28.33000 365.923
28.50000 384.879
28.67000 360.992
28.84000 358.122
29.01000 362.514
29.18000 349.610
29.35000 360.448
29.52000 358.764
29.69000 347.064
29.86000 359.520
30.03000 382.616
30.20000 393.039
30.37000 371.108
30.54000 366.660
30.71000 386.698
30.88000 383.876
31.05000 485.405
31.22000 795.722
31.39000 1224.333
31.56000 908.173
31.73000 489.138
31.90000 391.137
32.07000 377.160
32.24000 369.750
32.41000 332.307
32.58000 323.021
32.75000 324.556
32.92000 307.966
33.09000 316.500
33.26000 306.275
33.43000 282.479
33.60000 293.004
33.77000 309.514
33.94000 308.969
34.11000 317.820
34.28000 350.723
34.45000 344.802
34.62000 316.595
34.79000 289.777
34.96000 284.931
35.13000 269.738
35.30000 266.951
35.47000 270.703
35.64000 271.555
35.81000 275.426
35.98000 269.245
36.15000 253.297
36.32000 274.248
36.49000 274.315
36.66000 258.660
36.83000 265.621
37.00000 269.191
37.17000 264.854
37.34000 259.970
37.51000 270.394
37.68000 257.959
37.85000 261.619
38.02000 265.355
38.19000 259.378
38.36000 281.708
38.53000 488.408
38.70000 830.165
38.87000 654.456
39.04000 322.557
39.21000 238.990
39.38000 234.843
39.55000 248.232
39.72000 232.756
39.89000 237.521
40.06000 230.941
40.23000 231.431
40.40000 225.576
40.57000 219.290
40.74000 225.134
40.91000 213.982
41.08000 220.226
41.25000 212.754
41.42000 204.068
41.59000 208.821
41.76000 207.180
41.93000 209.511
42.10000 213.317
42.27000 214.780
42.44000 212.721
42.61000 214.277
42.78000 213.486
42.95000 193.627
43.12000 198.476
43.29000 207.456
43.46000 191.062
43.63000 186.200
43.80000 185.197
43.97000 183.580
44.14000 193.167
44.31000 202.019
44.48000 211.281
44.65000 217.089
44.82000 222.391
44.99000 236.736
45.16000 236.189
45.33000 203.933
45.50000 206.734
45.67000 208.587
45.84000 193.148
46.01000 184.163
46.18000 169.246
46.35000 182.724
46.52000 180.379
46.69000 168.775
46.86000 175.618
47.03000 174.724
47.20000 163.591
47.37000 161.791
47.54000 166.388
47.71000 167.077
47.88000 157.895
48.05000 163.169
48.22000 181.796
48.39000 163.194
48.56000 159.554
48.73000 150.987
48.90000 165.122
49.07000 151.369
49.24000 160.904
49.41000 159.809
49.58000 168.384
49.75000 149.268
49.92000 161.884
50.09000 156.763
50.26000 164.553
50.43000 158.356
50.60000 157.085
50.77000 152.215
50.94000 163.196
51.11000 154.270
51.28000 144.360
51.45000 143.335
51.62000 144.677
51.79000 144.263
51.96000 138.281
52.13000 139.099
52.30000 143.140
52.47000 150.083
52.64000 148.452
52.81000 137.097
52.98000 134.680
53.15000 138.628
53.32000 151.652
53.49000 154.838
53.66000 145.021
53.83000 141.135
54.00000 138.249
54.17000 156.793
54.34000 132.345
54.51000 147.616
54.68000 132.699
54.85000 147.000
55.02000 141.472
55.19000 141.703
55.36000 168.697
55.53000 203.331
55.70000 264.506
55.87000 416.759
56.04000 432.395
56.21000 310.003
56.38000 207.328
56.55000 159.876
56.72000 133.333
56.89000 132.364
57.06000 126.147
57.23000 127.627
57.40000 137.348
57.57000 121.603
57.74000 131.554
57.91000 125.116
58.08000 115.906
58.25000 129.412
58.42000 111.859
58.59000 112.697
58.76000 125.365
58.93000 119.396
59.10000 121.902
59.27000 120.591
59.44000 119.507
59.61000 118.864
59.78000 108.410
59.95000 111.697
60.12000 111.505
60.29000 104.913
60.46000 121.405
60.63000 121.461
60.80000 115.379
60.97000 128.812
61.14000 132.100
61.31000 132.507
61.48000 136.281
61.65000 267.657
61.82000 202.313
61.99000 134.788
62.16000 134.290
62.33000 137.352
62.50000 130.230
62.67000 129.300
62.84000 133.804
63.01000 134.345
63.18000 136.310
63.35000 147.741
63.52000 140.603
63.69000 142.397
63.86000 136.798
64.03000 141.026
64.20000 147.008
64.37000 145.589
64.54000 170.707
64.71000 172.377
64.88000 186.248
65.05000 190.692
65.22000 210.492
65.39000 248.234
65.56000 326.866
65.73000 865.496
65.90000 1886.262
66.07000 532.016
66.24000 375.481
66.41000 605.320
66.58000 433.137
66.75000 351.466
66.92000 368.112
67.09000 365.751
67.26000 392.064
67.43000 409.616
67.60000 439.129
67.77000 470.984
67.94000 484.922
68.11000 524.989
68.28000 564.351
68.45000 650.938
68.62000 857.486
68.79000 1559.778
68.96000 6572.771
69.13000 42745.656
69.30000 25338.445
69.47000 7541.988
69.64000 954.713
69.81000 622.749
69.98000 518.833
70.00000 500.654