File: XRD/08-10-2025 Dep 7/XY Data/BTO_Mapping_Theta2Theta_08-10-2025_001_26_-8-090_5-878.xy
20.00000 476.013
20.17000 490.896
20.34000 473.564
20.51000 457.678
20.68000 466.710
20.85000 445.283
21.02000 450.760
21.19000 452.840
21.36000 485.746
21.53000 475.509
21.70000 466.411
21.87000 492.664
22.04000 533.031
22.21000 516.728
22.38000 471.613
22.55000 447.733
22.72000 445.596
22.89000 433.873
23.06000 443.246
23.23000 432.329
23.40000 432.369
23.57000 417.362
23.74000 457.822
23.91000 473.500
24.08000 460.791
24.25000 453.129
24.42000 423.114
24.59000 427.429
24.76000 394.070
24.93000 402.949
25.10000 405.072
25.27000 401.798
25.44000 396.680
25.61000 398.590
25.78000 401.534
25.95000 394.348
26.12000 389.450
26.29000 385.937
26.46000 370.099
26.63000 384.818
26.80000 390.161
26.97000 366.899
27.14000 376.764
27.31000 356.342
27.48000 378.546
27.65000 378.344
27.82000 370.569
27.99000 370.679
28.16000 372.613
28.33000 360.719
28.50000 354.871
28.67000 350.272
28.84000 355.978
29.01000 362.841
29.18000 363.789
29.35000 370.600
29.52000 335.461
29.69000 351.717
29.86000 367.616
30.03000 375.893
30.20000 364.743
30.37000 346.463
30.54000 366.364
30.71000 345.518
30.88000 376.505
31.05000 471.249
31.22000 868.365
31.39000 1172.734
31.56000 751.329
31.73000 431.617
31.90000 341.255
32.07000 335.832
32.24000 323.007
32.41000 325.229
32.58000 309.541
32.75000 316.419
32.92000 327.846
33.09000 320.696
33.26000 294.678
33.43000 297.986
33.60000 292.568
33.77000 295.696
33.94000 313.513
34.11000 330.599
34.28000 352.822
34.45000 358.807
34.62000 322.056
34.79000 291.117
34.96000 275.676
35.13000 262.295
35.30000 282.746
35.47000 271.392
35.64000 270.816
35.81000 269.625
35.98000 268.967
36.15000 250.976
36.32000 260.853
36.49000 250.484
36.66000 260.955
36.83000 257.349
37.00000 284.193
37.17000 273.910
37.34000 279.985
37.51000 263.485
37.68000 249.553
37.85000 273.745
38.02000 253.114
38.19000 266.811
38.36000 357.190
38.53000 718.922
38.70000 1203.340
38.87000 834.203
39.04000 356.281
39.21000 260.027
39.38000 240.216
39.55000 242.381
39.72000 223.873
39.89000 230.715
40.06000 218.537
40.23000 218.675
40.40000 210.455
40.57000 233.422
40.74000 197.461
40.91000 214.946
41.08000 201.540
41.25000 215.227
41.42000 218.998
41.59000 205.974
41.76000 211.069
41.93000 213.341
42.10000 209.382
42.27000 215.275
42.44000 210.955
42.61000 199.266
42.78000 212.330
42.95000 195.551
43.12000 198.686
43.29000 199.810
43.46000 193.259
43.63000 195.406
43.80000 181.662
43.97000 181.306
44.14000 199.481
44.31000 197.775
44.48000 191.404
44.65000 212.611
44.82000 248.192
44.99000 250.854
45.16000 240.968
45.33000 254.673
45.50000 226.096
45.67000 205.064
45.84000 194.978
46.01000 191.618
46.18000 178.032
46.35000 179.104
46.52000 165.112
46.69000 171.137
46.86000 168.460
47.03000 162.009
47.20000 170.271
47.37000 176.888
47.54000 165.280
47.71000 159.784
47.88000 167.935
48.05000 156.447
48.22000 161.469
48.39000 156.686
48.56000 150.301
48.73000 163.359
48.90000 155.444
49.07000 141.563
49.24000 156.010
49.41000 163.579
49.58000 154.444
49.75000 150.639
49.92000 155.954
50.09000 156.791
50.26000 155.937
50.43000 164.929
50.60000 176.187
50.77000 166.405
50.94000 164.703
51.11000 142.858
51.28000 147.603
51.45000 137.988
51.62000 146.702
51.79000 148.789
51.96000 147.610
52.13000 139.341
52.30000 140.546
52.47000 142.493
52.64000 138.657
52.81000 133.348
52.98000 152.603
53.15000 160.555
53.32000 157.063
53.49000 152.664
53.66000 151.184
53.83000 144.268
54.00000 142.497
54.17000 139.534
54.34000 141.527
54.51000 138.301
54.68000 142.781
54.85000 140.565
55.02000 133.102
55.19000 155.536
55.36000 178.322
55.53000 232.638
55.70000 441.796
55.87000 686.252
56.04000 633.963
56.21000 374.500
56.38000 202.749
56.55000 150.992
56.72000 144.811
56.89000 145.839
57.06000 130.382
57.23000 128.151
57.40000 130.870
57.57000 122.712
57.74000 126.648
57.91000 131.606
58.08000 119.091
58.25000 122.078
58.42000 126.289
58.59000 120.732
58.76000 120.485
58.93000 117.931
59.10000 118.090
59.27000 120.073
59.44000 118.807
59.61000 114.296
59.78000 124.134
59.95000 108.519
60.12000 116.051
60.29000 120.488
60.46000 115.219
60.63000 127.511
60.80000 122.655
60.97000 117.262
61.14000 120.643
61.31000 121.712
61.48000 137.228
61.65000 281.142
61.82000 205.845
61.99000 127.864
62.16000 125.930
62.33000 125.743
62.50000 125.548
62.67000 115.287
62.84000 133.436
63.01000 124.131
63.18000 128.751
63.35000 132.198
63.52000 133.924
63.69000 139.483
63.86000 141.503
64.03000 149.270
64.20000 158.049
64.37000 150.514
64.54000 166.803
64.71000 155.702
64.88000 189.694
65.05000 199.240
65.22000 219.827
65.39000 257.917
65.56000 332.473
65.73000 915.672
65.90000 1999.336
66.07000 521.902
66.24000 378.237
66.41000 628.290
66.58000 418.315
66.75000 343.184
66.92000 359.064
67.09000 367.018
67.26000 391.290
67.43000 409.584
67.60000 438.703
67.77000 446.758
67.94000 472.462
68.11000 513.625
68.28000 557.402
68.45000 632.916
68.62000 874.045
68.79000 1553.066
68.96000 7520.217
69.13000 44780.996
69.30000 25902.201
69.47000 7281.783
69.64000 945.545
69.81000 639.327
69.98000 527.104
70.00000 521.167