File: XRD/08-10-2025 Dep 7/XY Data/BTO_Mapping_Theta2Theta_08-10-2025_001_24_-15-000_25-981.xy
20.00000 456.065
20.17000 459.130
20.34000 467.469
20.51000 468.819
20.68000 453.004
20.85000 462.340
21.02000 470.018
21.19000 463.929
21.36000 456.893
21.53000 468.128
21.70000 489.737
21.87000 484.710
22.04000 553.267
22.21000 524.722
22.38000 488.749
22.55000 457.416
22.72000 443.009
22.89000 438.192
23.06000 449.075
23.23000 430.166
23.40000 420.558
23.57000 424.736
23.74000 442.670
23.91000 471.708
24.08000 479.774
24.25000 418.532
24.42000 412.582
24.59000 408.983
24.76000 395.183
24.93000 403.729
25.10000 401.482
25.27000 413.329
25.44000 401.684
25.61000 414.169
25.78000 371.283
25.95000 379.187
26.12000 368.688
26.29000 380.140
26.46000 395.682
26.63000 382.873
26.80000 381.672
26.97000 379.486
27.14000 386.063
27.31000 374.300
27.48000 363.164
27.65000 381.805
27.82000 356.947
27.99000 381.621
28.16000 358.215
28.33000 355.953
28.50000 365.045
28.67000 373.643
28.84000 338.898
29.01000 338.493
29.18000 371.572
29.35000 341.502
29.52000 349.987
29.69000 349.357
29.86000 369.288
30.03000 353.351
30.20000 360.326
30.37000 372.007
30.54000 358.379
30.71000 348.955
30.88000 386.867
31.05000 432.353
31.22000 727.962
31.39000 1083.347
31.56000 793.902
31.73000 440.362
31.90000 358.822
32.07000 337.137
32.24000 327.137
32.41000 329.011
32.58000 323.505
32.75000 305.922
32.92000 313.890
33.09000 291.268
33.26000 301.758
33.43000 282.974
33.60000 295.621
33.77000 300.425
33.94000 304.168
34.11000 311.127
34.28000 325.636
34.45000 340.061
34.62000 320.417
34.79000 293.062
34.96000 273.782
35.13000 274.052
35.30000 269.981
35.47000 261.984
35.64000 262.579
35.81000 261.573
35.98000 247.160
36.15000 250.051
36.32000 249.470
36.49000 254.143
36.66000 257.144
36.83000 273.860
37.00000 284.054
37.17000 262.801
37.34000 261.035
37.51000 265.582
37.68000 227.615
37.85000 256.765
38.02000 245.586
38.19000 269.580
38.36000 322.422
38.53000 614.079
38.70000 1092.756
38.87000 859.196
39.04000 357.884
39.21000 246.227
39.38000 221.351
39.55000 230.383
39.72000 222.991
39.89000 217.051
40.06000 220.936
40.23000 217.846
40.40000 220.356
40.57000 224.427
40.74000 211.506
40.91000 219.198
41.08000 218.789
41.25000 224.909
41.42000 218.275
41.59000 214.921
41.76000 220.859
41.93000 208.799
42.10000 208.814
42.27000 204.152
42.44000 213.399
42.61000 203.108
42.78000 207.866
42.95000 206.944
43.12000 205.446
43.29000 196.466
43.46000 196.419
43.63000 181.101
43.80000 192.882
43.97000 207.761
44.14000 199.810
44.31000 197.185
44.48000 204.742
44.65000 218.617
44.82000 231.101
44.99000 266.328
45.16000 251.552
45.33000 228.594
45.50000 224.745
45.67000 206.383
45.84000 183.958
46.01000 185.997
46.18000 187.517
46.35000 179.668
46.52000 177.549
46.69000 169.495
46.86000 166.561
47.03000 161.346
47.20000 177.838
47.37000 155.629
47.54000 167.820
47.71000 159.426
47.88000 172.803
48.05000 157.428
48.22000 147.360
48.39000 153.075
48.56000 161.810
48.73000 154.642
48.90000 145.569
49.07000 148.880
49.24000 155.745
49.41000 148.863
49.58000 152.271
49.75000 168.426
49.92000 152.026
50.09000 156.631
50.26000 148.040
50.43000 160.152
50.60000 163.302
50.77000 154.173
50.94000 156.535
51.11000 146.311
51.28000 154.465
51.45000 137.690
51.62000 130.209
51.79000 148.231
51.96000 146.896
52.13000 141.710
52.30000 142.587
52.47000 144.353
52.64000 143.920
52.81000 133.350
52.98000 133.650
53.15000 156.732
53.32000 162.969
53.49000 166.488
53.66000 143.266
53.83000 147.847
54.00000 142.673
54.17000 143.079
54.34000 130.852
54.51000 128.614
54.68000 138.290
54.85000 141.515
55.02000 142.387
55.19000 146.391
55.36000 160.546
55.53000 222.032
55.70000 378.921
55.87000 619.439
56.04000 644.536
56.21000 397.040
56.38000 215.584
56.55000 146.941
56.72000 134.699
56.89000 131.254
57.06000 120.033
57.23000 125.100
57.40000 126.756
57.57000 125.916
57.74000 127.720
57.91000 123.660
58.08000 123.400
58.25000 120.399
58.42000 124.524
58.59000 127.727
58.76000 130.508
58.93000 125.863
59.10000 119.578
59.27000 130.172
59.44000 121.348
59.61000 120.366
59.78000 108.431
59.95000 118.272
60.12000 119.685
60.29000 112.479
60.46000 115.542
60.63000 114.679
60.80000 116.404
60.97000 128.184
61.14000 123.913
61.31000 126.533
61.48000 129.698
61.65000 279.821
61.82000 223.698
61.99000 123.037
62.16000 127.838
62.33000 122.971
62.50000 126.978
62.67000 125.021
62.84000 128.961
63.01000 116.544
63.18000 143.247
63.35000 138.732
63.52000 136.236
63.69000 134.679
63.86000 133.874
64.03000 146.128
64.20000 139.077
64.37000 156.633
64.54000 170.914
64.71000 158.395
64.88000 185.569
65.05000 186.796
65.22000 206.029
65.39000 239.813
65.56000 314.235
65.73000 873.398
65.90000 1947.674
66.07000 545.016
66.24000 375.085
66.41000 602.215
66.58000 437.394
66.75000 350.943
66.92000 359.207
67.09000 390.388
67.26000 394.836
67.43000 409.988
67.60000 424.494
67.77000 447.382
67.94000 486.729
68.11000 481.866
68.28000 556.025
68.45000 651.977
68.62000 847.265
68.79000 1537.387
68.96000 6519.841
69.13000 43488.609
69.30000 25893.559
69.47000 7859.664
69.64000 951.527
69.81000 650.889
69.98000 519.874
70.00000 498.609