File: XRD/08-10-2025 Dep 7/XY Data/BTO_Mapping_Theta2Theta_08-10-2025_001_43_-10-000_-17-321.xy
20.00000 473.658
20.17000 479.946
20.34000 485.349
20.51000 469.754
20.68000 466.975
20.85000 485.972
21.02000 482.586
21.19000 463.800
21.36000 476.185
21.53000 467.917
21.70000 478.531
21.87000 518.482
22.04000 573.805
22.21000 523.975
22.38000 466.043
22.55000 425.272
22.72000 440.019
22.89000 450.449
23.06000 423.581
23.23000 432.278
23.40000 432.582
23.57000 438.731
23.74000 447.353
23.91000 471.066
24.08000 464.662
24.25000 447.136
24.42000 418.314
24.59000 399.797
24.76000 426.314
24.93000 398.449
25.10000 401.227
25.27000 386.285
25.44000 391.101
25.61000 407.878
25.78000 389.628
25.95000 408.614
26.12000 381.777
26.29000 372.466
26.46000 395.572
26.63000 378.316
26.80000 377.292
26.97000 374.556
27.14000 379.899
27.31000 390.021
27.48000 366.517
27.65000 378.125
27.82000 377.890
27.99000 375.951
28.16000 353.503
28.33000 366.510
28.50000 353.440
28.67000 360.568
28.84000 368.456
29.01000 359.155
29.18000 334.818
29.35000 349.911
29.52000 359.146
29.69000 358.007
29.86000 396.994
30.03000 411.387
30.20000 384.136
30.37000 367.281
30.54000 375.098
30.71000 365.205
30.88000 400.855
31.05000 644.103
31.22000 1374.884
31.39000 1742.249
31.56000 901.036
31.73000 453.018
31.90000 371.245
32.07000 350.129
32.24000 336.374
32.41000 320.538
32.58000 311.947
32.75000 321.853
32.92000 318.845
33.09000 297.908
33.26000 309.715
33.43000 291.979
33.60000 299.253
33.77000 301.101
33.94000 310.934
34.11000 319.808
34.28000 331.784
34.45000 335.579
34.62000 318.293
34.79000 292.248
34.96000 276.925
35.13000 262.882
35.30000 273.557
35.47000 267.831
35.64000 267.395
35.81000 259.723
35.98000 250.908
36.15000 255.993
36.32000 256.830
36.49000 252.201
36.66000 258.041
36.83000 275.055
37.00000 293.976
37.17000 271.382
37.34000 257.102
37.51000 253.818
37.68000 247.656
37.85000 257.294
38.02000 267.952
38.19000 276.579
38.36000 402.666
38.53000 830.184
38.70000 1184.444
38.87000 782.060
39.04000 343.217
39.21000 249.230
39.38000 243.244
39.55000 241.765
39.72000 234.309
39.89000 241.198
40.06000 228.312
40.23000 223.113
40.40000 227.247
40.57000 209.275
40.74000 219.960
40.91000 198.482
41.08000 205.613
41.25000 211.023
41.42000 202.194
41.59000 214.256
41.76000 206.870
41.93000 208.141
42.10000 203.665
42.27000 207.605
42.44000 202.095
42.61000 211.736
42.78000 191.658
42.95000 196.046
43.12000 197.219
43.29000 199.979
43.46000 199.786
43.63000 190.344
43.80000 187.784
43.97000 199.039
44.14000 196.467
44.31000 195.047
44.48000 212.452
44.65000 229.114
44.82000 248.103
44.99000 286.093
45.16000 264.325
45.33000 221.021
45.50000 227.105
45.67000 194.469
45.84000 200.185
46.01000 179.560
46.18000 173.898
46.35000 186.604
46.52000 186.141
46.69000 177.408
46.86000 172.822
47.03000 170.467
47.20000 162.104
47.37000 162.137
47.54000 160.351
47.71000 163.182
47.88000 170.486
48.05000 152.819
48.22000 166.056
48.39000 165.120
48.56000 155.878
48.73000 161.547
48.90000 160.796
49.07000 163.574
49.24000 153.211
49.41000 160.060
49.58000 150.976
49.75000 159.276
49.92000 144.702
50.09000 154.251
50.26000 164.013
50.43000 192.926
50.60000 202.251
50.77000 187.130
50.94000 161.325
51.11000 153.562
51.28000 149.817
51.45000 131.274
51.62000 139.970
51.79000 143.113
51.96000 137.435
52.13000 149.686
52.30000 145.756
52.47000 138.482
52.64000 151.424
52.81000 139.986
52.98000 141.837
53.15000 148.720
53.32000 157.285
53.49000 152.059
53.66000 149.137
53.83000 142.409
54.00000 134.117
54.17000 143.126
54.34000 138.614
54.51000 161.964
54.68000 149.740
54.85000 155.049
55.02000 148.395
55.19000 165.435
55.36000 195.676
55.53000 313.845
55.70000 570.086
55.87000 712.669
56.04000 578.674
56.21000 322.716
56.38000 200.017
56.55000 150.658
56.72000 148.249
56.89000 133.220
57.06000 118.362
57.23000 129.752
57.40000 120.693
57.57000 126.416
57.74000 129.863
57.91000 121.514
58.08000 128.647
58.25000 118.715
58.42000 117.447
58.59000 127.895
58.76000 125.480
58.93000 115.174
59.10000 113.490
59.27000 112.361
59.44000 121.038
59.61000 127.478
59.78000 119.351
59.95000 115.530
60.12000 114.400
60.29000 120.749
60.46000 114.487
60.63000 114.682
60.80000 109.379
60.97000 121.860
61.14000 122.557
61.31000 124.969
61.48000 130.479
61.65000 289.033
61.82000 205.361
61.99000 129.193
62.16000 131.242
62.33000 120.877
62.50000 131.513
62.67000 131.318
62.84000 137.954
63.01000 125.409
63.18000 146.648
63.35000 134.832
63.52000 130.234
63.69000 142.168
63.86000 144.453
64.03000 136.838
64.20000 146.080
64.37000 140.603
64.54000 156.343
64.71000 164.814
64.88000 178.245
65.05000 215.397
65.22000 248.982
65.39000 284.477
65.56000 361.836
65.73000 1020.406
65.90000 2076.357
66.07000 562.308
66.24000 395.982
66.41000 648.588
66.58000 423.747
66.75000 363.202
66.92000 359.024
67.09000 379.344
67.26000 387.575
67.43000 427.719
67.60000 427.259
67.77000 471.377
67.94000 480.797
68.11000 509.872
68.28000 564.004
68.45000 656.151
68.62000 875.405
68.79000 1600.720
68.96000 8436.001
69.13000 47383.629
69.30000 26954.314
69.47000 7375.398
69.64000 943.208
69.81000 639.996
69.98000 529.083
70.00000 503.809