File: XRD/08-10-2025 Dep 7/XY Data/BTO_Mapping_Theta2Theta_08-10-2025_001_60_27-406_-12-202.xy
20.00000 463.032
20.17000 479.888
20.34000 477.502
20.51000 482.536
20.68000 468.437
20.85000 493.504
21.02000 480.282
21.19000 477.822
21.36000 472.724
21.53000 469.966
21.70000 471.553
21.87000 495.605
22.04000 489.079
22.21000 503.391
22.38000 476.470
22.55000 460.526
22.72000 458.087
22.89000 448.050
23.06000 441.857
23.23000 453.646
23.40000 462.095
23.57000 483.217
23.74000 490.101
23.91000 551.827
24.08000 552.616
24.25000 464.531
24.42000 436.260
24.59000 445.514
24.76000 424.202
24.93000 415.999
25.10000 412.415
25.27000 413.295
25.44000 417.134
25.61000 401.018
25.78000 393.773
25.95000 400.090
26.12000 414.816
26.29000 394.974
26.46000 388.491
26.63000 386.855
26.80000 377.395
26.97000 388.502
27.14000 376.693
27.31000 374.887
27.48000 381.444
27.65000 383.013
27.82000 377.986
27.99000 378.987
28.16000 374.340
28.33000 372.975
28.50000 362.708
28.67000 372.567
28.84000 375.324
29.01000 365.205
29.18000 362.733
29.35000 366.447
29.52000 361.411
29.69000 371.932
29.86000 386.578
30.03000 373.426
30.20000 387.531
30.37000 373.102
30.54000 357.955
30.71000 388.752
30.88000 424.690
31.05000 522.575
31.22000 824.668
31.39000 1025.990
31.56000 693.284
31.73000 449.786
31.90000 360.692
32.07000 363.409
32.24000 358.712
32.41000 349.051
32.58000 344.618
32.75000 320.002
32.92000 320.391
33.09000 297.508
33.26000 295.747
33.43000 279.558
33.60000 299.125
33.77000 310.932
33.94000 319.794
34.11000 323.862
34.28000 341.305
34.45000 336.042
34.62000 302.858
34.79000 279.495
34.96000 271.076
35.13000 267.355
35.30000 269.300
35.47000 264.828
35.64000 266.233
35.81000 255.854
35.98000 251.460
36.15000 250.456
36.32000 260.672
36.49000 254.460
36.66000 260.110
36.83000 250.658
37.00000 256.064
37.17000 265.709
37.34000 251.143
37.51000 247.410
37.68000 242.447
37.85000 255.559
38.02000 271.581
38.19000 280.709
38.36000 329.341
38.53000 557.883
38.70000 810.408
38.87000 522.773
39.04000 301.127
39.21000 268.210
39.38000 238.240
39.55000 253.044
39.72000 244.624
39.89000 237.915
40.06000 230.559
40.23000 229.576
40.40000 229.778
40.57000 215.121
40.74000 213.342
40.91000 225.048
41.08000 227.794
41.25000 221.558
41.42000 211.068
41.59000 205.424
41.76000 225.787
41.93000 208.819
42.10000 228.734
42.27000 232.484
42.44000 227.038
42.61000 209.438
42.78000 209.437
42.95000 214.490
43.12000 200.006
43.29000 209.801
43.46000 199.787
43.63000 204.059
43.80000 190.729
43.97000 191.351
44.14000 199.321
44.31000 199.190
44.48000 208.974
44.65000 216.317
44.82000 244.850
44.99000 234.597
45.16000 247.574
45.33000 208.823
45.50000 208.002
45.67000 198.691
45.84000 180.184
46.01000 187.240
46.18000 175.242
46.35000 178.346
46.52000 175.800
46.69000 178.886
46.86000 181.752
47.03000 171.526
47.20000 163.933
47.37000 160.960
47.54000 171.746
47.71000 175.242
47.88000 154.830
48.05000 162.926
48.22000 155.400
48.39000 169.688
48.56000 158.580
48.73000 164.885
48.90000 160.521
49.07000 148.742
49.24000 162.437
49.41000 146.110
49.58000 155.668
49.75000 157.142
49.92000 163.505
50.09000 149.506
50.26000 159.998
50.43000 162.897
50.60000 168.705
50.77000 165.059
50.94000 162.234
51.11000 157.090
51.28000 152.227
51.45000 151.189
51.62000 132.984
51.79000 147.699
51.96000 148.804
52.13000 144.057
52.30000 144.182
52.47000 146.249
52.64000 134.313
52.81000 142.751
52.98000 144.627
53.15000 144.577
53.32000 157.301
53.49000 137.077
53.66000 150.237
53.83000 149.478
54.00000 148.195
54.17000 136.531
54.34000 148.121
54.51000 145.257
54.68000 150.820
54.85000 144.194
55.02000 150.652
55.19000 161.925
55.36000 171.574
55.53000 201.730
55.70000 284.808
55.87000 352.770
56.04000 343.376
56.21000 246.079
56.38000 186.123
56.55000 156.867
56.72000 134.100
56.89000 139.272
57.06000 127.850
57.23000 129.588
57.40000 136.649
57.57000 128.835
57.74000 130.731
57.91000 123.858
58.08000 116.143
58.25000 121.272
58.42000 116.104
58.59000 125.881
58.76000 125.771
58.93000 118.453
59.10000 123.167
59.27000 118.450
59.44000 117.955
59.61000 117.804
59.78000 106.439
59.95000 121.352
60.12000 117.092
60.29000 121.481
60.46000 123.307
60.63000 115.690
60.80000 122.598
60.97000 126.066
61.14000 126.290
61.31000 125.111
61.48000 139.951
61.65000 285.447
61.82000 188.972
61.99000 135.370
62.16000 130.805
62.33000 127.638
62.50000 130.694
62.67000 126.997
62.84000 131.567
63.01000 130.215
63.18000 137.841
63.35000 134.237
63.52000 134.693
63.69000 137.139
63.86000 141.963
64.03000 151.603
64.20000 161.221
64.37000 157.140
64.54000 171.903
64.71000 159.080
64.88000 186.740
65.05000 190.265
65.22000 220.353
65.39000 250.452
65.56000 314.638
65.73000 1149.846
65.90000 1902.914
66.07000 442.705
66.24000 397.444
66.41000 614.437
66.58000 393.530
66.75000 364.115
66.92000 353.907
67.09000 390.083
67.26000 384.302
67.43000 443.996
67.60000 434.864
67.77000 457.142
67.94000 481.132
68.11000 529.168
68.28000 583.438
68.45000 656.191
68.62000 959.179
68.79000 1685.795
68.96000 12289.173
69.13000 44853.836
69.30000 22473.762
69.47000 4428.809
69.64000 880.629
69.81000 593.130
69.98000 501.955
70.00000 488.484