File: XRD/08-10-2025 Dep 7/XY Data/BTO_Mapping_Theta2Theta_08-10-2025_001_13_26-765_29-726.xy
20.00000 456.042
20.17000 479.925
20.34000 473.955
20.51000 466.958
20.68000 464.923
20.85000 455.930
21.02000 481.904
21.19000 452.949
21.36000 471.721
21.53000 455.030
21.70000 471.476
21.87000 483.486
22.04000 505.319
22.21000 483.074
22.38000 480.073
22.55000 452.525
22.72000 455.915
22.89000 459.629
23.06000 443.001
23.23000 432.342
23.40000 458.271
23.57000 452.556
23.74000 476.309
23.91000 519.607
24.08000 513.771
24.25000 448.164
24.42000 409.009
24.59000 409.074
24.76000 417.695
24.93000 404.557
25.10000 410.059
25.27000 393.799
25.44000 409.377
25.61000 396.514
25.78000 407.545
25.95000 374.451
26.12000 403.494
26.29000 388.841
26.46000 375.883
26.63000 386.280
26.80000 377.823
26.97000 376.245
27.14000 366.309
27.31000 377.756
27.48000 388.344
27.65000 376.514
27.82000 364.794
27.99000 389.395
28.16000 375.143
28.33000 383.573
28.50000 366.901
28.67000 372.927
28.84000 374.481
29.01000 345.015
29.18000 367.609
29.35000 375.894
29.52000 364.198
29.69000 360.383
29.86000 379.666
30.03000 372.286
30.20000 387.891
30.37000 394.164
30.54000 372.761
30.71000 395.530
30.88000 417.510
31.05000 505.560
31.22000 811.284
31.39000 1025.098
31.56000 725.592
31.73000 454.392
31.90000 394.126
32.07000 374.157
32.24000 357.133
32.41000 334.685
32.58000 334.887
32.75000 314.473
32.92000 316.583
33.09000 321.091
33.26000 291.789
33.43000 297.286
33.60000 296.137
33.77000 285.088
33.94000 316.603
34.11000 329.230
34.28000 333.417
34.45000 328.884
34.62000 303.793
34.79000 288.925
34.96000 260.054
35.13000 264.332
35.30000 266.486
35.47000 279.217
35.64000 263.304
35.81000 259.982
35.98000 259.735
36.15000 252.183
36.32000 265.726
36.49000 259.648
36.66000 252.656
36.83000 251.749
37.00000 279.862
37.17000 255.041
37.34000 261.319
37.51000 259.668
37.68000 253.370
37.85000 258.352
38.02000 253.784
38.19000 268.816
38.36000 299.657
38.53000 428.623
38.70000 570.493
38.87000 415.825
39.04000 272.672
39.21000 259.660
39.38000 242.660
39.55000 248.634
39.72000 234.046
39.89000 238.434
40.06000 230.724
40.23000 222.373
40.40000 225.796
40.57000 229.688
40.74000 212.584
40.91000 204.076
41.08000 205.588
41.25000 215.661
41.42000 220.612
41.59000 205.918
41.76000 210.812
41.93000 218.364
42.10000 226.303
42.27000 207.876
42.44000 210.038
42.61000 221.899
42.78000 207.224
42.95000 204.324
43.12000 204.261
43.29000 190.199
43.46000 200.382
43.63000 196.618
43.80000 201.436
43.97000 208.355
44.14000 202.754
44.31000 200.520
44.48000 215.507
44.65000 216.431
44.82000 209.684
44.99000 228.808
45.16000 226.477
45.33000 210.557
45.50000 198.215
45.67000 185.258
45.84000 188.947
46.01000 176.922
46.18000 170.127
46.35000 169.611
46.52000 180.737
46.69000 174.317
46.86000 182.404
47.03000 174.220
47.20000 166.850
47.37000 167.640
47.54000 173.540
47.71000 159.706
47.88000 155.142
48.05000 162.286
48.22000 174.077
48.39000 162.646
48.56000 165.742
48.73000 159.631
48.90000 157.811
49.07000 161.667
49.24000 160.844
49.41000 157.312
49.58000 149.877
49.75000 144.358
49.92000 154.532
50.09000 167.491
50.26000 156.876
50.43000 163.443
50.60000 175.444
50.77000 180.160
50.94000 158.313
51.11000 135.331
51.28000 154.403
51.45000 141.787
51.62000 149.063
51.79000 138.525
51.96000 135.997
52.13000 147.475
52.30000 138.135
52.47000 151.988
52.64000 139.984
52.81000 137.517
52.98000 144.748
53.15000 140.914
53.32000 149.214
53.49000 136.207
53.66000 135.767
53.83000 144.062
54.00000 135.464
54.17000 135.892
54.34000 131.312
54.51000 135.492
54.68000 137.351
54.85000 135.638
55.02000 145.684
55.19000 143.359
55.36000 154.842
55.53000 190.939
55.70000 202.969
55.87000 273.220
56.04000 253.332
56.21000 207.920
56.38000 173.116
56.55000 143.089
56.72000 136.561
56.89000 133.828
57.06000 142.654
57.23000 140.144
57.40000 133.831
57.57000 127.150
57.74000 126.604
57.91000 133.397
58.08000 122.398
58.25000 125.560
58.42000 128.735
58.59000 125.477
58.76000 127.422
58.93000 121.071
59.10000 114.290
59.27000 121.494
59.44000 122.342
59.61000 121.953
59.78000 125.944
59.95000 114.925
60.12000 126.358
60.29000 116.830
60.46000 124.900
60.63000 112.545
60.80000 118.029
60.97000 124.713
61.14000 133.070
61.31000 127.540
61.48000 141.038
61.65000 302.114
61.82000 187.179
61.99000 128.221
62.16000 123.946
62.33000 131.142
62.50000 136.631
62.67000 133.971
62.84000 131.175
63.01000 126.204
63.18000 142.656
63.35000 136.543
63.52000 139.616
63.69000 137.921
63.86000 146.731
64.03000 148.338
64.20000 158.316
64.37000 153.749
64.54000 168.919
64.71000 169.232
64.88000 187.951
65.05000 192.306
65.22000 222.003
65.39000 248.998
65.56000 324.236
65.73000 1063.308
65.90000 1960.924
66.07000 471.169
66.24000 408.343
66.41000 640.664
66.58000 419.643
66.75000 358.537
66.92000 382.219
67.09000 380.392
67.26000 418.092
67.43000 440.185
67.60000 434.242
67.77000 462.651
67.94000 511.928
68.11000 533.438
68.28000 596.862
68.45000 677.846
68.62000 945.084
68.79000 1653.059
68.96000 10569.837
69.13000 45904.883
69.30000 23953.154
69.47000 5378.756
69.64000 931.391
69.81000 627.386
69.98000 504.120
70.00000 495.093