File: XRD/08-10-2025 Dep 7/XY Data/BTO_Mapping_Theta2Theta_08-10-2025_001_35_-19-563_-4-158.xy
20.00000 489.484
20.17000 472.326
20.34000 481.286
20.51000 457.822
20.68000 469.939
20.85000 474.506
21.02000 477.042
21.19000 464.926
21.36000 445.634
21.53000 467.499
21.70000 491.564
21.87000 539.108
22.04000 615.670
22.21000 562.419
22.38000 486.030
22.55000 473.790
22.72000 444.303
22.89000 440.573
23.06000 414.162
23.23000 436.182
23.40000 425.873
23.57000 440.428
23.74000 429.351
23.91000 445.087
24.08000 452.308
24.25000 427.446
24.42000 412.375
24.59000 425.835
24.76000 409.328
24.93000 393.769
25.10000 407.491
25.27000 404.201
25.44000 404.803
25.61000 400.124
25.78000 397.645
25.95000 387.218
26.12000 389.524
26.29000 385.309
26.46000 383.227
26.63000 374.161
26.80000 371.266
26.97000 370.979
27.14000 357.732
27.31000 374.248
27.48000 381.865
27.65000 370.052
27.82000 375.898
27.99000 373.448
28.16000 374.498
28.33000 359.864
28.50000 368.096
28.67000 359.313
28.84000 356.296
29.01000 381.225
29.18000 358.471
29.35000 347.074
29.52000 356.151
29.69000 364.962
29.86000 410.767
30.03000 420.573
30.20000 411.928
30.37000 366.505
30.54000 388.351
30.71000 381.684
30.88000 423.006
31.05000 738.339
31.22000 1815.015
31.39000 2478.892
31.56000 1251.010
31.73000 513.852
31.90000 382.284
32.07000 332.055
32.24000 343.229
32.41000 331.029
32.58000 321.207
32.75000 320.161
32.92000 326.711
33.09000 305.532
33.26000 296.206
33.43000 303.980
33.60000 298.475
33.77000 286.736
33.94000 306.748
34.11000 309.491
34.28000 321.690
34.45000 311.741
34.62000 299.870
34.79000 288.387
34.96000 285.290
35.13000 277.423
35.30000 263.168
35.47000 259.819
35.64000 270.575
35.81000 262.715
35.98000 249.556
36.15000 265.485
36.32000 270.541
36.49000 260.949
36.66000 251.805
36.83000 285.571
37.00000 282.984
37.17000 271.596
37.34000 251.463
37.51000 269.960
37.68000 250.312
37.85000 252.064
38.02000 258.601
38.19000 285.144
38.36000 367.828
38.53000 642.003
38.70000 845.225
38.87000 584.371
39.04000 308.038
39.21000 245.821
39.38000 242.460
39.55000 229.456
39.72000 225.646
39.89000 226.461
40.06000 235.227
40.23000 228.579
40.40000 210.038
40.57000 212.279
40.74000 229.811
40.91000 216.146
41.08000 213.472
41.25000 223.068
41.42000 215.487
41.59000 203.589
41.76000 203.021
41.93000 212.266
42.10000 208.234
42.27000 200.527
42.44000 199.120
42.61000 210.188
42.78000 203.185
42.95000 199.277
43.12000 209.777
43.29000 187.263
43.46000 210.991
43.63000 195.134
43.80000 202.710
43.97000 190.337
44.14000 201.535
44.31000 198.091
44.48000 206.235
44.65000 243.483
44.82000 280.096
44.99000 326.273
45.16000 297.413
45.33000 251.012
45.50000 219.701
45.67000 207.905
45.84000 194.371
46.01000 184.001
46.18000 181.432
46.35000 180.137
46.52000 165.108
46.69000 170.831
46.86000 167.059
47.03000 175.724
47.20000 162.258
47.37000 161.104
47.54000 151.303
47.71000 167.276
47.88000 159.690
48.05000 161.603
48.22000 162.971
48.39000 155.751
48.56000 164.815
48.73000 166.015
48.90000 152.379
49.07000 156.134
49.24000 159.808
49.41000 158.574
49.58000 151.153
49.75000 150.309
49.92000 154.513
50.09000 160.461
50.26000 172.351
50.43000 198.876
50.60000 224.476
50.77000 208.542
50.94000 180.273
51.11000 166.098
51.28000 151.310
51.45000 157.175
51.62000 143.833
51.79000 138.540
51.96000 135.790
52.13000 145.543
52.30000 145.463
52.47000 139.308
52.64000 149.082
52.81000 147.086
52.98000 145.467
53.15000 154.977
53.32000 162.678
53.49000 150.174
53.66000 143.475
53.83000 144.126
54.00000 135.636
54.17000 138.884
54.34000 141.237
54.51000 142.690
54.68000 142.545
54.85000 150.410
55.02000 151.651
55.19000 153.404
55.36000 216.458
55.53000 333.468
55.70000 569.993
55.87000 710.985
56.04000 520.208
56.21000 297.804
56.38000 186.370
56.55000 151.345
56.72000 143.124
56.89000 131.273
57.06000 132.862
57.23000 114.375
57.40000 137.382
57.57000 130.890
57.74000 119.842
57.91000 125.128
58.08000 122.164
58.25000 117.780
58.42000 129.717
58.59000 130.440
58.76000 120.167
58.93000 117.971
59.10000 112.809
59.27000 128.831
59.44000 120.140
59.61000 118.737
59.78000 123.719
59.95000 123.060
60.12000 116.501
60.29000 105.935
60.46000 116.298
60.63000 117.939
60.80000 120.937
60.97000 111.255
61.14000 118.959
61.31000 117.962
61.48000 128.013
61.65000 292.340
61.82000 233.178
61.99000 128.355
62.16000 122.515
62.33000 124.292
62.50000 131.856
62.67000 127.458
62.84000 131.185
63.01000 135.166
63.18000 132.238
63.35000 132.377
63.52000 138.800
63.69000 132.243
63.86000 143.334
64.03000 148.365
64.20000 148.826
64.37000 168.791
64.54000 166.168
64.71000 180.550
64.88000 194.441
65.05000 222.474
65.22000 270.703
65.39000 339.026
65.56000 399.270
65.73000 997.643
65.90000 2279.120
66.07000 641.750
66.24000 401.422
66.41000 685.450
66.58000 449.750
66.75000 365.868
66.92000 371.974
67.09000 390.356
67.26000 424.154
67.43000 431.566
67.60000 450.629
67.77000 473.888
67.94000 504.749
68.11000 518.183
68.28000 566.163
68.45000 647.992
68.62000 907.641
68.79000 1680.907
68.96000 7440.926
69.13000 49713.699
69.30000 30298.525
69.47000 9166.272
69.64000 1037.435
69.81000 647.263
69.98000 521.650
70.00000 493.406