File: XRD/08-10-2025 Dep 7/XY Data/BTO_Mapping_Theta2Theta_08-10-2025_001_27_-16-180_11-756.xy
20.00000 474.536
20.17000 475.601
20.34000 491.794
20.51000 480.508
20.68000 468.163
20.85000 449.150
21.02000 473.548
21.19000 474.219
21.36000 474.215
21.53000 449.127
21.70000 475.036
21.87000 499.712
22.04000 538.168
22.21000 540.183
22.38000 492.478
22.55000 461.365
22.72000 430.585
22.89000 436.849
23.06000 414.793
23.23000 439.257
23.40000 435.562
23.57000 432.191
23.74000 438.876
23.91000 462.567
24.08000 446.217
24.25000 432.214
24.42000 411.430
24.59000 381.805
24.76000 409.873
24.93000 415.713
25.10000 407.083
25.27000 393.745
25.44000 385.424
25.61000 394.025
25.78000 402.805
25.95000 385.316
26.12000 376.362
26.29000 373.707
26.46000 390.480
26.63000 388.051
26.80000 372.568
26.97000 353.502
27.14000 364.320
27.31000 380.724
27.48000 377.593
27.65000 357.707
27.82000 365.610
27.99000 356.253
28.16000 377.892
28.33000 364.009
28.50000 356.731
28.67000 351.501
28.84000 333.228
29.01000 358.321
29.18000 352.839
29.35000 362.358
29.52000 348.325
29.69000 364.433
29.86000 375.314
30.03000 401.544
30.20000 371.494
30.37000 360.042
30.54000 367.453
30.71000 362.963
30.88000 381.218
31.05000 523.485
31.22000 1054.932
31.39000 1489.095
31.56000 886.264
31.73000 460.321
31.90000 353.801
32.07000 353.414
32.24000 330.833
32.41000 310.862
32.58000 307.602
32.75000 306.950
32.92000 331.067
33.09000 310.130
33.26000 295.156
33.43000 312.228
33.60000 286.814
33.77000 299.453
33.94000 293.059
34.11000 327.147
34.28000 326.174
34.45000 329.406
34.62000 312.162
34.79000 288.612
34.96000 281.626
35.13000 269.006
35.30000 270.868
35.47000 267.657
35.64000 271.067
35.81000 274.169
35.98000 272.432
36.15000 265.873
36.32000 256.958
36.49000 257.122
36.66000 252.537
36.83000 278.403
37.00000 292.809
37.17000 274.379
37.34000 274.513
37.51000 260.745
37.68000 267.229
37.85000 253.233
38.02000 265.808
38.19000 261.595
38.36000 337.457
38.53000 713.908
38.70000 1161.605
38.87000 829.700
39.04000 355.909
39.21000 250.926
39.38000 240.617
39.55000 243.874
39.72000 234.309
39.89000 235.326
40.06000 220.174
40.23000 207.742
40.40000 226.596
40.57000 208.540
40.74000 210.363
40.91000 219.623
41.08000 203.843
41.25000 207.279
41.42000 204.439
41.59000 211.808
41.76000 208.287
41.93000 213.351
42.10000 216.690
42.27000 221.156
42.44000 195.501
42.61000 208.159
42.78000 196.428
42.95000 193.279
43.12000 202.555
43.29000 205.607
43.46000 198.449
43.63000 199.537
43.80000 189.869
43.97000 195.747
44.14000 196.975
44.31000 201.925
44.48000 201.857
44.65000 214.815
44.82000 231.868
44.99000 257.492
45.16000 265.827
45.33000 232.999
45.50000 222.802
45.67000 205.734
45.84000 190.382
46.01000 186.127
46.18000 176.792
46.35000 180.338
46.52000 171.055
46.69000 169.379
46.86000 184.779
47.03000 169.915
47.20000 169.915
47.37000 170.836
47.54000 164.973
47.71000 158.787
47.88000 160.898
48.05000 146.041
48.22000 168.556
48.39000 154.861
48.56000 154.648
48.73000 155.094
48.90000 154.053
49.07000 154.544
49.24000 158.934
49.41000 144.804
49.58000 156.299
49.75000 141.142
49.92000 150.338
50.09000 149.168
50.26000 149.761
50.43000 167.195
50.60000 188.569
50.77000 179.552
50.94000 160.486
51.11000 154.177
51.28000 160.947
51.45000 150.176
51.62000 153.889
51.79000 150.615
51.96000 142.648
52.13000 144.757
52.30000 137.968
52.47000 130.929
52.64000 138.703
52.81000 134.467
52.98000 143.066
53.15000 149.972
53.32000 159.505
53.49000 149.840
53.66000 148.735
53.83000 139.511
54.00000 142.075
54.17000 124.909
54.34000 143.001
54.51000 129.374
54.68000 148.318
54.85000 138.305
55.02000 153.190
55.19000 150.143
55.36000 164.309
55.53000 247.303
55.70000 452.730
55.87000 691.043
56.04000 604.445
56.21000 344.777
56.38000 203.621
56.55000 153.460
56.72000 138.299
56.89000 131.466
57.06000 128.588
57.23000 126.832
57.40000 121.982
57.57000 119.632
57.74000 123.690
57.91000 114.080
58.08000 119.217
58.25000 112.033
58.42000 115.597
58.59000 113.906
58.76000 128.053
58.93000 115.283
59.10000 123.731
59.27000 121.349
59.44000 115.794
59.61000 109.083
59.78000 124.091
59.95000 111.986
60.12000 122.965
60.29000 126.598
60.46000 109.769
60.63000 118.232
60.80000 122.380
60.97000 120.028
61.14000 134.886
61.31000 127.694
61.48000 135.164
61.65000 293.251
61.82000 218.965
61.99000 133.911
62.16000 130.662
62.33000 130.741
62.50000 117.722
62.67000 123.850
62.84000 122.101
63.01000 134.206
63.18000 136.201
63.35000 125.634
63.52000 131.393
63.69000 137.067
63.86000 134.965
64.03000 143.578
64.20000 149.978
64.37000 145.413
64.54000 156.036
64.71000 160.003
64.88000 170.697
65.05000 205.173
65.22000 227.109
65.39000 267.423
65.56000 333.715
65.73000 910.805
65.90000 2054.917
66.07000 578.029
66.24000 392.685
66.41000 634.048
66.58000 442.620
66.75000 330.599
66.92000 364.838
67.09000 380.660
67.26000 402.357
67.43000 396.014
67.60000 452.141
67.77000 477.263
67.94000 504.469
68.11000 525.330
68.28000 551.064
68.45000 640.577
68.62000 857.966
68.79000 1525.455
68.96000 6711.361
69.13000 45771.488
69.30000 27589.814
69.47000 8426.748
69.64000 970.407
69.81000 637.265
69.98000 541.903
70.00000 532.396