File: XRD/08-10-2025 Dep 7/XY Data/BTO_Mapping_Theta2Theta_08-10-2025_001_47_-2-091_-19-890.xy
20.00000 464.749
20.17000 474.958
20.34000 480.252
20.51000 466.555
20.68000 470.157
20.85000 460.360
21.02000 482.486
21.19000 462.530
21.36000 467.731
21.53000 462.859
21.70000 476.638
21.87000 501.909
22.04000 560.715
22.21000 524.336
22.38000 484.888
22.55000 462.867
22.72000 427.285
22.89000 425.337
23.06000 417.220
23.23000 427.909
23.40000 440.483
23.57000 438.826
23.74000 448.536
23.91000 492.982
24.08000 486.842
24.25000 451.588
24.42000 416.301
24.59000 406.835
24.76000 403.282
24.93000 404.769
25.10000 406.198
25.27000 397.706
25.44000 397.702
25.61000 398.281
25.78000 392.252
25.95000 363.894
26.12000 382.823
26.29000 375.108
26.46000 373.127
26.63000 360.354
26.80000 376.385
26.97000 380.878
27.14000 374.281
27.31000 398.768
27.48000 371.502
27.65000 386.429
27.82000 369.466
27.99000 377.999
28.16000 350.702
28.33000 360.868
28.50000 363.013
28.67000 345.092
28.84000 355.756
29.01000 353.169
29.18000 338.332
29.35000 347.962
29.52000 359.053
29.69000 348.420
29.86000 366.807
30.03000 376.111
30.20000 356.868
30.37000 351.874
30.54000 367.210
30.71000 367.785
30.88000 387.890
31.05000 488.863
31.22000 870.004
31.39000 1123.300
31.56000 715.056
31.73000 443.007
31.90000 368.019
32.07000 329.967
32.24000 328.671
32.41000 324.238
32.58000 326.412
32.75000 317.681
32.92000 311.072
33.09000 299.720
33.26000 304.416
33.43000 302.045
33.60000 297.528
33.77000 299.823
33.94000 314.815
34.11000 335.876
34.28000 350.436
34.45000 351.634
34.62000 330.512
34.79000 310.034
34.96000 269.790
35.13000 282.387
35.30000 269.378
35.47000 283.531
35.64000 259.703
35.81000 261.154
35.98000 263.204
36.15000 255.373
36.32000 263.693
36.49000 259.734
36.66000 262.037
36.83000 256.101
37.00000 282.229
37.17000 274.314
37.34000 264.902
37.51000 264.212
37.68000 248.793
37.85000 251.084
38.02000 262.300
38.19000 273.902
38.36000 387.865
38.53000 811.807
38.70000 1249.636
38.87000 856.324
39.04000 349.655
39.21000 241.210
39.38000 231.891
39.55000 232.793
39.72000 227.224
39.89000 228.242
40.06000 225.935
40.23000 232.656
40.40000 223.622
40.57000 237.768
40.74000 224.435
40.91000 213.102
41.08000 204.159
41.25000 204.777
41.42000 211.810
41.59000 210.665
41.76000 194.609
41.93000 204.206
42.10000 207.869
42.27000 192.577
42.44000 212.122
42.61000 207.000
42.78000 211.186
42.95000 196.504
43.12000 197.443
43.29000 200.773
43.46000 198.622
43.63000 200.645
43.80000 191.473
43.97000 192.857
44.14000 192.286
44.31000 200.675
44.48000 202.744
44.65000 229.341
44.82000 247.503
44.99000 263.264
45.16000 258.013
45.33000 228.496
45.50000 211.714
45.67000 214.503
45.84000 187.833
46.01000 181.143
46.18000 183.575
46.35000 178.127
46.52000 178.576
46.69000 180.573
46.86000 170.954
47.03000 170.263
47.20000 165.715
47.37000 168.404
47.54000 171.002
47.71000 157.536
47.88000 159.476
48.05000 164.221
48.22000 150.854
48.39000 162.807
48.56000 155.598
48.73000 148.512
48.90000 146.512
49.07000 145.475
49.24000 146.375
49.41000 148.741
49.58000 149.134
49.75000 152.138
49.92000 150.265
50.09000 157.667
50.26000 148.544
50.43000 161.028
50.60000 179.181
50.77000 163.953
50.94000 162.514
51.11000 163.704
51.28000 150.640
51.45000 158.642
51.62000 146.432
51.79000 133.981
51.96000 139.355
52.13000 143.122
52.30000 133.770
52.47000 144.866
52.64000 149.285
52.81000 148.295
52.98000 150.873
53.15000 157.017
53.32000 158.832
53.49000 157.603
53.66000 149.566
53.83000 144.671
54.00000 138.307
54.17000 136.356
54.34000 136.414
54.51000 151.443
54.68000 145.410
54.85000 138.593
55.02000 144.481
55.19000 156.437
55.36000 182.782
55.53000 268.262
55.70000 491.993
55.87000 702.201
56.04000 625.579
56.21000 342.176
56.38000 194.380
56.55000 151.807
56.72000 146.987
56.89000 138.196
57.06000 129.658
57.23000 136.550
57.40000 125.842
57.57000 124.783
57.74000 135.494
57.91000 124.999
58.08000 126.904
58.25000 125.341
58.42000 119.488
58.59000 112.605
58.76000 109.358
58.93000 125.056
59.10000 117.190
59.27000 118.813
59.44000 114.865
59.61000 113.642
59.78000 114.197
59.95000 119.907
60.12000 115.555
60.29000 117.819
60.46000 117.203
60.63000 116.101
60.80000 120.028
60.97000 126.964
61.14000 119.809
61.31000 118.821
61.48000 126.766
61.65000 291.302
61.82000 186.343
61.99000 127.716
62.16000 135.278
62.33000 127.860
62.50000 131.776
62.67000 129.821
62.84000 137.704
63.01000 140.853
63.18000 136.754
63.35000 138.895
63.52000 133.343
63.69000 140.315
63.86000 140.208
64.03000 139.348
64.20000 148.950
64.37000 153.448
64.54000 156.628
64.71000 157.258
64.88000 188.536
65.05000 190.962
65.22000 215.887
65.39000 259.352
65.56000 318.074
65.73000 990.135
65.90000 1952.639
66.07000 497.144
66.24000 387.978
66.41000 624.528
66.58000 408.761
66.75000 336.882
66.92000 347.503
67.09000 357.682
67.26000 390.791
67.43000 405.157
67.60000 422.449
67.77000 446.484
67.94000 450.765
68.11000 513.832
68.28000 559.092
68.45000 645.260
68.62000 885.055
68.79000 1550.637
68.96000 8842.760
69.13000 44652.965
69.30000 24413.902
69.47000 6202.488
69.64000 905.805
69.81000 628.277
69.98000 502.643
70.00000 497.368