File: XRD/08-10-2025 Dep 7/XY Data/BTO_Mapping_Theta2Theta_08-10-2025_001_48_-3-136_-29-836.xy
20.00000 486.142
20.17000 472.793
20.34000 456.255
20.51000 464.680
20.68000 472.638
20.85000 473.122
21.02000 464.598
21.19000 465.335
21.36000 470.718
21.53000 481.089
21.70000 466.765
21.87000 507.555
22.04000 568.684
22.21000 509.158
22.38000 473.192
22.55000 436.465
22.72000 459.389
22.89000 439.644
23.06000 471.998
23.23000 454.907
23.40000 428.076
23.57000 421.286
23.74000 445.552
23.91000 488.639
24.08000 471.458
24.25000 454.639
24.42000 406.418
24.59000 425.218
24.76000 415.878
24.93000 399.579
25.10000 402.500
25.27000 423.843
25.44000 394.630
25.61000 412.805
25.78000 398.852
25.95000 370.951
26.12000 400.641
26.29000 373.752
26.46000 364.417
26.63000 380.073
26.80000 386.532
26.97000 370.746
27.14000 366.309
27.31000 373.819
27.48000 375.036
27.65000 368.213
27.82000 382.324
27.99000 364.967
28.16000 370.565
28.33000 363.132
28.50000 352.287
28.67000 358.460
28.84000 338.871
29.01000 363.541
29.18000 356.443
29.35000 356.204
29.52000 354.954
29.69000 359.586
29.86000 387.793
30.03000 382.987
30.20000 364.927
30.37000 350.982
30.54000 363.307
30.71000 359.940
30.88000 393.633
31.05000 519.601
31.22000 965.734
31.39000 1203.221
31.56000 734.370
31.73000 415.646
31.90000 373.103
32.07000 343.449
32.24000 337.453
32.41000 323.291
32.58000 311.412
32.75000 304.301
32.92000 318.673
33.09000 312.401
33.26000 296.275
33.43000 284.711
33.60000 312.452
33.77000 299.211
33.94000 315.794
34.11000 329.672
34.28000 351.500
34.45000 348.356
34.62000 316.103
34.79000 301.942
34.96000 273.664
35.13000 269.554
35.30000 253.231
35.47000 273.557
35.64000 259.071
35.81000 272.790
35.98000 257.732
36.15000 259.115
36.32000 257.294
36.49000 263.080
36.66000 248.482
36.83000 281.989
37.00000 312.320
37.17000 276.731
37.34000 265.830
37.51000 259.667
37.68000 264.017
37.85000 249.584
38.02000 257.748
38.19000 292.817
38.36000 406.507
38.53000 878.004
38.70000 1283.992
38.87000 860.144
39.04000 340.556
39.21000 255.746
39.38000 249.886
39.55000 241.834
39.72000 233.496
39.89000 222.570
40.06000 228.200
40.23000 224.140
40.40000 217.912
40.57000 219.672
40.74000 219.805
40.91000 212.661
41.08000 206.125
41.25000 217.191
41.42000 212.712
41.59000 204.128
41.76000 208.328
41.93000 213.373
42.10000 219.926
42.27000 217.674
42.44000 209.707
42.61000 214.565
42.78000 199.517
42.95000 193.432
43.12000 198.666
43.29000 195.786
43.46000 179.742
43.63000 201.557
43.80000 184.218
43.97000 194.006
44.14000 201.253
44.31000 197.512
44.48000 208.812
44.65000 237.069
44.82000 244.682
44.99000 284.732
45.16000 260.770
45.33000 223.904
45.50000 210.787
45.67000 196.817
45.84000 191.862
46.01000 186.889
46.18000 179.865
46.35000 171.043
46.52000 172.520
46.69000 179.232
46.86000 175.787
47.03000 176.715
47.20000 168.909
47.37000 162.381
47.54000 164.595
47.71000 156.730
47.88000 156.493
48.05000 156.168
48.22000 152.914
48.39000 160.504
48.56000 147.698
48.73000 155.014
48.90000 150.712
49.07000 168.021
49.24000 153.226
49.41000 141.600
49.58000 148.637
49.75000 152.818
49.92000 162.878
50.09000 154.266
50.26000 155.982
50.43000 167.667
50.60000 186.769
50.77000 166.696
50.94000 155.437
51.11000 159.636
51.28000 151.690
51.45000 151.982
51.62000 136.670
51.79000 139.464
51.96000 146.043
52.13000 137.541
52.30000 143.314
52.47000 136.290
52.64000 137.339
52.81000 135.129
52.98000 142.200
53.15000 150.312
53.32000 162.434
53.49000 164.703
53.66000 159.979
53.83000 147.250
54.00000 152.756
54.17000 148.389
54.34000 141.477
54.51000 139.995
54.68000 148.420
54.85000 147.159
55.02000 148.022
55.19000 149.323
55.36000 182.633
55.53000 291.270
55.70000 540.278
55.87000 761.845
56.04000 637.075
56.21000 353.065
56.38000 200.008
56.55000 145.694
56.72000 142.595
56.89000 140.983
57.06000 140.449
57.23000 136.879
57.40000 123.338
57.57000 124.677
57.74000 126.772
57.91000 127.613
58.08000 121.700
58.25000 115.646
58.42000 132.617
58.59000 119.458
58.76000 125.839
58.93000 121.131
59.10000 118.369
59.27000 118.918
59.44000 116.796
59.61000 118.322
59.78000 112.715
59.95000 122.361
60.12000 115.446
60.29000 126.246
60.46000 118.806
60.63000 112.719
60.80000 117.950
60.97000 124.939
61.14000 118.751
61.31000 113.202
61.48000 123.819
61.65000 280.173
61.82000 201.866
61.99000 117.270
62.16000 120.493
62.33000 126.640
62.50000 124.346
62.67000 125.947
62.84000 129.834
63.01000 126.463
63.18000 140.924
63.35000 124.584
63.52000 125.623
63.69000 131.393
63.86000 139.450
64.03000 136.865
64.20000 150.110
64.37000 153.628
64.54000 157.799
64.71000 164.757
64.88000 180.784
65.05000 207.140
65.22000 223.075
65.39000 265.882
65.56000 321.968
65.73000 987.273
65.90000 1986.706
66.07000 494.133
66.24000 384.150
66.41000 623.158
66.58000 395.161
66.75000 346.139
66.92000 360.750
67.09000 384.312
67.26000 387.081
67.43000 398.055
67.60000 424.400
67.77000 445.385
67.94000 472.924
68.11000 506.797
68.28000 544.479
68.45000 656.871
68.62000 887.568
68.79000 1602.991
68.96000 9205.455
69.13000 45050.383
69.30000 24447.545
69.47000 6169.571
69.64000 912.026
69.81000 598.814
69.98000 527.327
70.00000 512.518