File: XRD/08-10-2025 Dep 7/XY Data/BTO_Mapping_Theta2Theta_08-10-2025_001_30_-9-781_2-079.xy
20.00000 474.110
20.17000 482.386
20.34000 480.959
20.51000 454.762
20.68000 471.763
20.85000 462.133
21.02000 467.933
21.19000 464.274
21.36000 446.434
21.53000 468.581
21.70000 467.984
21.87000 489.067
22.04000 537.076
22.21000 519.772
22.38000 487.581
22.55000 455.726
22.72000 471.162
22.89000 412.696
23.06000 429.077
23.23000 439.944
23.40000 437.513
23.57000 427.370
23.74000 449.030
23.91000 461.263
24.08000 451.979
24.25000 434.400
24.42000 434.222
24.59000 417.313
24.76000 414.237
24.93000 391.235
25.10000 406.125
25.27000 405.823
25.44000 385.738
25.61000 385.253
25.78000 386.083
25.95000 379.880
26.12000 374.709
26.29000 398.801
26.46000 385.285
26.63000 378.582
26.80000 384.701
26.97000 362.975
27.14000 351.134
27.31000 373.689
27.48000 380.856
27.65000 376.267
27.82000 356.820
27.99000 375.395
28.16000 369.512
28.33000 357.979
28.50000 357.136
28.67000 343.754
28.84000 365.377
29.01000 342.557
29.18000 361.198
29.35000 341.844
29.52000 357.280
29.69000 359.951
29.86000 368.939
30.03000 385.734
30.20000 383.127
30.37000 356.142
30.54000 348.657
30.71000 361.165
30.88000 388.564
31.05000 527.344
31.22000 1012.155
31.39000 1367.481
31.56000 793.100
31.73000 437.524
31.90000 350.983
32.07000 328.425
32.24000 322.977
32.41000 325.675
32.58000 325.769
32.75000 313.434
32.92000 329.746
33.09000 308.655
33.26000 288.875
33.43000 297.348
33.60000 304.464
33.77000 306.534
33.94000 301.429
34.11000 330.696
34.28000 346.850
34.45000 332.423
34.62000 321.996
34.79000 277.528
34.96000 284.348
35.13000 278.411
35.30000 270.035
35.47000 274.043
35.64000 272.530
35.81000 260.839
35.98000 277.221
36.15000 265.031
36.32000 261.490
36.49000 254.867
36.66000 264.354
36.83000 276.015
37.00000 296.113
37.17000 272.196
37.34000 261.805
37.51000 262.252
37.68000 252.253
37.85000 251.379
38.02000 266.964
38.19000 272.720
38.36000 358.967
38.53000 781.131
38.70000 1200.556
38.87000 844.932
39.04000 352.752
39.21000 257.499
39.38000 229.666
39.55000 250.012
39.72000 227.865
39.89000 237.565
40.06000 224.460
40.23000 233.454
40.40000 209.527
40.57000 234.116
40.74000 210.781
40.91000 224.553
41.08000 222.088
41.25000 206.143
41.42000 214.247
41.59000 210.103
41.76000 221.168
41.93000 200.396
42.10000 204.433
42.27000 210.029
42.44000 212.854
42.61000 200.874
42.78000 208.436
42.95000 199.067
43.12000 208.558
43.29000 200.401
43.46000 196.229
43.63000 193.156
43.80000 197.872
43.97000 190.698
44.14000 195.082
44.31000 191.667
44.48000 205.076
44.65000 220.688
44.82000 236.272
44.99000 260.827
45.16000 259.929
45.33000 243.850
45.50000 216.949
45.67000 202.898
45.84000 193.034
46.01000 180.355
46.18000 187.003
46.35000 177.734
46.52000 187.368
46.69000 177.457
46.86000 164.947
47.03000 176.998
47.20000 177.113
47.37000 171.726
47.54000 163.383
47.71000 159.489
47.88000 151.247
48.05000 157.124
48.22000 165.757
48.39000 156.045
48.56000 158.704
48.73000 165.590
48.90000 154.703
49.07000 160.019
49.24000 160.167
49.41000 155.470
49.58000 156.042
49.75000 151.251
49.92000 156.570
50.09000 151.850
50.26000 163.336
50.43000 169.485
50.60000 187.270
50.77000 185.376
50.94000 166.589
51.11000 161.294
51.28000 135.206
51.45000 148.442
51.62000 138.289
51.79000 144.861
51.96000 146.941
52.13000 144.310
52.30000 145.193
52.47000 142.183
52.64000 136.952
52.81000 151.722
52.98000 145.063
53.15000 154.294
53.32000 162.423
53.49000 157.282
53.66000 147.430
53.83000 142.590
54.00000 152.138
54.17000 145.103
54.34000 126.301
54.51000 141.753
54.68000 141.214
54.85000 145.016
55.02000 147.255
55.19000 158.729
55.36000 188.219
55.53000 265.718
55.70000 480.980
55.87000 708.342
56.04000 625.074
56.21000 354.015
56.38000 217.266
56.55000 148.540
56.72000 144.867
56.89000 129.010
57.06000 136.879
57.23000 138.015
57.40000 129.318
57.57000 119.905
57.74000 130.282
57.91000 122.954
58.08000 128.516
58.25000 126.691
58.42000 119.343
58.59000 112.916
58.76000 120.928
58.93000 113.110
59.10000 127.418
59.27000 116.289
59.44000 113.588
59.61000 120.346
59.78000 116.866
59.95000 123.911
60.12000 107.237
60.29000 111.947
60.46000 121.102
60.63000 119.559
60.80000 119.042
60.97000 120.357
61.14000 113.598
61.31000 123.661
61.48000 122.623
61.65000 292.953
61.82000 211.762
61.99000 128.307
62.16000 132.450
62.33000 127.219
62.50000 134.643
62.67000 124.910
62.84000 128.124
63.01000 134.355
63.18000 125.435
63.35000 127.043
63.52000 130.998
63.69000 135.594
63.86000 142.266
64.03000 138.340
64.20000 138.668
64.37000 144.932
64.54000 153.777
64.71000 163.669
64.88000 178.074
65.05000 195.094
65.22000 222.998
65.39000 275.496
65.56000 311.761
65.73000 922.097
65.90000 2005.485
66.07000 531.472
66.24000 378.859
66.41000 636.032
66.58000 425.695
66.75000 366.403
66.92000 357.802
67.09000 386.366
67.26000 378.450
67.43000 412.024
67.60000 442.595
67.77000 443.722
67.94000 498.506
68.11000 521.228
68.28000 550.927
68.45000 653.222
68.62000 902.523
68.79000 1594.999
68.96000 7636.921
69.13000 45597.953
69.30000 26507.498
69.47000 7608.873
69.64000 974.706
69.81000 625.622
69.98000 518.003
70.00000 508.355