File: XRD/08-10-2025 Dep 7/XY Data/BTO_Mapping_Theta2Theta_08-10-2025_001_34_-9-781_-2-079.xy
20.00000 455.225
20.17000 482.636
20.34000 456.807
20.51000 462.278
20.68000 464.419
20.85000 457.513
21.02000 462.948
21.19000 469.440
21.36000 440.152
21.53000 461.512
21.70000 466.793
21.87000 507.014
22.04000 538.213
22.21000 517.751
22.38000 481.572
22.55000 459.978
22.72000 438.571
22.89000 447.350
23.06000 416.989
23.23000 437.249
23.40000 438.873
23.57000 435.887
23.74000 456.163
23.91000 465.357
24.08000 462.085
24.25000 444.673
24.42000 439.372
24.59000 431.615
24.76000 413.899
24.93000 409.686
25.10000 408.583
25.27000 393.471
25.44000 390.081
25.61000 399.226
25.78000 402.390
25.95000 383.828
26.12000 396.368
26.29000 397.552
26.46000 388.031
26.63000 375.524
26.80000 385.973
26.97000 383.134
27.14000 371.617
27.31000 386.739
27.48000 373.823
27.65000 361.102
27.82000 380.995
27.99000 368.812
28.16000 366.209
28.33000 369.025
28.50000 368.624
28.67000 332.726
28.84000 365.697
29.01000 367.881
29.18000 362.485
29.35000 348.124
29.52000 354.361
29.69000 353.792
29.86000 373.205
30.03000 391.632
30.20000 382.027
30.37000 356.371
30.54000 349.379
30.71000 355.464
30.88000 379.265
31.05000 532.466
31.22000 1093.463
31.39000 1451.464
31.56000 831.120
31.73000 425.804
31.90000 370.223
32.07000 358.897
32.24000 333.957
32.41000 327.638
32.58000 321.906
32.75000 313.493
32.92000 306.532
33.09000 300.531
33.26000 303.124
33.43000 292.006
33.60000 298.706
33.77000 293.093
33.94000 302.373
34.11000 328.637
34.28000 333.588
34.45000 342.646
34.62000 328.151
34.79000 305.956
34.96000 280.364
35.13000 274.714
35.30000 281.881
35.47000 254.305
35.64000 249.742
35.81000 264.604
35.98000 263.410
36.15000 256.075
36.32000 254.975
36.49000 254.975
36.66000 268.837
36.83000 272.884
37.00000 293.569
37.17000 276.834
37.34000 265.631
37.51000 255.056
37.68000 266.752
37.85000 243.805
38.02000 254.699
38.19000 271.655
38.36000 374.362
38.53000 775.484
38.70000 1228.237
38.87000 846.002
39.04000 353.126
39.21000 236.058
39.38000 225.366
39.55000 240.605
39.72000 231.336
39.89000 234.931
40.06000 210.001
40.23000 215.185
40.40000 218.977
40.57000 224.163
40.74000 223.818
40.91000 204.521
41.08000 194.406
41.25000 202.567
41.42000 212.566
41.59000 210.469
41.76000 208.334
41.93000 223.314
42.10000 217.275
42.27000 213.045
42.44000 211.347
42.61000 193.291
42.78000 198.303
42.95000 194.101
43.12000 195.437
43.29000 196.490
43.46000 196.337
43.63000 189.319
43.80000 194.351
43.97000 192.773
44.14000 195.728
44.31000 196.855
44.48000 212.539
44.65000 222.202
44.82000 247.768
44.99000 261.709
45.16000 257.467
45.33000 238.245
45.50000 224.678
45.67000 219.219
45.84000 190.215
46.01000 181.341
46.18000 179.005
46.35000 176.846
46.52000 182.041
46.69000 178.302
46.86000 165.849
47.03000 180.337
47.20000 157.022
47.37000 163.122
47.54000 163.199
47.71000 159.194
47.88000 157.217
48.05000 168.783
48.22000 161.571
48.39000 182.590
48.56000 162.327
48.73000 166.797
48.90000 156.424
49.07000 148.399
49.24000 151.379
49.41000 153.833
49.58000 150.793
49.75000 145.964
49.92000 154.269
50.09000 156.186
50.26000 163.299
50.43000 176.037
50.60000 189.578
50.77000 185.773
50.94000 161.024
51.11000 148.945
51.28000 151.283
51.45000 138.473
51.62000 144.637
51.79000 140.260
51.96000 136.956
52.13000 141.937
52.30000 142.047
52.47000 142.275
52.64000 138.788
52.81000 142.972
52.98000 145.740
53.15000 141.990
53.32000 169.095
53.49000 151.917
53.66000 148.957
53.83000 143.025
54.00000 148.710
54.17000 146.253
54.34000 128.468
54.51000 144.837
54.68000 147.812
54.85000 140.999
55.02000 148.391
55.19000 155.300
55.36000 175.313
55.53000 288.266
55.70000 487.285
55.87000 700.523
56.04000 574.123
56.21000 359.627
56.38000 199.349
56.55000 152.758
56.72000 135.751
56.89000 134.057
57.06000 120.878
57.23000 125.378
57.40000 127.509
57.57000 120.161
57.74000 120.557
57.91000 123.081
58.08000 130.174
58.25000 130.611
58.42000 121.755
58.59000 108.980
58.76000 119.536
58.93000 120.209
59.10000 108.050
59.27000 115.134
59.44000 115.195
59.61000 114.070
59.78000 120.124
59.95000 112.186
60.12000 114.102
60.29000 119.964
60.46000 118.562
60.63000 114.378
60.80000 108.196
60.97000 114.988
61.14000 133.616
61.31000 130.169
61.48000 140.906
61.65000 284.036
61.82000 208.233
61.99000 134.270
62.16000 119.643
62.33000 129.646
62.50000 133.136
62.67000 136.286
62.84000 130.768
63.01000 134.988
63.18000 117.697
63.35000 134.019
63.52000 138.295
63.69000 139.973
63.86000 138.056
64.03000 150.641
64.20000 143.982
64.37000 150.242
64.54000 158.257
64.71000 167.461
64.88000 172.584
65.05000 197.400
65.22000 230.150
65.39000 273.859
65.56000 333.736
65.73000 930.332
65.90000 2077.583
66.07000 560.053
66.24000 391.967
66.41000 648.212
66.58000 420.864
66.75000 355.729
66.92000 356.928
67.09000 388.354
67.26000 378.748
67.43000 427.148
67.60000 433.833
67.77000 441.110
67.94000 474.379
68.11000 493.585
68.28000 574.630
68.45000 647.568
68.62000 869.266
68.79000 1617.356
68.96000 7761.227
69.13000 46193.238
69.30000 26594.246
69.47000 7512.983
69.64000 994.231
69.81000 634.030
69.98000 537.046
70.00000 513.202