File: XRD/08-10-2025 Dep 7/XY Data/BTO_Mapping_Theta2Theta_08-10-2025_001_42_-5-000_-8-660.xy
20.00000 474.935
20.17000 465.806
20.34000 488.108
20.51000 486.487
20.68000 480.385
20.85000 463.476
21.02000 469.083
21.19000 469.845
21.36000 474.297
21.53000 451.473
21.70000 487.894
21.87000 501.092
22.04000 544.156
22.21000 515.724
22.38000 483.398
22.55000 449.707
22.72000 446.684
22.89000 423.658
23.06000 431.787
23.23000 428.531
23.40000 426.116
23.57000 426.764
23.74000 442.325
23.91000 498.559
24.08000 474.773
24.25000 449.898
24.42000 424.647
24.59000 414.928
24.76000 415.519
24.93000 408.262
25.10000 395.254
25.27000 395.061
25.44000 381.358
25.61000 412.193
25.78000 403.646
25.95000 387.135
26.12000 391.950
26.29000 377.118
26.46000 382.925
26.63000 383.892
26.80000 389.776
26.97000 375.013
27.14000 384.347
27.31000 368.146
27.48000 392.770
27.65000 389.138
27.82000 374.461
27.99000 354.137
28.16000 372.094
28.33000 363.528
28.50000 356.491
28.67000 351.638
28.84000 377.770
29.01000 359.101
29.18000 356.641
29.35000 350.261
29.52000 347.124
29.69000 356.903
29.86000 371.164
30.03000 388.716
30.20000 381.637
30.37000 358.628
30.54000 345.291
30.71000 358.866
30.88000 382.995
31.05000 509.142
31.22000 902.032
31.39000 1207.663
31.56000 760.132
31.73000 420.082
31.90000 378.607
32.07000 347.220
32.24000 319.711
32.41000 322.841
32.58000 314.332
32.75000 321.340
32.92000 303.456
33.09000 298.872
33.26000 311.559
33.43000 316.749
33.60000 295.164
33.77000 309.201
33.94000 325.578
34.11000 329.147
34.28000 344.940
34.45000 348.969
34.62000 320.630
34.79000 305.684
34.96000 284.327
35.13000 275.635
35.30000 258.848
35.47000 265.423
35.64000 262.278
35.81000 263.315
35.98000 259.884
36.15000 259.160
36.32000 255.771
36.49000 250.441
36.66000 257.032
36.83000 264.025
37.00000 290.018
37.17000 280.126
37.34000 265.776
37.51000 248.006
37.68000 237.919
37.85000 259.253
38.02000 270.188
38.19000 274.427
38.36000 369.798
38.53000 782.769
38.70000 1233.562
38.87000 840.303
39.04000 369.134
39.21000 256.851
39.38000 231.514
39.55000 225.435
39.72000 232.750
39.89000 233.329
40.06000 220.129
40.23000 221.019
40.40000 234.080
40.57000 212.399
40.74000 216.883
40.91000 224.446
41.08000 201.503
41.25000 203.706
41.42000 219.692
41.59000 206.642
41.76000 211.140
41.93000 203.136
42.10000 206.958
42.27000 201.186
42.44000 209.176
42.61000 211.179
42.78000 214.023
42.95000 194.080
43.12000 192.352
43.29000 196.165
43.46000 194.773
43.63000 201.208
43.80000 195.106
43.97000 196.576
44.14000 197.297
44.31000 197.253
44.48000 201.816
44.65000 223.212
44.82000 247.000
44.99000 260.449
45.16000 254.997
45.33000 231.712
45.50000 215.067
45.67000 205.087
45.84000 199.053
46.01000 173.031
46.18000 171.898
46.35000 180.511
46.52000 181.622
46.69000 173.288
46.86000 174.597
47.03000 172.764
47.20000 169.786
47.37000 163.659
47.54000 157.549
47.71000 155.762
47.88000 156.453
48.05000 151.357
48.22000 164.928
48.39000 155.955
48.56000 159.695
48.73000 152.916
48.90000 157.066
49.07000 155.327
49.24000 151.462
49.41000 159.410
49.58000 150.042
49.75000 153.634
49.92000 160.190
50.09000 153.443
50.26000 158.144
50.43000 172.521
50.60000 176.327
50.77000 187.414
50.94000 168.179
51.11000 159.338
51.28000 142.612
51.45000 139.328
51.62000 140.013
51.79000 146.764
51.96000 148.322
52.13000 143.159
52.30000 137.937
52.47000 138.780
52.64000 132.932
52.81000 148.914
52.98000 148.703
53.15000 151.545
53.32000 156.017
53.49000 158.646
53.66000 153.072
53.83000 150.053
54.00000 148.273
54.17000 145.269
54.34000 139.885
54.51000 143.428
54.68000 144.149
54.85000 138.533
55.02000 151.734
55.19000 156.957
55.36000 185.273
55.53000 266.081
55.70000 487.639
55.87000 703.153
56.04000 632.099
56.21000 347.540
56.38000 198.148
56.55000 158.391
56.72000 130.115
56.89000 131.825
57.06000 130.417
57.23000 140.984
57.40000 123.935
57.57000 125.205
57.74000 117.531
57.91000 126.350
58.08000 126.644
58.25000 121.292
58.42000 116.219
58.59000 107.734
58.76000 124.254
58.93000 114.832
59.10000 112.146
59.27000 116.954
59.44000 121.043
59.61000 115.559
59.78000 121.133
59.95000 109.900
60.12000 121.864
60.29000 121.755
60.46000 110.992
60.63000 117.196
60.80000 115.635
60.97000 111.078
61.14000 112.911
61.31000 118.607
61.48000 134.328
61.65000 284.425
61.82000 198.477
61.99000 121.186
62.16000 131.165
62.33000 126.466
62.50000 132.888
62.67000 136.012
62.84000 131.416
63.01000 133.202
63.18000 130.589
63.35000 129.827
63.52000 136.284
63.69000 136.798
63.86000 138.480
64.03000 140.689
64.20000 148.584
64.37000 161.599
64.54000 162.945
64.71000 173.842
64.88000 174.880
65.05000 199.393
65.22000 215.373
65.39000 252.630
65.56000 319.453
65.73000 952.352
65.90000 2016.811
66.07000 498.238
66.24000 374.371
66.41000 617.189
66.58000 412.999
66.75000 345.169
66.92000 360.750
67.09000 368.998
67.26000 390.091
67.43000 420.904
67.60000 423.072
67.77000 455.205
67.94000 491.121
68.11000 522.911
68.28000 551.542
68.45000 626.087
68.62000 873.983
68.79000 1593.591
68.96000 8356.559
69.13000 45328.691
69.30000 25424.389
69.47000 6854.138
69.64000 929.185
69.81000 639.813
69.98000 516.063
70.00000 507.240