File: XRD/08-10-2025 Dep 7/XY Data/BTO_Mapping_Theta2Theta_08-10-2025_001_09_36-542_16-269.xy
20.00000 484.814
20.17000 467.918
20.34000 490.419
20.51000 483.266
20.68000 471.038
20.85000 470.514
21.02000 465.111
21.19000 481.545
21.36000 478.614
21.53000 483.318
21.70000 484.100
21.87000 516.218
22.04000 492.326
22.21000 500.122
22.38000 467.216
22.55000 456.470
22.72000 470.599
22.89000 469.397
23.06000 453.412
23.23000 442.517
23.40000 441.855
23.57000 451.082
23.74000 479.966
23.91000 512.434
24.08000 519.775
24.25000 468.428
24.42000 443.521
24.59000 429.849
24.76000 420.764
24.93000 414.050
25.10000 413.435
25.27000 404.165
25.44000 405.551
25.61000 409.211
25.78000 385.939
25.95000 390.340
26.12000 396.139
26.29000 386.979
26.46000 381.482
26.63000 383.967
26.80000 386.806
26.97000 367.688
27.14000 387.472
27.31000 376.557
27.48000 399.639
27.65000 381.235
27.82000 366.800
27.99000 372.607
28.16000 374.924
28.33000 388.601
28.50000 381.456
28.67000 363.680
28.84000 392.127
29.01000 379.038
29.18000 373.434
29.35000 364.860
29.52000 356.343
29.69000 371.122
29.86000 381.240
30.03000 378.522
30.20000 380.717
30.37000 364.950
30.54000 373.126
30.71000 378.968
30.88000 436.077
31.05000 544.827
31.22000 797.221
31.39000 974.195
31.56000 683.698
31.73000 473.195
31.90000 407.586
32.07000 370.551
32.24000 350.124
32.41000 344.627
32.58000 345.718
32.75000 321.025
32.92000 327.438
33.09000 300.837
33.26000 286.889
33.43000 320.127
33.60000 304.383
33.77000 315.270
33.94000 300.932
34.11000 315.872
34.28000 324.905
34.45000 326.314
34.62000 318.909
34.79000 292.317
34.96000 282.270
35.13000 283.195
35.30000 281.800
35.47000 277.802
35.64000 270.048
35.81000 251.262
35.98000 259.913
36.15000 247.346
36.32000 256.778
36.49000 265.911
36.66000 272.846
36.83000 261.385
37.00000 256.126
37.17000 250.218
37.34000 266.355
37.51000 246.615
37.68000 253.463
37.85000 253.944
38.02000 258.201
38.19000 259.578
38.36000 304.518
38.53000 445.096
38.70000 554.167
38.87000 370.444
39.04000 269.413
39.21000 240.899
39.38000 253.642
39.55000 236.588
39.72000 243.058
39.89000 243.745
40.06000 234.734
40.23000 229.204
40.40000 210.913
40.57000 214.681
40.74000 218.680
40.91000 204.354
41.08000 213.123
41.25000 203.577
41.42000 198.978
41.59000 221.619
41.76000 211.745
41.93000 216.744
42.10000 222.891
42.27000 210.890
42.44000 211.741
42.61000 209.283
42.78000 214.987
42.95000 200.327
43.12000 201.010
43.29000 208.097
43.46000 193.241
43.63000 195.208
43.80000 198.567
43.97000 201.148
44.14000 209.576
44.31000 190.491
44.48000 214.371
44.65000 207.672
44.82000 226.408
44.99000 228.006
45.16000 216.389
45.33000 216.259
45.50000 192.193
45.67000 185.593
45.84000 178.676
46.01000 188.382
46.18000 183.727
46.35000 182.461
46.52000 179.700
46.69000 186.645
46.86000 179.624
47.03000 168.126
47.20000 164.587
47.37000 164.903
47.54000 164.340
47.71000 160.376
47.88000 155.102
48.05000 171.285
48.22000 162.013
48.39000 168.006
48.56000 166.281
48.73000 160.768
48.90000 157.037
49.07000 158.603
49.24000 151.749
49.41000 160.969
49.58000 152.444
49.75000 150.950
49.92000 163.120
50.09000 162.530
50.26000 153.222
50.43000 166.568
50.60000 172.013
50.77000 175.787
50.94000 173.882
51.11000 155.587
51.28000 153.450
51.45000 157.885
51.62000 144.808
51.79000 146.098
51.96000 147.612
52.13000 142.876
52.30000 147.460
52.47000 141.141
52.64000 141.891
52.81000 137.093
52.98000 134.255
53.15000 144.183
53.32000 144.691
53.49000 142.987
53.66000 145.412
53.83000 129.503
54.00000 142.724
54.17000 145.271
54.34000 134.397
54.51000 134.136
54.68000 138.081
54.85000 144.373
55.02000 153.604
55.19000 146.037
55.36000 166.033
55.53000 174.333
55.70000 203.535
55.87000 251.670
56.04000 243.794
56.21000 194.190
56.38000 166.604
56.55000 149.627
56.72000 145.680
56.89000 140.884
57.06000 128.680
57.23000 128.386
57.40000 123.846
57.57000 132.092
57.74000 127.021
57.91000 116.452
58.08000 123.516
58.25000 128.650
58.42000 113.402
58.59000 118.094
58.76000 133.143
58.93000 114.221
59.10000 118.055
59.27000 117.242
59.44000 123.119
59.61000 118.774
59.78000 118.107
59.95000 125.327
60.12000 104.752
60.29000 122.093
60.46000 122.755
60.63000 126.672
60.80000 119.911
60.97000 117.555
61.14000 124.281
61.31000 129.854
61.48000 139.561
61.65000 291.500
61.82000 183.994
61.99000 129.902
62.16000 126.038
62.33000 129.450
62.50000 131.728
62.67000 136.614
62.84000 124.359
63.01000 140.160
63.18000 150.794
63.35000 126.327
63.52000 139.959
63.69000 142.072
63.86000 144.622
64.03000 158.818
64.20000 163.451
64.37000 143.316
64.54000 159.606
64.71000 193.094
64.88000 181.221
65.05000 201.691
65.22000 218.365
65.39000 247.801
65.56000 319.709
65.73000 1154.985
65.90000 1948.503
66.07000 470.146
66.24000 391.858
66.41000 626.105
66.58000 404.451
66.75000 353.791
66.92000 385.672
67.09000 404.928
67.26000 411.081
67.43000 415.608
67.60000 447.825
67.77000 470.137
67.94000 517.343
68.11000 558.731
68.28000 604.488
68.45000 686.819
68.62000 958.971
68.79000 1700.168
68.96000 12023.558
69.13000 46421.809
69.30000 23601.131
69.47000 4820.528
69.64000 907.635
69.81000 636.884
69.98000 503.438
70.00000 494.439