File: XRD/08-10-2025 Dep 7/XY Data/BTO_Mapping_Theta2Theta_08-10-2025_001_14_3-090_9-511.xy
20.00000 476.987
20.17000 470.047
20.34000 473.331
20.51000 456.003
20.68000 472.139
20.85000 473.663
21.02000 471.895
21.19000 472.545
21.36000 462.396
21.53000 455.587
21.70000 472.846
21.87000 489.956
22.04000 544.771
22.21000 522.479
22.38000 459.262
22.55000 423.743
22.72000 436.573
22.89000 442.656
23.06000 450.226
23.23000 441.293
23.40000 424.241
23.57000 428.872
23.74000 462.960
23.91000 495.882
24.08000 493.980
24.25000 464.731
24.42000 428.196
24.59000 407.162
24.76000 405.926
24.93000 402.717
25.10000 395.544
25.27000 404.529
25.44000 390.018
25.61000 392.864
25.78000 397.536
25.95000 379.485
26.12000 390.263
26.29000 394.366
26.46000 383.324
26.63000 382.902
26.80000 377.521
26.97000 366.339
27.14000 360.741
27.31000 374.087
27.48000 359.597
27.65000 360.634
27.82000 364.746
27.99000 369.952
28.16000 355.660
28.33000 376.527
28.50000 362.345
28.67000 353.701
28.84000 365.097
29.01000 378.467
29.18000 360.330
29.35000 345.445
29.52000 354.993
29.69000 361.482
29.86000 370.885
30.03000 378.834
30.20000 374.167
30.37000 354.134
30.54000 364.468
30.71000 376.498
30.88000 406.115
31.05000 484.151
31.22000 828.611
31.39000 1218.435
31.56000 834.861
31.73000 482.504
31.90000 370.896
32.07000 332.602
32.24000 333.724
32.41000 318.308
32.58000 323.995
32.75000 318.046
32.92000 315.970
33.09000 327.657
33.26000 300.034
33.43000 304.055
33.60000 307.817
33.77000 301.754
33.94000 312.531
34.11000 329.092
34.28000 345.625
34.45000 360.892
34.62000 333.066
34.79000 302.582
34.96000 283.936
35.13000 275.062
35.30000 279.181
35.47000 266.481
35.64000 263.361
35.81000 258.614
35.98000 254.963
36.15000 241.930
36.32000 254.059
36.49000 259.023
36.66000 244.087
36.83000 268.273
37.00000 284.357
37.17000 280.653
37.34000 259.001
37.51000 257.173
37.68000 259.427
37.85000 236.354
38.02000 256.350
38.19000 258.876
38.36000 305.114
38.53000 607.255
38.70000 1051.141
38.87000 789.030
39.04000 334.872
39.21000 260.505
39.38000 226.876
39.55000 245.300
39.72000 227.999
39.89000 234.146
40.06000 227.607
40.23000 220.282
40.40000 220.263
40.57000 230.828
40.74000 211.435
40.91000 218.149
41.08000 209.924
41.25000 201.581
41.42000 209.478
41.59000 212.057
41.76000 216.597
41.93000 216.522
42.10000 218.518
42.27000 225.786
42.44000 218.958
42.61000 210.278
42.78000 199.421
42.95000 205.658
43.12000 198.863
43.29000 192.528
43.46000 196.881
43.63000 199.689
43.80000 197.331
43.97000 197.967
44.14000 186.729
44.31000 189.705
44.48000 216.176
44.65000 216.918
44.82000 231.957
44.99000 246.218
45.16000 258.332
45.33000 224.420
45.50000 208.514
45.67000 191.511
45.84000 182.496
46.01000 173.155
46.18000 167.066
46.35000 177.983
46.52000 169.601
46.69000 173.582
46.86000 176.642
47.03000 171.286
47.20000 171.468
47.37000 166.309
47.54000 162.784
47.71000 162.844
47.88000 157.186
48.05000 160.442
48.22000 163.097
48.39000 164.374
48.56000 160.464
48.73000 157.970
48.90000 160.018
49.07000 155.851
49.24000 151.486
49.41000 150.037
49.58000 150.342
49.75000 161.756
49.92000 145.111
50.09000 155.432
50.26000 147.497
50.43000 156.570
50.60000 160.847
50.77000 155.960
50.94000 157.394
51.11000 147.283
51.28000 151.719
51.45000 133.218
51.62000 148.768
51.79000 147.285
51.96000 141.374
52.13000 145.781
52.30000 136.795
52.47000 141.424
52.64000 132.125
52.81000 129.650
52.98000 139.442
53.15000 146.029
53.32000 146.189
53.49000 151.030
53.66000 147.297
53.83000 147.783
54.00000 141.960
54.17000 138.759
54.34000 146.916
54.51000 144.553
54.68000 146.751
54.85000 150.316
55.02000 155.716
55.19000 146.169
55.36000 166.066
55.53000 216.301
55.70000 348.927
55.87000 590.982
56.04000 583.680
56.21000 353.782
56.38000 200.362
56.55000 157.190
56.72000 148.943
56.89000 122.769
57.06000 132.949
57.23000 122.546
57.40000 129.496
57.57000 129.148
57.74000 121.713
57.91000 129.600
58.08000 116.108
58.25000 122.296
58.42000 119.473
58.59000 120.090
58.76000 104.952
58.93000 117.852
59.10000 114.486
59.27000 113.006
59.44000 120.882
59.61000 116.744
59.78000 114.864
59.95000 126.595
60.12000 108.745
60.29000 124.884
60.46000 116.529
60.63000 117.952
60.80000 116.502
60.97000 121.328
61.14000 123.416
61.31000 121.906
61.48000 130.734
61.65000 272.035
61.82000 193.320
61.99000 142.395
62.16000 128.626
62.33000 125.959
62.50000 133.348
62.67000 125.169
62.84000 137.402
63.01000 128.552
63.18000 138.364
63.35000 139.660
63.52000 132.095
63.69000 142.516
63.86000 142.009
64.03000 144.752
64.20000 148.741
64.37000 151.098
64.54000 166.149
64.71000 174.422
64.88000 184.944
65.05000 200.357
65.22000 211.800
65.39000 246.896
65.56000 321.217
65.73000 931.919
65.90000 1864.782
66.07000 512.193
66.24000 379.003
66.41000 593.845
66.58000 414.379
66.75000 342.281
66.92000 346.698
67.09000 366.421
67.26000 394.208
67.43000 415.332
67.60000 418.909
67.77000 458.459
67.94000 488.065
68.11000 500.680
68.28000 545.304
68.45000 623.905
68.62000 859.361
68.79000 1526.807
68.96000 7822.085
69.13000 42100.801
69.30000 23356.797
69.47000 6152.872
69.64000 910.321
69.81000 605.217
69.98000 518.836
70.00000 502.841