File: XRD/08-10-2025 Dep 7/XY Data/BTO_Mapping_Theta2Theta_08-10-2025_001_16_9-271_28-532.xy
20.00000 483.066
20.17000 473.995
20.34000 466.895
20.51000 479.253
20.68000 475.042
20.85000 470.684
21.02000 462.592
21.19000 482.895
21.36000 468.562
21.53000 476.461
21.70000 484.458
21.87000 477.880
22.04000 515.883
22.21000 503.355
22.38000 470.060
22.55000 461.531
22.72000 453.824
22.89000 437.862
23.06000 452.181
23.23000 448.947
23.40000 442.810
23.57000 448.165
23.74000 469.487
23.91000 521.956
24.08000 539.512
24.25000 485.170
24.42000 418.527
24.59000 429.681
24.76000 403.778
24.93000 399.788
25.10000 400.860
25.27000 405.588
25.44000 401.757
25.61000 396.290
25.78000 391.923
25.95000 390.879
26.12000 381.014
26.29000 391.554
26.46000 393.593
26.63000 377.325
26.80000 385.305
26.97000 376.548
27.14000 367.130
27.31000 378.070
27.48000 368.407
27.65000 369.500
27.82000 379.032
27.99000 371.193
28.16000 352.656
28.33000 378.525
28.50000 354.977
28.67000 363.537
28.84000 362.717
29.01000 353.817
29.18000 359.246
29.35000 351.536
29.52000 357.427
29.69000 353.786
29.86000 369.569
30.03000 383.758
30.20000 359.433
30.37000 380.789
30.54000 370.157
30.71000 371.915
30.88000 391.764
31.05000 509.840
31.22000 798.138
31.39000 1078.596
31.56000 790.586
31.73000 488.010
31.90000 369.843
32.07000 363.385
32.24000 351.309
32.41000 336.499
32.58000 312.231
32.75000 337.325
32.92000 312.806
33.09000 310.623
33.26000 299.507
33.43000 307.992
33.60000 290.407
33.77000 302.795
33.94000 315.462
34.11000 318.614
34.28000 341.670
34.45000 364.739
34.62000 306.585
34.79000 283.090
34.96000 279.444
35.13000 251.420
35.30000 274.869
35.47000 267.575
35.64000 267.375
35.81000 257.071
35.98000 262.689
36.15000 260.613
36.32000 255.573
36.49000 276.182
36.66000 259.046
36.83000 258.327
37.00000 272.952
37.17000 271.919
37.34000 274.560
37.51000 244.354
37.68000 243.994
37.85000 233.798
38.02000 259.139
38.19000 266.744
38.36000 298.924
38.53000 492.827
38.70000 786.977
38.87000 587.684
39.04000 310.565
39.21000 256.164
39.38000 257.902
39.55000 244.951
39.72000 223.647
39.89000 226.068
40.06000 241.550
40.23000 224.975
40.40000 226.969
40.57000 215.903
40.74000 218.754
40.91000 212.003
41.08000 216.500
41.25000 201.069
41.42000 209.317
41.59000 209.016
41.76000 215.652
41.93000 212.153
42.10000 224.116
42.27000 210.061
42.44000 221.488
42.61000 213.002
42.78000 207.785
42.95000 207.929
43.12000 211.865
43.29000 193.782
43.46000 207.728
43.63000 201.748
43.80000 195.653
43.97000 180.764
44.14000 198.230
44.31000 209.417
44.48000 207.573
44.65000 206.538
44.82000 219.396
44.99000 228.127
45.16000 225.083
45.33000 237.109
45.50000 202.494
45.67000 204.939
45.84000 188.909
46.01000 175.154
46.18000 179.389
46.35000 176.425
46.52000 169.894
46.69000 178.398
46.86000 172.993
47.03000 180.664
47.20000 163.316
47.37000 163.096
47.54000 166.443
47.71000 171.005
47.88000 161.320
48.05000 163.451
48.22000 164.973
48.39000 155.533
48.56000 156.345
48.73000 158.481
48.90000 153.605
49.07000 160.715
49.24000 152.386
49.41000 160.661
49.58000 155.075
49.75000 135.424
49.92000 146.370
50.09000 168.298
50.26000 146.939
50.43000 161.333
50.60000 168.051
50.77000 160.971
50.94000 149.684
51.11000 155.284
51.28000 150.196
51.45000 144.429
51.62000 153.907
51.79000 151.657
51.96000 136.705
52.13000 140.633
52.30000 146.811
52.47000 138.576
52.64000 149.155
52.81000 144.575
52.98000 141.330
53.15000 135.423
53.32000 138.357
53.49000 146.339
53.66000 141.236
53.83000 146.787
54.00000 147.185
54.17000 141.007
54.34000 124.244
54.51000 141.736
54.68000 136.630
54.85000 156.363
55.02000 156.163
55.19000 143.850
55.36000 181.965
55.53000 194.741
55.70000 272.827
55.87000 398.992
56.04000 387.887
56.21000 264.697
56.38000 202.801
56.55000 158.358
56.72000 139.645
56.89000 135.661
57.06000 135.696
57.23000 136.594
57.40000 132.228
57.57000 127.549
57.74000 126.371
57.91000 134.730
58.08000 133.732
58.25000 118.068
58.42000 117.210
58.59000 116.270
58.76000 122.644
58.93000 126.764
59.10000 125.509
59.27000 119.298
59.44000 114.314
59.61000 119.510
59.78000 122.537
59.95000 122.503
60.12000 119.250
60.29000 122.587
60.46000 115.910
60.63000 117.931
60.80000 118.444
60.97000 113.334
61.14000 125.779
61.31000 138.399
61.48000 131.333
61.65000 275.188
61.82000 192.225
61.99000 135.074
62.16000 136.571
62.33000 134.475
62.50000 122.871
62.67000 127.546
62.84000 130.531
63.01000 138.773
63.18000 126.290
63.35000 136.676
63.52000 138.440
63.69000 144.520
63.86000 139.136
64.03000 145.321
64.20000 148.665
64.37000 154.748
64.54000 168.360
64.71000 160.933
64.88000 174.022
65.05000 187.686
65.22000 213.120
65.39000 249.500
65.56000 313.314
65.73000 962.447
65.90000 1944.534
66.07000 512.837
66.24000 381.296
66.41000 608.250
66.58000 412.468
66.75000 345.959
66.92000 359.316
67.09000 384.374
67.26000 392.606
67.43000 401.757
67.60000 434.843
67.77000 480.399
67.94000 477.209
68.11000 531.708
68.28000 560.240
68.45000 658.359
68.62000 906.779
68.79000 1598.042
68.96000 8336.895
69.13000 43684.590
69.30000 24147.096
69.47000 6285.924
69.64000 929.094
69.81000 617.148
69.98000 489.454
70.00000 490.893