File: XRD/08-10-2025 Dep 7/XY Data/BTO_Mapping_Theta2Theta_08-10-2025_001_46_-1-045_-9-945.xy
20.00000 471.280
20.17000 479.350
20.34000 466.575
20.51000 470.671
20.68000 465.609
20.85000 457.775
21.02000 461.904
21.19000 468.237
21.36000 449.586
21.53000 474.562
21.70000 479.969
21.87000 487.946
22.04000 543.796
22.21000 517.894
22.38000 477.910
22.55000 467.137
22.72000 439.814
22.89000 424.156
23.06000 436.626
23.23000 445.187
23.40000 425.961
23.57000 431.176
23.74000 457.338
23.91000 476.533
24.08000 475.735
24.25000 437.060
24.42000 427.554
24.59000 425.446
24.76000 400.487
24.93000 415.517
25.10000 410.506
25.27000 412.090
25.44000 389.206
25.61000 392.783
25.78000 400.611
25.95000 402.118
26.12000 394.844
26.29000 366.354
26.46000 375.767
26.63000 373.048
26.80000 380.910
26.97000 374.096
27.14000 383.483
27.31000 371.978
27.48000 398.258
27.65000 377.217
27.82000 368.135
27.99000 357.007
28.16000 347.534
28.33000 353.127
28.50000 370.818
28.67000 347.539
28.84000 356.900
29.01000 342.410
29.18000 342.535
29.35000 349.299
29.52000 347.350
29.69000 358.631
29.86000 370.087
30.03000 379.957
30.20000 369.589
30.37000 360.103
30.54000 367.230
30.71000 376.760
30.88000 375.344
31.05000 486.341
31.22000 823.563
31.39000 1099.015
31.56000 703.945
31.73000 412.925
31.90000 348.789
32.07000 334.631
32.24000 332.219
32.41000 340.413
32.58000 327.308
32.75000 322.191
32.92000 320.325
33.09000 296.823
33.26000 292.154
33.43000 294.303
33.60000 309.279
33.77000 294.155
33.94000 315.345
34.11000 324.781
34.28000 352.764
34.45000 366.767
34.62000 321.290
34.79000 289.555
34.96000 280.443
35.13000 269.525
35.30000 264.317
35.47000 257.783
35.64000 269.014
35.81000 263.642
35.98000 256.502
36.15000 257.192
36.32000 252.035
36.49000 259.040
36.66000 271.346
36.83000 282.728
37.00000 299.524
37.17000 289.232
37.34000 260.265
37.51000 249.641
37.68000 255.847
37.85000 260.841
38.02000 246.082
38.19000 258.853
38.36000 361.641
38.53000 748.865
38.70000 1234.275
38.87000 843.335
39.04000 365.080
39.21000 262.889
39.38000 235.689
39.55000 245.409
39.72000 241.387
39.89000 228.229
40.06000 226.712
40.23000 229.471
40.40000 225.636
40.57000 211.552
40.74000 212.137
40.91000 218.517
41.08000 214.242
41.25000 218.636
41.42000 204.612
41.59000 203.084
41.76000 206.890
41.93000 211.553
42.10000 203.484
42.27000 197.805
42.44000 222.426
42.61000 217.860
42.78000 206.379
42.95000 209.635
43.12000 193.709
43.29000 201.368
43.46000 191.893
43.63000 181.745
43.80000 184.319
43.97000 198.022
44.14000 206.182
44.31000 192.398
44.48000 205.576
44.65000 223.090
44.82000 244.462
44.99000 273.695
45.16000 249.781
45.33000 233.977
45.50000 216.648
45.67000 202.022
45.84000 196.278
46.01000 185.733
46.18000 166.957
46.35000 178.941
46.52000 181.399
46.69000 169.342
46.86000 165.872
47.03000 172.187
47.20000 163.693
47.37000 168.679
47.54000 162.623
47.71000 155.433
47.88000 160.553
48.05000 153.424
48.22000 161.941
48.39000 166.661
48.56000 156.555
48.73000 152.352
48.90000 149.403
49.07000 146.614
49.24000 147.369
49.41000 159.813
49.58000 154.476
49.75000 158.314
49.92000 150.453
50.09000 149.104
50.26000 164.443
50.43000 172.377
50.60000 164.269
50.77000 166.838
50.94000 164.956
51.11000 140.931
51.28000 143.813
51.45000 159.165
51.62000 144.038
51.79000 144.432
51.96000 139.641
52.13000 146.764
52.30000 144.895
52.47000 140.328
52.64000 133.509
52.81000 135.812
52.98000 134.944
53.15000 145.621
53.32000 159.617
53.49000 167.023
53.66000 133.749
53.83000 152.994
54.00000 136.200
54.17000 139.070
54.34000 141.325
54.51000 138.854
54.68000 141.677
54.85000 138.398
55.02000 136.707
55.19000 158.634
55.36000 171.168
55.53000 255.670
55.70000 458.933
55.87000 691.153
56.04000 639.120
56.21000 361.479
56.38000 201.187
56.55000 156.200
56.72000 136.629
56.89000 125.763
57.06000 134.709
57.23000 130.640
57.40000 133.159
57.57000 135.338
57.74000 132.450
57.91000 134.759
58.08000 123.177
58.25000 123.712
58.42000 115.853
58.59000 125.465
58.76000 121.776
58.93000 117.164
59.10000 124.543
59.27000 113.508
59.44000 122.533
59.61000 119.710
59.78000 123.305
59.95000 112.417
60.12000 120.567
60.29000 120.187
60.46000 124.898
60.63000 116.768
60.80000 118.508
60.97000 119.921
61.14000 125.481
61.31000 121.163
61.48000 120.014
61.65000 283.793
61.82000 203.436
61.99000 128.845
62.16000 126.579
62.33000 126.598
62.50000 131.966
62.67000 137.605
62.84000 128.450
63.01000 127.475
63.18000 122.782
63.35000 128.743
63.52000 135.251
63.69000 128.393
63.86000 145.814
64.03000 143.387
64.20000 146.117
64.37000 149.837
64.54000 139.820
64.71000 161.879
64.88000 163.378
65.05000 182.447
65.22000 217.519
65.39000 256.001
65.56000 308.704
65.73000 948.645
65.90000 1975.320
66.07000 502.967
66.24000 364.841
66.41000 601.798
66.58000 408.019
66.75000 345.673
66.92000 338.461
67.09000 381.988
67.26000 394.169
67.43000 415.476
67.60000 427.844
67.77000 437.233
67.94000 489.688
68.11000 502.051
68.28000 547.084
68.45000 623.204
68.62000 864.765
68.79000 1560.753
68.96000 8403.700
69.13000 43737.629
69.30000 24121.553
69.47000 6308.143
69.64000 896.936
69.81000 622.822
69.98000 513.339
70.00000 496.912