File: XRD/08-10-2025 Dep 7/XY Data/BTO_Mapping_Theta2Theta_08-10-2025_001_28_-24-271_17-634.xy
20.00000 508.380
20.17000 455.642
20.34000 468.947
20.51000 463.460
20.68000 470.176
20.85000 472.250
21.02000 469.913
21.19000 465.706
21.36000 452.158
21.53000 454.852
21.70000 468.947
21.87000 512.033
22.04000 565.446
22.21000 533.244
22.38000 493.509
22.55000 447.673
22.72000 420.288
22.89000 435.805
23.06000 423.592
23.23000 408.412
23.40000 426.130
23.57000 422.006
23.74000 443.339
23.91000 448.492
24.08000 454.120
24.25000 422.564
24.42000 432.185
24.59000 392.165
24.76000 413.543
24.93000 404.150
25.10000 397.451
25.27000 405.504
25.44000 394.502
25.61000 383.531
25.78000 390.092
25.95000 369.040
26.12000 371.694
26.29000 373.306
26.46000 384.486
26.63000 385.411
26.80000 383.161
26.97000 367.414
27.14000 378.992
27.31000 350.967
27.48000 369.844
27.65000 382.694
27.82000 373.110
27.99000 371.427
28.16000 354.292
28.33000 346.431
28.50000 356.481
28.67000 364.474
28.84000 356.169
29.01000 367.922
29.18000 359.284
29.35000 348.169
29.52000 345.485
29.69000 364.264
29.86000 387.839
30.03000 393.160
30.20000 407.325
30.37000 360.487
30.54000 370.774
30.71000 377.122
30.88000 392.002
31.05000 544.371
31.22000 1242.408
31.39000 1866.556
31.56000 1124.878
31.73000 471.687
31.90000 364.644
32.07000 348.341
32.24000 334.992
32.41000 330.692
32.58000 316.718
32.75000 304.939
32.92000 333.377
33.09000 306.352
33.26000 297.563
33.43000 295.921
33.60000 303.459
33.77000 297.984
33.94000 305.049
34.11000 325.831
34.28000 341.524
34.45000 338.822
34.62000 311.883
34.79000 314.203
34.96000 282.810
35.13000 266.529
35.30000 254.341
35.47000 269.210
35.64000 274.425
35.81000 263.849
35.98000 263.468
36.15000 263.107
36.32000 258.419
36.49000 263.971
36.66000 259.158
36.83000 267.028
37.00000 266.354
37.17000 264.499
37.34000 255.834
37.51000 257.040
37.68000 266.025
37.85000 263.195
38.02000 246.370
38.19000 266.984
38.36000 350.965
38.53000 684.173
38.70000 1017.738
38.87000 763.710
39.04000 353.906
39.21000 266.534
39.38000 235.281
39.55000 223.702
39.72000 233.454
39.89000 237.725
40.06000 233.445
40.23000 220.992
40.40000 216.986
40.57000 210.320
40.74000 218.599
40.91000 210.779
41.08000 217.021
41.25000 214.029
41.42000 207.038
41.59000 208.977
41.76000 197.228
41.93000 210.337
42.10000 190.774
42.27000 214.671
42.44000 196.102
42.61000 194.731
42.78000 193.442
42.95000 192.964
43.12000 200.457
43.29000 201.100
43.46000 193.732
43.63000 190.054
43.80000 185.122
43.97000 195.622
44.14000 184.297
44.31000 191.787
44.48000 195.971
44.65000 213.051
44.82000 239.053
44.99000 269.233
45.16000 266.037
45.33000 251.724
45.50000 231.024
45.67000 211.977
45.84000 199.363
46.01000 179.233
46.18000 175.346
46.35000 175.126
46.52000 176.479
46.69000 170.401
46.86000 168.530
47.03000 174.399
47.20000 166.395
47.37000 167.740
47.54000 167.326
47.71000 163.297
47.88000 164.373
48.05000 156.604
48.22000 162.800
48.39000 170.690
48.56000 157.903
48.73000 162.231
48.90000 159.372
49.07000 158.118
49.24000 161.568
49.41000 147.684
49.58000 154.351
49.75000 153.214
49.92000 148.768
50.09000 149.577
50.26000 171.689
50.43000 172.826
50.60000 202.059
50.77000 199.123
50.94000 178.198
51.11000 150.026
51.28000 149.044
51.45000 143.302
51.62000 136.082
51.79000 137.580
51.96000 152.677
52.13000 129.220
52.30000 137.156
52.47000 141.048
52.64000 139.637
52.81000 145.062
52.98000 141.970
53.15000 143.735
53.32000 158.240
53.49000 155.092
53.66000 146.211
53.83000 138.582
54.00000 149.914
54.17000 142.346
54.34000 141.964
54.51000 146.222
54.68000 140.034
54.85000 151.566
55.02000 147.487
55.19000 154.665
55.36000 181.925
55.53000 267.047
55.70000 475.546
55.87000 681.446
56.04000 604.234
56.21000 345.815
56.38000 202.572
56.55000 152.567
56.72000 135.134
56.89000 142.651
57.06000 129.654
57.23000 132.343
57.40000 135.875
57.57000 127.930
57.74000 115.134
57.91000 122.753
58.08000 117.330
58.25000 128.968
58.42000 120.055
58.59000 127.688
58.76000 122.989
58.93000 112.261
59.10000 115.212
59.27000 118.384
59.44000 117.106
59.61000 116.986
59.78000 114.467
59.95000 124.281
60.12000 127.513
60.29000 113.725
60.46000 122.622
60.63000 118.493
60.80000 117.745
60.97000 114.472
61.14000 127.194
61.31000 126.260
61.48000 138.695
61.65000 282.133
61.82000 249.779
61.99000 131.895
62.16000 123.802
62.33000 125.533
62.50000 135.923
62.67000 121.612
62.84000 133.150
63.01000 140.232
63.18000 129.958
63.35000 137.286
63.52000 135.623
63.69000 140.295
63.86000 146.449
64.03000 137.218
64.20000 152.843
64.37000 143.650
64.54000 160.721
64.71000 158.864
64.88000 183.128
65.05000 200.934
65.22000 244.965
65.39000 296.833
65.56000 375.429
65.73000 815.149
65.90000 2133.084
66.07000 624.569
66.24000 373.784
66.41000 661.193
66.58000 460.353
66.75000 354.921
66.92000 347.120
67.09000 385.768
67.26000 401.368
67.43000 428.259
67.60000 433.753
67.77000 449.635
67.94000 477.316
68.11000 520.359
68.28000 571.596
68.45000 647.308
68.62000 858.077
68.79000 1563.630
68.96000 5857.284
69.13000 46628.781
69.30000 30166.449
69.47000 9985.360
69.64000 1034.293
69.81000 666.880
69.98000 534.490
70.00000 522.469