File: XRD/08-10-2025 Dep 7/XY Data/BTO_Mapping_Theta2Theta_08-10-2025_001_53_12-361_-38-042.xy
20.00000 473.326
20.17000 474.008
20.34000 473.801
20.51000 475.129
20.68000 464.330
20.85000 469.827
21.02000 453.036
21.19000 476.355
21.36000 455.103
21.53000 474.145
21.70000 481.196
21.87000 479.814
22.04000 539.589
22.21000 495.047
22.38000 476.431
22.55000 461.408
22.72000 450.925
22.89000 432.348
23.06000 436.384
23.23000 442.750
23.40000 433.583
23.57000 434.888
23.74000 490.722
23.91000 526.225
24.08000 520.152
24.25000 457.116
24.42000 427.979
24.59000 404.234
24.76000 396.402
24.93000 405.508
25.10000 415.880
25.27000 406.985
25.44000 396.136
25.61000 391.241
25.78000 398.377
25.95000 398.135
26.12000 390.602
26.29000 390.113
26.46000 385.974
26.63000 399.335
26.80000 383.768
26.97000 375.595
27.14000 391.409
27.31000 370.044
27.48000 369.098
27.65000 384.061
27.82000 358.941
27.99000 367.685
28.16000 365.031
28.33000 376.395
28.50000 361.121
28.67000 360.605
28.84000 361.780
29.01000 350.010
29.18000 355.326
29.35000 361.694
29.52000 351.533
29.69000 365.814
29.86000 363.256
30.03000 379.162
30.20000 385.235
30.37000 363.161
30.54000 364.179
30.71000 399.695
30.88000 412.216
31.05000 537.877
31.22000 973.146
31.39000 1343.402
31.56000 838.699
31.73000 434.728
31.90000 384.235
32.07000 348.339
32.24000 337.978
32.41000 341.046
32.58000 330.148
32.75000 328.710
32.92000 321.942
33.09000 317.857
33.26000 290.549
33.43000 302.068
33.60000 300.186
33.77000 298.769
33.94000 313.131
34.11000 333.456
34.28000 350.916
34.45000 347.207
34.62000 322.308
34.79000 302.344
34.96000 291.334
35.13000 280.687
35.30000 273.243
35.47000 266.555
35.64000 261.908
35.81000 261.265
35.98000 258.861
36.15000 262.771
36.32000 269.933
36.49000 269.428
36.66000 268.215
36.83000 278.756
37.00000 293.367
37.17000 266.607
37.34000 259.223
37.51000 251.753
37.68000 249.906
37.85000 247.466
38.02000 270.306
38.19000 266.857
38.36000 346.848
38.53000 677.713
38.70000 1062.876
38.87000 722.713
39.04000 324.069
39.21000 234.241
39.38000 234.775
39.55000 230.443
39.72000 228.168
39.89000 235.046
40.06000 225.562
40.23000 213.820
40.40000 220.446
40.57000 214.184
40.74000 236.408
40.91000 214.292
41.08000 215.832
41.25000 216.932
41.42000 199.724
41.59000 217.500
41.76000 221.548
41.93000 230.583
42.10000 216.395
42.27000 220.524
42.44000 222.356
42.61000 230.399
42.78000 215.816
42.95000 196.827
43.12000 198.224
43.29000 197.285
43.46000 198.654
43.63000 191.227
43.80000 203.495
43.97000 192.354
44.14000 201.911
44.31000 191.872
44.48000 208.005
44.65000 218.847
44.82000 228.229
44.99000 235.821
45.16000 253.205
45.33000 213.592
45.50000 208.923
45.67000 203.233
45.84000 182.597
46.01000 180.503
46.18000 180.570
46.35000 169.839
46.52000 174.692
46.69000 183.894
46.86000 185.028
47.03000 179.433
47.20000 166.651
47.37000 170.359
47.54000 163.954
47.71000 152.967
47.88000 160.926
48.05000 178.605
48.22000 165.080
48.39000 160.651
48.56000 158.567
48.73000 148.668
48.90000 152.304
49.07000 157.324
49.24000 154.742
49.41000 156.908
49.58000 148.359
49.75000 159.188
49.92000 166.342
50.09000 161.076
50.26000 148.226
50.43000 157.490
50.60000 170.306
50.77000 166.405
50.94000 152.887
51.11000 154.255
51.28000 142.861
51.45000 150.312
51.62000 147.478
51.79000 147.508
51.96000 148.024
52.13000 140.042
52.30000 143.195
52.47000 147.702
52.64000 136.010
52.81000 142.373
52.98000 143.758
53.15000 139.771
53.32000 153.397
53.49000 157.675
53.66000 148.535
53.83000 139.389
54.00000 140.314
54.17000 140.520
54.34000 152.266
54.51000 149.120
54.68000 140.865
54.85000 140.636
55.02000 157.717
55.19000 164.113
55.36000 177.090
55.53000 233.898
55.70000 383.149
55.87000 608.998
56.04000 566.114
56.21000 330.736
56.38000 193.175
56.55000 148.702
56.72000 144.410
56.89000 129.513
57.06000 136.237
57.23000 114.499
57.40000 122.600
57.57000 124.750
57.74000 128.715
57.91000 122.797
58.08000 116.379
58.25000 125.929
58.42000 125.507
58.59000 117.826
58.76000 120.250
58.93000 120.710
59.10000 125.366
59.27000 117.871
59.44000 118.250
59.61000 117.489
59.78000 113.133
59.95000 111.259
60.12000 124.390
60.29000 120.223
60.46000 113.180
60.63000 115.612
60.80000 121.096
60.97000 114.726
61.14000 116.452
61.31000 117.821
61.48000 145.988
61.65000 283.053
61.82000 183.858
61.99000 127.217
62.16000 125.588
62.33000 132.505
62.50000 132.140
62.67000 129.900
62.84000 144.363
63.01000 133.561
63.18000 140.277
63.35000 134.425
63.52000 127.283
63.69000 142.330
63.86000 145.286
64.03000 145.028
64.20000 138.858
64.37000 150.203
64.54000 158.280
64.71000 170.616
64.88000 182.947
65.05000 189.625
65.22000 223.060
65.39000 257.194
65.56000 328.203
65.73000 1073.919
65.90000 1804.833
66.07000 447.827
66.24000 370.008
66.41000 611.315
66.58000 398.256
66.75000 341.468
66.92000 341.989
67.09000 364.680
67.26000 375.688
67.43000 396.555
67.60000 448.805
67.77000 437.572
67.94000 465.344
68.11000 519.490
68.28000 541.555
68.45000 631.514
68.62000 864.754
68.79000 1559.030
68.96000 10331.286
69.13000 42180.445
69.30000 21596.879
69.47000 4652.454
69.64000 869.506
69.81000 601.580
69.98000 514.125
70.00000 508.142