File: XRD/30-09-2025 Dep 1/XY Data/BTO_Mapping_Theta2Theta_30-09-2025_001_24_-15-000_25-981.xy
20.00000 575.284
20.17000 570.922
20.34000 582.642
20.51000 565.357
20.68000 568.492
20.85000 556.045
21.02000 547.946
21.19000 543.359
21.36000 533.823
21.53000 532.746
21.70000 536.616
21.87000 572.427
22.04000 651.780
22.21000 609.397
22.38000 556.086
22.55000 526.501
22.72000 522.953
22.89000 495.074
23.06000 492.917
23.23000 549.427
23.40000 500.337
23.57000 520.363
23.74000 501.962
23.91000 525.353
24.08000 529.600
24.25000 534.899
24.42000 487.377
24.59000 471.661
24.76000 488.642
24.93000 485.783
25.10000 489.800
25.27000 457.268
25.44000 481.570
25.61000 455.795
25.78000 465.342
25.95000 457.637
26.12000 448.567
26.29000 461.241
26.46000 468.345
26.63000 459.228
26.80000 443.213
26.97000 462.528
27.14000 446.996
27.31000 445.937
27.48000 452.311
27.65000 436.175
27.82000 441.385
27.99000 432.461
28.16000 423.747
28.33000 422.131
28.50000 424.951
28.67000 418.874
28.84000 412.062
29.01000 419.346
29.18000 418.850
29.35000 416.862
29.52000 424.417
29.69000 424.981
29.86000 413.088
30.03000 430.003
30.20000 425.386
30.37000 417.797
30.54000 414.266
30.71000 423.343
30.88000 435.438
31.05000 540.262
31.22000 1124.010
31.39000 2007.549
31.56000 1245.587
31.73000 550.272
31.90000 434.938
32.07000 404.218
32.24000 378.918
32.41000 409.133
32.58000 347.197
32.75000 362.918
32.92000 376.908
33.09000 368.619
33.26000 336.917
33.43000 350.336
33.60000 332.696
33.77000 340.911
33.94000 352.974
34.11000 347.909
34.28000 350.357
34.45000 378.171
34.62000 338.497
34.79000 341.682
34.96000 316.249
35.13000 332.149
35.30000 318.835
35.47000 317.422
35.64000 310.417
35.81000 309.887
35.98000 311.309
36.15000 317.387
36.32000 298.560
36.49000 297.724
36.66000 302.637
36.83000 299.318
37.00000 308.703
37.17000 314.230
37.34000 318.635
37.51000 295.994
37.68000 309.159
37.85000 291.307
38.02000 287.010
38.19000 297.471
38.36000 328.595
38.53000 513.707
38.70000 1075.714
38.87000 905.310
39.04000 406.683
39.21000 304.002
39.38000 272.795
39.55000 275.151
39.72000 270.559
39.89000 286.299
40.06000 271.534
40.23000 261.094
40.40000 251.692
40.57000 263.819
40.74000 261.618
40.91000 239.553
41.08000 251.071
41.25000 244.242
41.42000 253.390
41.59000 238.690
41.76000 243.286
41.93000 235.703
42.10000 242.582
42.27000 251.264
42.44000 243.041
42.61000 240.729
42.78000 230.334
42.95000 228.187
43.12000 235.563
43.29000 226.163
43.46000 218.812
43.63000 234.022
43.80000 223.179
43.97000 229.771
44.14000 223.434
44.31000 220.809
44.48000 232.770
44.65000 230.823
44.82000 268.136
44.99000 304.328
45.16000 312.950
45.33000 275.460
45.50000 219.009
45.67000 213.224
45.84000 202.664
46.01000 210.808
46.18000 201.320
46.35000 213.180
46.52000 207.795
46.69000 213.081
46.86000 200.291
47.03000 204.728
47.20000 182.424
47.37000 189.526
47.54000 192.679
47.71000 186.178
47.88000 184.736
48.05000 195.893
48.22000 179.040
48.39000 182.620
48.56000 174.848
48.73000 178.013
48.90000 175.160
49.07000 179.536
49.24000 183.128
49.41000 175.625
49.58000 174.414
49.75000 186.940
49.92000 173.755
50.09000 168.593
50.26000 181.753
50.43000 188.979
50.60000 211.533
50.77000 225.453
50.94000 186.494
51.11000 165.207
51.28000 171.656
51.45000 161.757
51.62000 168.357
51.79000 166.341
51.96000 162.285
52.13000 167.280
52.30000 166.110
52.47000 157.960
52.64000 147.389
52.81000 153.081
52.98000 171.593
53.15000 177.573
53.32000 169.270
53.49000 163.235
53.66000 160.246
53.83000 169.192
54.00000 150.596
54.17000 152.125
54.34000 150.864
54.51000 157.058
54.68000 156.393
54.85000 169.557
55.02000 163.067
55.19000 161.032
55.36000 165.364
55.53000 187.000
55.70000 297.621
55.87000 510.287
56.04000 557.105
56.21000 347.003
56.38000 209.637
56.55000 174.407
56.72000 169.374
56.89000 147.633
57.06000 146.433
57.23000 142.264
57.40000 136.312
57.57000 147.138
57.74000 143.232
57.91000 135.760
58.08000 149.900
58.25000 140.158
58.42000 141.489
58.59000 134.635
58.76000 126.456
58.93000 134.454
59.10000 135.553
59.27000 134.268
59.44000 137.928
59.61000 130.530
59.78000 126.202
59.95000 130.967
60.12000 130.245
60.29000 135.474
60.46000 129.258
60.63000 127.424
60.80000 128.352
60.97000 130.127
61.14000 130.178
61.31000 127.556
61.48000 147.640
61.65000 237.411
61.82000 194.668
61.99000 136.816
62.16000 139.276
62.33000 148.671
62.50000 138.591
62.67000 146.004
62.84000 145.387
63.01000 139.614
63.18000 138.250
63.35000 143.186
63.52000 147.134
63.69000 154.334
63.86000 152.619
64.03000 146.257
64.20000 167.812
64.37000 152.294
64.54000 165.600
64.71000 170.471
64.88000 179.248
65.05000 191.424
65.22000 211.682
65.39000 269.159
65.56000 317.422
65.73000 492.723
65.90000 922.302
66.07000 330.061
66.24000 289.024
66.41000 385.779
66.58000 334.462
66.75000 293.106
66.92000 319.301
67.09000 335.398
67.26000 342.903
67.43000 387.765
67.60000 403.714
67.77000 444.223
67.94000 485.550
68.11000 506.581
68.28000 569.630
68.45000 660.842
68.62000 894.331
68.79000 1609.332
68.96000 7738.356
69.13000 47793.246
69.30000 29948.746
69.47000 8146.979
69.64000 1158.149
69.81000 776.575
69.98000 654.158
70.00000 635.195