File: XRD/30-09-2025 Dep 1/XY Data/BTO_Mapping_Theta2Theta_30-09-2025_001_44_-15-000_-25-981.xy
20.00000 557.560
20.17000 575.583
20.34000 562.188
20.51000 555.774
20.68000 562.109
20.85000 557.827
21.02000 545.490
21.19000 555.214
21.36000 547.724
21.53000 559.545
21.70000 573.086
21.87000 746.044
22.04000 916.059
22.21000 673.856
22.38000 552.639
22.55000 553.806
22.72000 543.660
22.89000 505.231
23.06000 518.790
23.23000 497.958
23.40000 513.283
23.57000 503.443
23.74000 499.127
23.91000 512.081
24.08000 503.338
24.25000 490.193
24.42000 514.711
24.59000 521.591
24.76000 490.415
24.93000 508.214
25.10000 479.145
25.27000 486.823
25.44000 486.071
25.61000 481.096
25.78000 486.380
25.95000 469.945
26.12000 450.411
26.29000 468.531
26.46000 468.870
26.63000 439.519
26.80000 473.755
26.97000 459.352
27.14000 445.129
27.31000 450.888
27.48000 439.053
27.65000 439.458
27.82000 437.602
27.99000 448.655
28.16000 452.248
28.33000 442.601
28.50000 439.130
28.67000 431.378
28.84000 419.949
29.01000 433.674
29.18000 437.253
29.35000 451.504
29.52000 400.452
29.69000 463.833
29.86000 435.446
30.03000 478.932
30.20000 466.279
30.37000 435.471
30.54000 466.951
30.71000 472.198
30.88000 514.557
31.05000 774.195
31.22000 2564.497
31.39000 4054.322
31.56000 1518.069
31.73000 557.781
31.90000 429.244
32.07000 431.690
32.24000 404.814
32.41000 391.423
32.58000 384.429
32.75000 380.218
32.92000 418.587
33.09000 473.886
33.26000 387.226
33.43000 357.908
33.60000 361.253
33.77000 347.082
33.94000 355.828
34.11000 348.334
34.28000 345.097
34.45000 334.575
34.62000 338.200
34.79000 315.927
34.96000 331.522
35.13000 322.380
35.30000 336.394
35.47000 305.462
35.64000 321.555
35.81000 298.414
35.98000 315.036
36.15000 309.270
36.32000 301.692
36.49000 301.716
36.66000 318.745
36.83000 312.706
37.00000 304.923
37.17000 313.614
37.34000 296.407
37.51000 287.592
37.68000 300.040
37.85000 290.401
38.02000 298.259
38.19000 299.019
38.36000 346.585
38.53000 444.845
38.70000 606.880
38.87000 429.225
39.04000 320.642
39.21000 299.256
39.38000 271.419
39.55000 273.127
39.72000 270.908
39.89000 273.602
40.06000 263.839
40.23000 265.620
40.40000 255.530
40.57000 253.332
40.74000 247.451
40.91000 256.502
41.08000 257.045
41.25000 251.982
41.42000 253.272
41.59000 241.210
41.76000 250.403
41.93000 244.580
42.10000 226.259
42.27000 249.753
42.44000 225.796
42.61000 235.712
42.78000 234.330
42.95000 237.690
43.12000 227.559
43.29000 238.448
43.46000 218.404
43.63000 234.644
43.80000 234.440
43.97000 241.521
44.14000 228.392
44.31000 229.437
44.48000 236.788
44.65000 251.199
44.82000 397.353
44.99000 536.675
45.16000 441.574
45.33000 304.639
45.50000 240.125
45.67000 227.390
45.84000 220.067
46.01000 217.120
46.18000 225.018
46.35000 216.146
46.52000 210.913
46.69000 202.214
46.86000 206.806
47.03000 189.497
47.20000 194.893
47.37000 195.398
47.54000 196.355
47.71000 197.142
47.88000 192.903
48.05000 191.337
48.22000 188.535
48.39000 179.338
48.56000 190.526
48.73000 176.551
48.90000 182.923
49.07000 186.066
49.24000 188.681
49.41000 191.766
49.58000 174.333
49.75000 166.054
49.92000 177.908
50.09000 192.733
50.26000 195.936
50.43000 226.473
50.60000 292.218
50.77000 282.745
50.94000 214.340
51.11000 187.864
51.28000 166.153
51.45000 174.915
51.62000 175.745
51.79000 166.125
51.96000 168.637
52.13000 172.316
52.30000 159.335
52.47000 164.542
52.64000 166.407
52.81000 168.151
52.98000 166.221
53.15000 167.282
53.32000 159.701
53.49000 168.064
53.66000 164.678
53.83000 155.221
54.00000 155.366
54.17000 162.480
54.34000 162.199
54.51000 151.004
54.68000 151.688
54.85000 165.986
55.02000 158.063
55.19000 167.412
55.36000 192.587
55.53000 235.716
55.70000 435.133
55.87000 666.812
56.04000 505.491
56.21000 252.906
56.38000 183.283
56.55000 156.219
56.72000 140.268
56.89000 142.313
57.06000 146.163
57.23000 155.767
57.40000 138.911
57.57000 140.933
57.74000 147.328
57.91000 145.524
58.08000 142.602
58.25000 139.957
58.42000 140.159
58.59000 147.873
58.76000 137.737
58.93000 139.055
59.10000 128.230
59.27000 121.021
59.44000 138.902
59.61000 134.330
59.78000 134.570
59.95000 133.789
60.12000 135.707
60.29000 134.060
60.46000 124.861
60.63000 130.243
60.80000 140.269
60.97000 140.488
61.14000 136.780
61.31000 140.976
61.48000 150.887
61.65000 310.064
61.82000 240.829
61.99000 151.034
62.16000 147.964
62.33000 139.427
62.50000 141.079
62.67000 146.269
62.84000 149.369
63.01000 145.919
63.18000 151.682
63.35000 143.509
63.52000 149.809
63.69000 158.057
63.86000 159.607
64.03000 157.744
64.20000 174.434
64.37000 166.712
64.54000 171.133
64.71000 182.146
64.88000 188.333
65.05000 222.403
65.22000 275.968
65.39000 402.788
65.56000 462.803
65.73000 738.744
65.90000 1407.036
66.07000 459.650
66.24000 358.644
66.41000 518.381
66.58000 389.363
66.75000 346.070
66.92000 349.050
67.09000 388.066
67.26000 390.001
67.43000 457.803
67.60000 497.413
67.77000 511.211
67.94000 561.112
68.11000 630.824
68.28000 725.797
68.45000 834.300
68.62000 1165.508
68.79000 2299.581
68.96000 14777.214
69.13000 81804.188
69.30000 52528.844
69.47000 14298.938
69.64000 1630.421
69.81000 1012.917
69.98000 811.655
70.00000 798.597