File: XRD/30-09-2025 Dep 1/XY Data/BTO_Mapping_Theta2Theta_30-09-2025_001_07_18-271_8-135.xy
20.00000 568.164
20.17000 567.672
20.34000 572.436
20.51000 571.521
20.68000 554.095
20.85000 578.573
21.02000 550.535
21.19000 540.857
21.36000 561.631
21.53000 572.311
21.70000 563.619
21.87000 664.401
22.04000 751.707
22.21000 657.845
22.38000 570.667
22.55000 530.720
22.72000 528.760
22.89000 537.455
23.06000 525.516
23.23000 513.147
23.40000 510.288
23.57000 492.194
23.74000 502.326
23.91000 523.306
24.08000 533.185
24.25000 529.870
24.42000 496.368
24.59000 491.147
24.76000 470.207
24.93000 473.776
25.10000 472.800
25.27000 475.192
25.44000 474.456
25.61000 472.518
25.78000 467.907
25.95000 454.163
26.12000 470.689
26.29000 442.637
26.46000 456.317
26.63000 450.670
26.80000 462.965
26.97000 448.570
27.14000 448.846
27.31000 452.977
27.48000 446.381
27.65000 428.536
27.82000 456.542
27.99000 425.750
28.16000 419.062
28.33000 440.201
28.50000 426.992
28.67000 421.434
28.84000 425.271
29.01000 424.315
29.18000 426.651
29.35000 419.164
29.52000 413.232
29.69000 414.842
29.86000 417.449
30.03000 464.023
30.20000 439.317
30.37000 441.408
30.54000 440.383
30.71000 427.336
30.88000 470.953
31.05000 661.104
31.22000 2030.387
31.39000 3703.915
31.56000 1649.919
31.73000 558.791
31.90000 446.842
32.07000 408.830
32.24000 412.525
32.41000 403.144
32.58000 379.484
32.75000 364.150
32.92000 419.782
33.09000 399.896
33.26000 350.208
33.43000 356.379
33.60000 346.413
33.77000 345.538
33.94000 351.606
34.11000 338.110
34.28000 341.905
34.45000 328.197
34.62000 334.762
34.79000 326.155
34.96000 318.005
35.13000 318.362
35.30000 330.226
35.47000 309.920
35.64000 321.837
35.81000 303.173
35.98000 301.342
36.15000 306.926
36.32000 314.827
36.49000 295.144
36.66000 290.767
36.83000 294.615
37.00000 298.845
37.17000 295.205
37.34000 295.296
37.51000 278.753
37.68000 282.129
37.85000 293.312
38.02000 300.223
38.19000 310.782
38.36000 326.269
38.53000 505.596
38.70000 895.893
38.87000 635.057
39.04000 358.940
39.21000 284.744
39.38000 273.686
39.55000 285.651
39.72000 259.605
39.89000 254.538
40.06000 251.963
40.23000 268.717
40.40000 237.756
40.57000 249.079
40.74000 255.738
40.91000 247.421
41.08000 246.812
41.25000 240.938
41.42000 254.759
41.59000 250.551
41.76000 243.671
41.93000 235.590
42.10000 240.678
42.27000 248.129
42.44000 232.369
42.61000 241.200
42.78000 240.609
42.95000 231.964
43.12000 223.183
43.29000 238.576
43.46000 237.483
43.63000 235.510
43.80000 232.633
43.97000 223.580
44.14000 222.185
44.31000 233.543
44.48000 216.737
44.65000 244.774
44.82000 279.048
44.99000 382.460
45.16000 417.767
45.33000 283.208
45.50000 232.383
45.67000 226.502
45.84000 210.867
46.01000 210.996
46.18000 209.959
46.35000 204.262
46.52000 211.058
46.69000 202.502
46.86000 199.582
47.03000 196.853
47.20000 202.037
47.37000 195.228
47.54000 195.236
47.71000 178.529
47.88000 189.411
48.05000 187.837
48.22000 195.399
48.39000 199.424
48.56000 188.497
48.73000 187.788
48.90000 188.029
49.07000 177.244
49.24000 189.959
49.41000 181.527
49.58000 177.804
49.75000 174.148
49.92000 182.984
50.09000 176.517
50.26000 190.533
50.43000 204.473
50.60000 251.236
50.77000 269.390
50.94000 199.541
51.11000 180.899
51.28000 171.247
51.45000 162.652
51.62000 154.777
51.79000 171.336
51.96000 161.992
52.13000 172.544
52.30000 159.499
52.47000 168.775
52.64000 158.536
52.81000 163.722
52.98000 151.585
53.15000 152.761
53.32000 163.685
53.49000 164.415
53.66000 160.846
53.83000 154.161
54.00000 161.238
54.17000 153.526
54.34000 153.743
54.51000 142.051
54.68000 144.987
54.85000 145.109
55.02000 169.891
55.19000 161.262
55.36000 166.998
55.53000 204.754
55.70000 324.178
55.87000 602.335
56.04000 593.277
56.21000 319.403
56.38000 188.960
56.55000 167.993
56.72000 158.169
56.89000 154.980
57.06000 150.405
57.23000 152.610
57.40000 143.991
57.57000 142.282
57.74000 157.134
57.91000 137.209
58.08000 149.501
58.25000 138.861
58.42000 139.605
58.59000 134.332
58.76000 139.816
58.93000 138.595
59.10000 130.588
59.27000 140.982
59.44000 144.429
59.61000 136.921
59.78000 131.392
59.95000 145.562
60.12000 125.880
60.29000 132.731
60.46000 126.751
60.63000 129.255
60.80000 131.889
60.97000 133.287
61.14000 143.494
61.31000 148.326
61.48000 138.504
61.65000 285.837
61.82000 200.174
61.99000 146.602
62.16000 142.048
62.33000 138.657
62.50000 150.523
62.67000 156.761
62.84000 142.460
63.01000 147.248
63.18000 145.015
63.35000 143.652
63.52000 157.929
63.69000 154.332
63.86000 157.151
64.03000 151.024
64.20000 156.512
64.37000 174.174
64.54000 175.360
64.71000 186.347
64.88000 181.969
65.05000 209.758
65.22000 249.126
65.39000 338.834
65.56000 416.182
65.73000 788.105
65.90000 1205.237
66.07000 387.040
66.24000 322.905
66.41000 464.230
66.58000 344.949
66.75000 325.691
66.92000 341.879
67.09000 368.532
67.26000 396.232
67.43000 399.676
67.60000 453.296
67.77000 485.127
67.94000 526.792
68.11000 590.604
68.28000 668.930
68.45000 764.616
68.62000 1146.586
68.79000 2129.337
68.96000 16116.968
69.13000 68033.438
69.30000 39043.109
69.47000 8100.873
69.64000 1317.501
69.81000 895.765
69.98000 720.642
70.00000 732.219