File: XRD/30-09-2025 Dep 1/XY Data/BTO_Mapping_Theta2Theta_30-09-2025_001_25_-20-000_34-641.xy
20.00000 579.782
20.17000 581.383
20.34000 561.688
20.51000 565.918
20.68000 565.112
20.85000 562.110
21.02000 534.428
21.19000 559.982
21.36000 550.258
21.53000 568.448
21.70000 571.065
21.87000 597.728
22.04000 672.495
22.21000 654.907
22.38000 557.063
22.55000 540.629
22.72000 525.805
22.89000 531.110
23.06000 499.742
23.23000 516.267
23.40000 521.167
23.57000 518.862
23.74000 530.758
23.91000 543.953
24.08000 562.009
24.25000 501.534
24.42000 514.652
24.59000 500.923
24.76000 494.443
24.93000 493.513
25.10000 477.468
25.27000 459.728
25.44000 468.920
25.61000 459.147
25.78000 462.166
25.95000 454.859
26.12000 465.036
26.29000 418.096
26.46000 436.981
26.63000 437.518
26.80000 447.372
26.97000 429.586
27.14000 436.357
27.31000 442.063
27.48000 440.087
27.65000 422.968
27.82000 431.181
27.99000 448.274
28.16000 440.028
28.33000 424.456
28.50000 427.435
28.67000 418.616
28.84000 417.188
29.01000 405.344
29.18000 396.688
29.35000 403.890
29.52000 419.337
29.69000 398.806
29.86000 406.500
30.03000 418.718
30.20000 419.802
30.37000 423.233
30.54000 400.198
30.71000 419.780
30.88000 439.851
31.05000 534.216
31.22000 912.828
31.39000 1554.087
31.56000 1096.827
31.73000 536.234
31.90000 423.764
32.07000 414.227
32.24000 398.857
32.41000 386.210
32.58000 368.116
32.75000 383.352
32.92000 377.475
33.09000 383.469
33.26000 359.269
33.43000 344.703
33.60000 348.142
33.77000 335.740
33.94000 341.146
34.11000 386.467
34.28000 362.299
34.45000 364.415
34.62000 360.857
34.79000 344.429
34.96000 329.093
35.13000 316.754
35.30000 311.542
35.47000 299.901
35.64000 323.909
35.81000 309.608
35.98000 298.435
36.15000 331.296
36.32000 311.033
36.49000 304.911
36.66000 282.629
36.83000 277.770
37.00000 283.928
37.17000 307.368
37.34000 305.995
37.51000 294.921
37.68000 298.755
37.85000 293.274
38.02000 288.769
38.19000 294.638
38.36000 322.134
38.53000 457.099
38.70000 869.224
38.87000 757.185
39.04000 383.052
39.21000 276.301
39.38000 281.925
39.55000 269.005
39.72000 278.801
39.89000 260.991
40.06000 271.470
40.23000 263.446
40.40000 264.542
40.57000 260.023
40.74000 259.425
40.91000 243.971
41.08000 246.706
41.25000 244.764
41.42000 255.028
41.59000 241.371
41.76000 245.440
41.93000 249.136
42.10000 248.783
42.27000 235.564
42.44000 249.944
42.61000 236.876
42.78000 227.116
42.95000 233.030
43.12000 227.573
43.29000 227.969
43.46000 228.540
43.63000 229.877
43.80000 223.620
43.97000 219.317
44.14000 223.794
44.31000 224.916
44.48000 236.184
44.65000 242.003
44.82000 264.301
44.99000 312.413
45.16000 328.167
45.33000 286.359
45.50000 243.693
45.67000 229.281
45.84000 207.683
46.01000 208.814
46.18000 211.154
46.35000 213.327
46.52000 202.742
46.69000 206.426
46.86000 179.825
47.03000 199.661
47.20000 200.817
47.37000 200.112
47.54000 188.339
47.71000 193.566
47.88000 182.184
48.05000 186.602
48.22000 184.103
48.39000 191.104
48.56000 176.879
48.73000 171.561
48.90000 178.936
49.07000 181.069
49.24000 172.338
49.41000 179.666
49.58000 184.515
49.75000 165.814
49.92000 170.066
50.09000 170.936
50.26000 174.299
50.43000 187.079
50.60000 203.640
50.77000 210.777
50.94000 185.077
51.11000 176.988
51.28000 169.728
51.45000 158.624
51.62000 153.248
51.79000 165.141
51.96000 163.462
52.13000 163.784
52.30000 160.966
52.47000 161.046
52.64000 168.126
52.81000 155.017
52.98000 157.127
53.15000 157.618
53.32000 164.353
53.49000 164.564
53.66000 159.765
53.83000 154.945
54.00000 161.277
54.17000 157.606
54.34000 154.305
54.51000 162.425
54.68000 152.367
54.85000 170.295
55.02000 163.032
55.19000 164.559
55.36000 171.710
55.53000 191.755
55.70000 263.570
55.87000 449.772
56.04000 484.979
56.21000 326.827
56.38000 206.057
56.55000 157.193
56.72000 153.935
56.89000 148.918
57.06000 150.230
57.23000 144.001
57.40000 145.322
57.57000 136.566
57.74000 138.521
57.91000 144.067
58.08000 147.837
58.25000 147.414
58.42000 144.910
58.59000 138.094
58.76000 142.918
58.93000 122.688
59.10000 138.622
59.27000 135.362
59.44000 134.773
59.61000 136.997
59.78000 132.517
59.95000 142.356
60.12000 132.953
60.29000 127.988
60.46000 130.748
60.63000 133.768
60.80000 146.273
60.97000 130.006
61.14000 141.743
61.31000 143.131
61.48000 134.236
61.65000 223.793
61.82000 200.260
61.99000 150.916
62.16000 142.229
62.33000 150.022
62.50000 134.520
62.67000 147.268
62.84000 146.947
63.01000 137.078
63.18000 138.202
63.35000 145.130
63.52000 151.341
63.69000 150.018
63.86000 156.642
64.03000 155.833
64.20000 152.258
64.37000 162.087
64.54000 165.466
64.71000 175.748
64.88000 179.488
65.05000 184.531
65.22000 200.514
65.39000 244.259
65.56000 286.629
65.73000 468.191
65.90000 889.564
66.07000 359.156
66.24000 278.493
66.41000 398.608
66.58000 340.710
66.75000 299.881
66.92000 319.095
67.09000 359.360
67.26000 379.119
67.43000 396.421
67.60000 430.146
67.77000 457.749
67.94000 480.112
68.11000 532.645
68.28000 580.340
68.45000 672.544
68.62000 906.090
68.79000 1596.461
68.96000 6446.483
69.13000 48696.121
69.30000 32317.158
69.47000 9705.436
69.64000 1193.645
69.81000 801.184
69.98000 652.938
70.00000 648.311