File: XRD/30-09-2025 Dep 1/XY Data/BTO_Mapping_Theta2Theta_30-09-2025_001_26_-8-090_5-878.xy
20.00000 573.720
20.17000 565.846
20.34000 569.506
20.51000 558.621
20.68000 555.712
20.85000 557.883
21.02000 551.260
21.19000 564.569
21.36000 531.900
21.53000 548.156
21.70000 577.645
21.87000 603.633
22.04000 714.391
22.21000 624.630
22.38000 538.544
22.55000 526.974
22.72000 527.613
22.89000 514.839
23.06000 553.426
23.23000 514.002
23.40000 502.189
23.57000 508.473
23.74000 507.875
23.91000 525.290
24.08000 519.091
24.25000 522.559
24.42000 495.969
24.59000 484.100
24.76000 487.662
24.93000 478.777
25.10000 468.616
25.27000 476.554
25.44000 470.906
25.61000 472.697
25.78000 479.041
25.95000 472.515
26.12000 473.373
26.29000 455.696
26.46000 466.991
26.63000 466.232
26.80000 444.817
26.97000 444.904
27.14000 432.225
27.31000 439.988
27.48000 458.766
27.65000 441.478
27.82000 441.543
27.99000 433.967
28.16000 422.020
28.33000 432.479
28.50000 424.791
28.67000 421.817
28.84000 420.064
29.01000 412.265
29.18000 441.098
29.35000 415.046
29.52000 403.202
29.69000 422.411
29.86000 428.293
30.03000 445.682
30.20000 426.581
30.37000 436.817
30.54000 439.223
30.71000 445.248
30.88000 485.793
31.05000 628.247
31.22000 1725.244
31.39000 3453.772
31.56000 1717.709
31.73000 590.346
31.90000 444.432
32.07000 421.026
32.24000 394.091
32.41000 386.504
32.58000 390.679
32.75000 358.243
32.92000 377.037
33.09000 390.295
33.26000 345.328
33.43000 352.919
33.60000 343.555
33.77000 344.957
33.94000 351.400
34.11000 333.490
34.28000 331.110
34.45000 349.138
34.62000 346.791
34.79000 334.060
34.96000 333.111
35.13000 312.744
35.30000 328.143
35.47000 324.756
35.64000 305.731
35.81000 316.201
35.98000 307.046
36.15000 297.480
36.32000 296.354
36.49000 311.681
36.66000 307.463
36.83000 290.908
37.00000 297.777
37.17000 295.086
37.34000 315.915
37.51000 293.569
37.68000 290.060
37.85000 296.915
38.02000 293.461
38.19000 292.225
38.36000 319.408
38.53000 495.706
38.70000 886.732
38.87000 697.135
39.04000 327.401
39.21000 295.612
39.38000 297.856
39.55000 246.767
39.72000 267.629
39.89000 274.128
40.06000 247.792
40.23000 243.111
40.40000 263.003
40.57000 264.259
40.74000 250.898
40.91000 244.112
41.08000 236.834
41.25000 247.929
41.42000 252.092
41.59000 243.987
41.76000 238.418
41.93000 229.894
42.10000 234.611
42.27000 243.734
42.44000 235.161
42.61000 251.236
42.78000 236.503
42.95000 235.207
43.12000 236.606
43.29000 238.607
43.46000 235.038
43.63000 213.735
43.80000 211.601
43.97000 238.086
44.14000 228.058
44.31000 208.550
44.48000 225.241
44.65000 233.247
44.82000 267.260
44.99000 340.145
45.16000 376.563
45.33000 287.767
45.50000 242.776
45.67000 225.878
45.84000 212.985
46.01000 201.783
46.18000 203.487
46.35000 200.669
46.52000 199.409
46.69000 208.206
46.86000 196.649
47.03000 201.152
47.20000 202.748
47.37000 189.650
47.54000 192.162
47.71000 185.740
47.88000 191.823
48.05000 192.719
48.22000 190.171
48.39000 175.729
48.56000 182.589
48.73000 186.970
48.90000 170.334
49.07000 176.525
49.24000 178.719
49.41000 177.322
49.58000 189.464
49.75000 182.396
49.92000 171.141
50.09000 183.797
50.26000 187.125
50.43000 194.522
50.60000 246.953
50.77000 266.557
50.94000 201.088
51.11000 184.581
51.28000 169.793
51.45000 176.852
51.62000 157.743
51.79000 169.776
51.96000 150.896
52.13000 154.446
52.30000 165.675
52.47000 161.922
52.64000 168.933
52.81000 180.492
52.98000 151.038
53.15000 156.526
53.32000 158.191
53.49000 166.822
53.66000 162.282
53.83000 150.134
54.00000 152.238
54.17000 153.785
54.34000 144.962
54.51000 154.910
54.68000 159.238
54.85000 167.152
55.02000 152.177
55.19000 161.016
55.36000 172.912
55.53000 194.888
55.70000 315.723
55.87000 584.652
56.04000 594.700
56.21000 325.860
56.38000 198.384
56.55000 162.659
56.72000 155.125
56.89000 151.934
57.06000 147.916
57.23000 145.546
57.40000 150.167
57.57000 142.981
57.74000 144.578
57.91000 133.345
58.08000 150.565
58.25000 139.226
58.42000 140.632
58.59000 131.456
58.76000 141.002
58.93000 144.534
59.10000 131.548
59.27000 141.161
59.44000 126.802
59.61000 136.619
59.78000 128.237
59.95000 131.719
60.12000 136.377
60.29000 128.603
60.46000 135.871
60.63000 131.691
60.80000 132.868
60.97000 135.598
61.14000 126.452
61.31000 144.583
61.48000 144.511
61.65000 248.491
61.82000 190.164
61.99000 133.951
62.16000 142.196
62.33000 147.885
62.50000 148.784
62.67000 150.335
62.84000 138.127
63.01000 153.024
63.18000 147.236
63.35000 151.904
63.52000 144.159
63.69000 147.188
63.86000 152.793
64.03000 152.335
64.20000 156.040
64.37000 178.014
64.54000 155.788
64.71000 174.826
64.88000 188.057
65.05000 183.116
65.22000 222.062
65.39000 323.548
65.56000 416.748
65.73000 603.412
65.90000 974.792
66.07000 367.796
66.24000 279.923
66.41000 408.074
66.58000 333.402
66.75000 303.973
66.92000 319.363
67.09000 362.506
67.26000 356.788
67.43000 384.731
67.60000 417.744
67.77000 457.696
67.94000 485.453
68.11000 513.596
68.28000 596.345
68.45000 695.195
68.62000 903.436
68.79000 1676.928
68.96000 8954.760
69.13000 51907.664
69.30000 32156.607
69.47000 8385.803
69.64000 1192.852
69.81000 778.213
69.98000 671.328
70.00000 650.250