File: XRD/30-09-2025 Dep 1/XY Data/BTO_Mapping_Theta2Theta_30-09-2025_001_15_6-180_19-021.xy
20.00000 592.233
20.17000 574.110
20.34000 555.678
20.51000 546.687
20.68000 561.567
20.85000 570.145
21.02000 541.125
21.19000 555.414
21.36000 544.875
21.53000 556.138
21.70000 541.212
21.87000 587.507
22.04000 639.210
22.21000 635.964
22.38000 548.832
22.55000 535.890
22.72000 547.995
22.89000 510.618
23.06000 521.166
23.23000 528.078
23.40000 529.935
23.57000 496.786
23.74000 506.032
23.91000 508.331
24.08000 517.948
24.25000 505.184
24.42000 512.135
24.59000 498.755
24.76000 494.998
24.93000 473.358
25.10000 491.459
25.27000 460.952
25.44000 473.751
25.61000 482.007
25.78000 468.981
25.95000 462.483
26.12000 463.249
26.29000 465.271
26.46000 458.281
26.63000 447.416
26.80000 445.842
26.97000 448.446
27.14000 442.009
27.31000 441.117
27.48000 436.507
27.65000 434.436
27.82000 439.736
27.99000 434.096
28.16000 448.938
28.33000 427.082
28.50000 420.141
28.67000 417.952
28.84000 420.283
29.01000 423.523
29.18000 408.365
29.35000 422.531
29.52000 416.104
29.69000 418.212
29.86000 412.144
30.03000 443.474
30.20000 425.969
30.37000 421.134
30.54000 421.772
30.71000 453.475
30.88000 452.004
31.05000 590.625
31.22000 1553.944
31.39000 3039.144
31.56000 1620.249
31.73000 584.714
31.90000 439.250
32.07000 397.086
32.24000 399.803
32.41000 392.150
32.58000 381.438
32.75000 369.426
32.92000 372.824
33.09000 372.628
33.26000 359.954
33.43000 347.224
33.60000 341.520
33.77000 349.490
33.94000 365.601
34.11000 361.245
34.28000 324.724
34.45000 354.687
34.62000 353.066
34.79000 333.390
34.96000 338.036
35.13000 323.958
35.30000 331.386
35.47000 296.891
35.64000 310.324
35.81000 302.255
35.98000 311.097
36.15000 316.482
36.32000 298.166
36.49000 303.687
36.66000 300.837
36.83000 298.343
37.00000 295.450
37.17000 315.356
37.34000 306.524
37.51000 290.792
37.68000 300.132
37.85000 288.850
38.02000 295.694
38.19000 308.850
38.36000 330.327
38.53000 535.929
38.70000 1000.130
38.87000 772.037
39.04000 367.705
39.21000 276.118
39.38000 292.320
39.55000 279.029
39.72000 270.207
39.89000 274.689
40.06000 262.043
40.23000 261.253
40.40000 259.754
40.57000 255.322
40.74000 258.490
40.91000 259.773
41.08000 255.048
41.25000 250.764
41.42000 247.267
41.59000 251.780
41.76000 229.481
41.93000 241.758
42.10000 250.135
42.27000 244.583
42.44000 230.375
42.61000 234.819
42.78000 230.792
42.95000 231.739
43.12000 215.370
43.29000 226.843
43.46000 229.645
43.63000 232.064
43.80000 229.695
43.97000 220.589
44.14000 217.901
44.31000 231.219
44.48000 236.017
44.65000 228.603
44.82000 258.904
44.99000 292.159
45.16000 322.530
45.33000 281.377
45.50000 252.995
45.67000 215.619
45.84000 215.808
46.01000 209.056
46.18000 200.157
46.35000 213.519
46.52000 213.690
46.69000 194.709
46.86000 206.934
47.03000 189.176
47.20000 190.260
47.37000 193.567
47.54000 192.204
47.71000 188.860
47.88000 187.110
48.05000 180.036
48.22000 182.287
48.39000 171.694
48.56000 180.935
48.73000 179.611
48.90000 179.942
49.07000 171.159
49.24000 179.458
49.41000 171.540
49.58000 190.454
49.75000 171.096
49.92000 175.313
50.09000 170.682
50.26000 190.199
50.43000 182.663
50.60000 222.036
50.77000 246.871
50.94000 205.626
51.11000 175.143
51.28000 163.471
51.45000 154.115
51.62000 163.257
51.79000 158.710
51.96000 160.165
52.13000 167.800
52.30000 156.831
52.47000 159.281
52.64000 156.661
52.81000 161.745
52.98000 149.944
53.15000 151.191
53.32000 171.259
53.49000 155.972
53.66000 155.991
53.83000 155.186
54.00000 155.966
54.17000 152.520
54.34000 157.000
54.51000 147.355
54.68000 141.658
54.85000 159.472
55.02000 155.476
55.19000 157.470
55.36000 175.308
55.53000 185.811
55.70000 291.440
55.87000 549.237
56.04000 584.345
56.21000 314.481
56.38000 202.880
56.55000 164.845
56.72000 150.346
56.89000 149.452
57.06000 148.777
57.23000 137.199
57.40000 139.168
57.57000 149.487
57.74000 135.593
57.91000 150.777
58.08000 135.402
58.25000 140.131
58.42000 138.269
58.59000 140.469
58.76000 144.181
58.93000 137.889
59.10000 131.660
59.27000 142.064
59.44000 124.341
59.61000 136.184
59.78000 141.427
59.95000 128.452
60.12000 136.720
60.29000 131.457
60.46000 127.012
60.63000 141.567
60.80000 140.061
60.97000 134.809
61.14000 145.609
61.31000 133.674
61.48000 142.653
61.65000 225.215
61.82000 194.412
61.99000 138.283
62.16000 132.296
62.33000 132.698
62.50000 139.989
62.67000 141.956
62.84000 153.015
63.01000 144.112
63.18000 154.684
63.35000 138.548
63.52000 151.673
63.69000 155.849
63.86000 145.440
64.03000 160.714
64.20000 163.113
64.37000 168.458
64.54000 151.963
64.71000 172.370
64.88000 175.745
65.05000 195.153
65.22000 218.676
65.39000 285.868
65.56000 382.478
65.73000 562.962
65.90000 911.186
66.07000 345.968
66.24000 294.148
66.41000 377.567
66.58000 304.041
66.75000 303.485
66.92000 294.211
67.09000 316.720
67.26000 334.233
67.43000 380.358
67.60000 407.734
67.77000 419.278
67.94000 465.579
68.11000 533.981
68.28000 581.372
68.45000 657.441
68.62000 882.981
68.79000 1592.584
68.96000 9224.205
69.13000 46987.801
69.30000 28230.637
69.47000 6880.082
69.64000 1106.277
69.81000 775.896
69.98000 637.117
70.00000 646.340