File: XRD/30-09-2025 Dep 1/XY Data/BTO_Mapping_Theta2Theta_30-09-2025_001_40_-24-271_-17-634.xy
20.00000 567.126
20.17000 536.272
20.34000 570.207
20.51000 572.641
20.68000 550.793
20.85000 548.209
21.02000 556.998
21.19000 552.600
21.36000 530.815
21.53000 561.452
21.70000 575.864
21.87000 653.838
22.04000 834.165
22.21000 730.692
22.38000 559.113
22.55000 531.390
22.72000 532.020
22.89000 525.176
23.06000 502.382
23.23000 498.400
23.40000 498.172
23.57000 516.809
23.74000 502.044
23.91000 504.150
24.08000 499.248
24.25000 496.212
24.42000 497.823
24.59000 475.596
24.76000 480.461
24.93000 484.568
25.10000 472.155
25.27000 480.098
25.44000 485.803
25.61000 476.378
25.78000 475.993
25.95000 472.527
26.12000 455.901
26.29000 459.044
26.46000 451.323
26.63000 449.761
26.80000 441.828
26.97000 460.817
27.14000 449.101
27.31000 432.839
27.48000 448.378
27.65000 419.381
27.82000 448.051
27.99000 439.723
28.16000 445.828
28.33000 437.266
28.50000 428.801
28.67000 437.767
28.84000 437.300
29.01000 433.508
29.18000 412.303
29.35000 420.762
29.52000 426.585
29.69000 410.930
29.86000 437.389
30.03000 469.205
30.20000 444.547
30.37000 432.874
30.54000 439.736
30.71000 458.872
30.88000 473.777
31.05000 641.658
31.22000 1906.857
31.39000 4099.596
31.56000 2068.022
31.73000 605.713
31.90000 457.141
32.07000 436.528
32.24000 410.849
32.41000 396.442
32.58000 379.759
32.75000 387.225
32.92000 429.943
33.09000 461.922
33.26000 364.925
33.43000 348.288
33.60000 345.152
33.77000 348.870
33.94000 341.216
34.11000 311.843
34.28000 321.442
34.45000 345.989
34.62000 339.582
34.79000 312.141
34.96000 320.003
35.13000 330.562
35.30000 306.689
35.47000 335.819
35.64000 314.163
35.81000 323.484
35.98000 322.787
36.15000 304.266
36.32000 307.537
36.49000 297.371
36.66000 296.772
36.83000 310.280
37.00000 306.091
37.17000 293.737
37.34000 287.482
37.51000 299.782
37.68000 297.629
37.85000 303.907
38.02000 289.964
38.19000 293.989
38.36000 317.423
38.53000 451.232
38.70000 744.296
38.87000 601.204
39.04000 334.622
39.21000 297.976
39.38000 279.226
39.55000 266.864
39.72000 264.907
39.89000 262.690
40.06000 268.415
40.23000 258.252
40.40000 271.702
40.57000 260.458
40.74000 268.162
40.91000 260.700
41.08000 257.679
41.25000 236.448
41.42000 237.477
41.59000 242.208
41.76000 242.215
41.93000 232.267
42.10000 243.236
42.27000 233.427
42.44000 227.704
42.61000 236.398
42.78000 241.643
42.95000 239.673
43.12000 223.535
43.29000 229.942
43.46000 237.161
43.63000 225.924
43.80000 220.618
43.97000 228.463
44.14000 231.652
44.31000 226.502
44.48000 225.897
44.65000 243.942
44.82000 289.318
44.99000 433.204
45.16000 451.718
45.33000 316.666
45.50000 248.564
45.67000 228.114
45.84000 210.992
46.01000 213.763
46.18000 215.101
46.35000 207.930
46.52000 213.636
46.69000 212.401
46.86000 202.523
47.03000 191.836
47.20000 187.647
47.37000 188.116
47.54000 186.272
47.71000 193.668
47.88000 197.796
48.05000 185.183
48.22000 183.877
48.39000 191.229
48.56000 177.176
48.73000 188.063
48.90000 170.674
49.07000 182.445
49.24000 185.021
49.41000 173.402
49.58000 183.131
49.75000 164.899
49.92000 190.033
50.09000 186.826
50.26000 189.287
50.43000 203.193
50.60000 264.228
50.77000 285.288
50.94000 227.034
51.11000 190.743
51.28000 171.788
51.45000 173.912
51.62000 162.813
51.79000 164.660
51.96000 158.819
52.13000 162.367
52.30000 158.084
52.47000 164.688
52.64000 155.834
52.81000 165.056
52.98000 168.322
53.15000 167.883
53.32000 170.399
53.49000 165.209
53.66000 161.661
53.83000 157.019
54.00000 167.403
54.17000 164.505
54.34000 154.452
54.51000 151.672
54.68000 159.043
54.85000 159.760
55.02000 152.217
55.19000 159.655
55.36000 159.896
55.53000 197.040
55.70000 325.917
55.87000 594.244
56.04000 596.910
56.21000 325.629
56.38000 204.162
56.55000 159.915
56.72000 160.831
56.89000 151.500
57.06000 143.900
57.23000 138.982
57.40000 145.118
57.57000 147.832
57.74000 142.290
57.91000 143.512
58.08000 141.809
58.25000 133.102
58.42000 136.951
58.59000 140.136
58.76000 142.250
58.93000 128.248
59.10000 132.230
59.27000 138.741
59.44000 138.468
59.61000 133.755
59.78000 130.883
59.95000 134.618
60.12000 135.602
60.29000 134.333
60.46000 135.376
60.63000 130.800
60.80000 128.241
60.97000 126.201
61.14000 137.143
61.31000 136.216
61.48000 151.719
61.65000 301.041
61.82000 255.518
61.99000 151.926
62.16000 146.622
62.33000 137.473
62.50000 147.235
62.67000 146.707
62.84000 144.382
63.01000 149.652
63.18000 154.227
63.35000 138.642
63.52000 147.384
63.69000 161.792
63.86000 165.075
64.03000 162.984
64.20000 176.350
64.37000 166.002
64.54000 179.619
64.71000 178.910
64.88000 190.258
65.05000 199.515
65.22000 252.956
65.39000 349.049
65.56000 463.004
65.73000 708.771
65.90000 1319.539
66.07000 468.993
66.24000 334.348
66.41000 503.546
66.58000 395.585
66.75000 335.306
66.92000 359.380
67.09000 374.701
67.26000 411.241
67.43000 442.880
67.60000 485.797
67.77000 521.689
67.94000 563.051
68.11000 599.119
68.28000 673.485
68.45000 785.810
68.62000 1093.984
68.79000 2158.577
68.96000 10958.155
69.13000 77157.195
69.30000 51102.953
69.47000 15194.941
69.64000 1571.199
69.81000 997.099
69.98000 795.518
70.00000 766.563