File: XRD/30-09-2025 Dep 1/XY Data/BTO_Mapping_Theta2Theta_30-09-2025_001_06_9-135_4-067.xy
20.00000 574.631
20.17000 563.096
20.34000 549.528
20.51000 572.143
20.68000 567.706
20.85000 554.815
21.02000 557.152
21.19000 565.410
21.36000 561.100
21.53000 531.637
21.70000 552.139
21.87000 684.906
22.04000 812.666
22.21000 664.588
22.38000 564.828
22.55000 527.836
22.72000 532.839
22.89000 522.369
23.06000 505.898
23.23000 524.836
23.40000 507.298
23.57000 523.920
23.74000 516.506
23.91000 527.619
24.08000 536.099
24.25000 512.530
24.42000 493.819
24.59000 502.510
24.76000 495.056
24.93000 488.198
25.10000 506.176
25.27000 487.456
25.44000 471.011
25.61000 461.389
25.78000 471.037
25.95000 473.545
26.12000 455.456
26.29000 459.716
26.46000 462.785
26.63000 462.725
26.80000 442.018
26.97000 454.063
27.14000 454.815
27.31000 453.478
27.48000 459.331
27.65000 459.792
27.82000 432.085
27.99000 464.353
28.16000 439.602
28.33000 443.169
28.50000 434.762
28.67000 423.702
28.84000 432.526
29.01000 421.448
29.18000 445.269
29.35000 419.383
29.52000 422.808
29.69000 410.612
29.86000 451.125
30.03000 467.100
30.20000 436.373
30.37000 424.219
30.54000 438.667
30.71000 454.671
30.88000 481.272
31.05000 704.677
31.22000 2052.050
31.39000 3644.619
31.56000 1606.334
31.73000 569.964
31.90000 451.104
32.07000 401.690
32.24000 403.112
32.41000 390.365
32.58000 368.044
32.75000 367.469
32.92000 418.789
33.09000 427.725
33.26000 358.119
33.43000 351.865
33.60000 347.972
33.77000 335.849
33.94000 332.394
34.11000 346.825
34.28000 340.854
34.45000 328.996
34.62000 334.743
34.79000 328.140
34.96000 326.491
35.13000 326.121
35.30000 306.485
35.47000 317.337
35.64000 314.586
35.81000 297.505
35.98000 308.475
36.15000 310.579
36.32000 298.424
36.49000 293.387
36.66000 298.750
36.83000 300.845
37.00000 310.924
37.17000 306.637
37.34000 292.911
37.51000 300.016
37.68000 304.072
37.85000 287.102
38.02000 291.455
38.19000 304.831
38.36000 329.232
38.53000 512.784
38.70000 838.364
38.87000 583.000
39.04000 341.064
39.21000 282.817
39.38000 289.397
39.55000 268.011
39.72000 273.491
39.89000 262.817
40.06000 269.723
40.23000 257.000
40.40000 251.524
40.57000 254.118
40.74000 251.673
40.91000 247.640
41.08000 247.836
41.25000 255.885
41.42000 250.887
41.59000 244.902
41.76000 238.024
41.93000 241.736
42.10000 230.210
42.27000 241.416
42.44000 227.628
42.61000 227.640
42.78000 231.961
42.95000 237.941
43.12000 227.111
43.29000 220.880
43.46000 230.057
43.63000 233.379
43.80000 210.817
43.97000 213.093
44.14000 232.056
44.31000 227.719
44.48000 227.122
44.65000 240.946
44.82000 288.849
44.99000 416.408
45.16000 425.259
45.33000 290.311
45.50000 228.132
45.67000 223.635
45.84000 211.875
46.01000 207.248
46.18000 209.466
46.35000 207.718
46.52000 210.633
46.69000 220.640
46.86000 186.539
47.03000 197.008
47.20000 188.634
47.37000 200.445
47.54000 199.379
47.71000 192.976
47.88000 189.313
48.05000 177.908
48.22000 181.399
48.39000 181.470
48.56000 191.982
48.73000 178.868
48.90000 174.252
49.07000 178.515
49.24000 179.249
49.41000 184.636
49.58000 176.173
49.75000 178.484
49.92000 180.181
50.09000 184.372
50.26000 180.635
50.43000 211.422
50.60000 263.284
50.77000 272.912
50.94000 223.256
51.11000 175.259
51.28000 167.914
51.45000 165.276
51.62000 163.895
51.79000 162.425
51.96000 170.767
52.13000 156.037
52.30000 157.748
52.47000 163.601
52.64000 154.317
52.81000 158.494
52.98000 161.587
53.15000 164.586
53.32000 158.802
53.49000 167.442
53.66000 159.327
53.83000 165.449
54.00000 147.993
54.17000 156.693
54.34000 157.040
54.51000 174.589
54.68000 162.423
54.85000 151.490
55.02000 168.262
55.19000 171.289
55.36000 169.682
55.53000 201.368
55.70000 339.910
55.87000 637.504
56.04000 582.622
56.21000 312.054
56.38000 187.430
56.55000 165.667
56.72000 156.208
56.89000 153.626
57.06000 147.723
57.23000 149.561
57.40000 143.196
57.57000 151.906
57.74000 147.832
57.91000 145.796
58.08000 136.464
58.25000 139.786
58.42000 137.849
58.59000 135.860
58.76000 135.928
58.93000 141.982
59.10000 132.132
59.27000 133.449
59.44000 131.378
59.61000 142.818
59.78000 139.092
59.95000 133.044
60.12000 132.372
60.29000 131.162
60.46000 132.332
60.63000 130.869
60.80000 127.975
60.97000 135.467
61.14000 133.570
61.31000 134.020
61.48000 158.963
61.65000 298.318
61.82000 202.788
61.99000 145.608
62.16000 138.162
62.33000 136.068
62.50000 149.279
62.67000 139.252
62.84000 138.705
63.01000 150.055
63.18000 158.431
63.35000 144.881
63.52000 155.783
63.69000 154.507
63.86000 167.651
64.03000 168.105
64.20000 164.831
64.37000 166.432
64.54000 173.471
64.71000 169.178
64.88000 175.414
65.05000 203.633
65.22000 235.105
65.39000 328.890
65.56000 429.014
65.73000 721.927
65.90000 1254.524
66.07000 372.359
66.24000 330.434
66.41000 482.721
66.58000 352.593
66.75000 328.201
66.92000 339.217
67.09000 368.742
67.26000 405.167
67.43000 442.676
67.60000 456.286
67.77000 492.732
67.94000 546.996
68.11000 613.870
68.28000 664.432
68.45000 769.971
68.62000 1124.513
68.79000 2144.748
68.96000 15383.353
69.13000 71128.367
69.30000 41693.406
69.47000 9469.149
69.64000 1383.624
69.81000 931.743
69.98000 761.670
70.00000 731.888