File: XRD/30-09-2025 Dep 1/XY Data/BTO_Mapping_Theta2Theta_30-09-2025_001_50_3-090_-9-511.xy
20.00000 590.188
20.17000 576.593
20.34000 572.540
20.51000 568.764
20.68000 559.988
20.85000 555.263
21.02000 553.741
21.19000 564.550
21.36000 567.563
21.53000 568.454
21.70000 586.059
21.87000 750.571
22.04000 900.354
22.21000 692.249
22.38000 556.595
22.55000 539.941
22.72000 500.059
22.89000 525.591
23.06000 500.330
23.23000 525.844
23.40000 518.758
23.57000 494.368
23.74000 499.649
23.91000 501.939
24.08000 499.644
24.25000 508.837
24.42000 471.773
24.59000 483.767
24.76000 489.601
24.93000 507.423
25.10000 485.142
25.27000 499.159
25.44000 472.807
25.61000 466.832
25.78000 467.119
25.95000 471.633
26.12000 471.355
26.29000 463.529
26.46000 446.004
26.63000 445.846
26.80000 442.126
26.97000 465.779
27.14000 448.220
27.31000 445.607
27.48000 462.946
27.65000 439.201
27.82000 449.502
27.99000 437.593
28.16000 458.584
28.33000 439.049
28.50000 428.557
28.67000 422.037
28.84000 430.276
29.01000 425.005
29.18000 429.477
29.35000 419.837
29.52000 402.849
29.69000 435.023
29.86000 442.079
30.03000 465.494
30.20000 447.685
30.37000 438.694
30.54000 456.418
30.71000 459.494
30.88000 534.770
31.05000 750.895
31.22000 2460.023
31.39000 3876.754
31.56000 1493.161
31.73000 555.658
31.90000 450.071
32.07000 411.375
32.24000 390.189
32.41000 391.880
32.58000 391.117
32.75000 354.709
32.92000 459.104
33.09000 470.563
33.26000 358.308
33.43000 355.777
33.60000 346.518
33.77000 337.739
33.94000 339.735
34.11000 354.222
34.28000 332.257
34.45000 356.136
34.62000 320.524
34.79000 335.200
34.96000 319.206
35.13000 317.532
35.30000 314.318
35.47000 320.944
35.64000 305.857
35.81000 309.048
35.98000 314.810
36.15000 309.406
36.32000 308.052
36.49000 291.491
36.66000 308.652
36.83000 313.094
37.00000 322.084
37.17000 289.799
37.34000 296.217
37.51000 298.823
37.68000 287.835
37.85000 292.073
38.02000 312.956
38.19000 314.707
38.36000 350.205
38.53000 481.844
38.70000 700.440
38.87000 471.189
39.04000 323.533
39.21000 286.844
39.38000 262.971
39.55000 273.012
39.72000 274.818
39.89000 271.209
40.06000 263.477
40.23000 259.649
40.40000 248.259
40.57000 262.586
40.74000 254.494
40.91000 245.252
41.08000 249.790
41.25000 242.162
41.42000 252.259
41.59000 241.890
41.76000 240.896
41.93000 251.496
42.10000 247.567
42.27000 225.651
42.44000 244.668
42.61000 235.702
42.78000 231.234
42.95000 238.008
43.12000 232.388
43.29000 221.453
43.46000 239.163
43.63000 212.862
43.80000 227.179
43.97000 220.045
44.14000 235.809
44.31000 223.164
44.48000 238.713
44.65000 258.609
44.82000 342.397
44.99000 529.205
45.16000 458.029
45.33000 292.792
45.50000 253.561
45.67000 229.157
45.84000 209.353
46.01000 214.534
46.18000 214.424
46.35000 217.308
46.52000 203.916
46.69000 193.846
46.86000 192.254
47.03000 198.991
47.20000 201.780
47.37000 188.889
47.54000 189.912
47.71000 190.424
47.88000 194.070
48.05000 192.504
48.22000 187.592
48.39000 193.416
48.56000 188.953
48.73000 170.974
48.90000 179.150
49.07000 190.471
49.24000 174.869
49.41000 181.409
49.58000 178.522
49.75000 170.576
49.92000 182.779
50.09000 189.875
50.26000 205.219
50.43000 222.883
50.60000 284.467
50.77000 273.857
50.94000 200.010
51.11000 168.522
51.28000 175.153
51.45000 166.538
51.62000 171.149
51.79000 165.673
51.96000 174.990
52.13000 165.671
52.30000 171.322
52.47000 163.429
52.64000 163.235
52.81000 159.488
52.98000 161.660
53.15000 158.676
53.32000 167.652
53.49000 166.320
53.66000 161.135
53.83000 165.691
54.00000 166.437
54.17000 156.816
54.34000 152.787
54.51000 156.223
54.68000 159.772
54.85000 156.829
55.02000 165.033
55.19000 161.990
55.36000 176.094
55.53000 208.817
55.70000 395.398
55.87000 657.504
56.04000 510.199
56.21000 267.474
56.38000 197.264
56.55000 164.708
56.72000 143.501
56.89000 148.630
57.06000 152.920
57.23000 150.837
57.40000 160.844
57.57000 144.792
57.74000 145.184
57.91000 149.783
58.08000 149.759
58.25000 147.290
58.42000 142.988
58.59000 138.286
58.76000 139.750
58.93000 139.390
59.10000 138.277
59.27000 136.766
59.44000 132.368
59.61000 135.848
59.78000 142.501
59.95000 139.652
60.12000 141.564
60.29000 140.168
60.46000 147.331
60.63000 139.535
60.80000 137.372
60.97000 139.987
61.14000 137.525
61.31000 146.848
61.48000 143.137
61.65000 319.638
61.82000 220.309
61.99000 147.307
62.16000 133.552
62.33000 148.651
62.50000 136.886
62.67000 136.776
62.84000 145.123
63.01000 144.659
63.18000 154.397
63.35000 153.494
63.52000 148.834
63.69000 154.486
63.86000 158.411
64.03000 159.654
64.20000 170.232
64.37000 158.669
64.54000 175.080
64.71000 181.682
64.88000 183.902
65.05000 205.830
65.22000 270.494
65.39000 386.486
65.56000 456.008
65.73000 789.283
65.90000 1335.218
66.07000 397.769
66.24000 342.417
66.41000 514.317
66.58000 377.764
66.75000 337.992
66.92000 349.081
67.09000 380.048
67.26000 388.326
67.43000 453.507
67.60000 486.782
67.77000 512.182
67.94000 577.508
68.11000 620.122
68.28000 680.035
68.45000 792.760
68.62000 1179.054
68.79000 2282.169
68.96000 17022.533
69.13000 78240.719
69.30000 46607.297
69.47000 11066.677
69.64000 1484.555
69.81000 978.542
69.98000 765.945
70.00000 757.574