File: XRD/30-09-2025 Dep 1/XY Data/BTO_Mapping_Theta2Theta_30-09-2025_001_41_-32-361_-23-511.xy
20.00000 574.953
20.17000 537.321
20.34000 560.888
20.51000 560.991
20.68000 578.880
20.85000 545.429
21.02000 551.247
21.19000 569.188
21.36000 553.036
21.53000 571.551
21.70000 563.689
21.87000 631.046
22.04000 803.070
22.21000 718.639
22.38000 575.224
22.55000 547.407
22.72000 539.157
22.89000 506.378
23.06000 525.189
23.23000 525.555
23.40000 498.236
23.57000 506.715
23.74000 508.861
23.91000 491.856
24.08000 501.249
24.25000 499.898
24.42000 500.723
24.59000 503.033
24.76000 497.147
24.93000 480.126
25.10000 481.755
25.27000 483.908
25.44000 475.267
25.61000 468.839
25.78000 467.879
25.95000 477.196
26.12000 481.863
26.29000 456.567
26.46000 472.535
26.63000 441.530
26.80000 449.552
26.97000 443.441
27.14000 456.036
27.31000 449.616
27.48000 447.087
27.65000 434.583
27.82000 470.727
27.99000 459.396
28.16000 437.721
28.33000 451.722
28.50000 430.276
28.67000 419.724
28.84000 415.216
29.01000 421.036
29.18000 425.914
29.35000 412.322
29.52000 411.155
29.69000 411.070
29.86000 425.182
30.03000 459.997
30.20000 442.332
30.37000 423.832
30.54000 435.229
30.71000 457.068
30.88000 505.614
31.05000 636.542
31.22000 1792.078
31.39000 4171.565
31.56000 2422.594
31.73000 671.191
31.90000 468.469
32.07000 420.296
32.24000 411.380
32.41000 382.014
32.58000 374.194
32.75000 355.382
32.92000 397.450
33.09000 462.102
33.26000 360.820
33.43000 357.431
33.60000 332.543
33.77000 335.707
33.94000 342.617
34.11000 343.335
34.28000 327.445
34.45000 340.509
34.62000 323.527
34.79000 327.798
34.96000 323.347
35.13000 325.581
35.30000 299.606
35.47000 320.075
35.64000 317.857
35.81000 317.813
35.98000 313.451
36.15000 303.227
36.32000 307.287
36.49000 292.797
36.66000 291.693
36.83000 297.666
37.00000 311.717
37.17000 315.436
37.34000 293.619
37.51000 309.208
37.68000 294.938
37.85000 304.406
38.02000 292.135
38.19000 293.370
38.36000 325.238
38.53000 433.110
38.70000 713.685
38.87000 627.675
39.04000 351.116
39.21000 295.766
39.38000 277.869
39.55000 272.021
39.72000 272.455
39.89000 276.625
40.06000 258.976
40.23000 234.263
40.40000 256.733
40.57000 256.280
40.74000 257.962
40.91000 248.315
41.08000 239.424
41.25000 240.781
41.42000 254.256
41.59000 247.283
41.76000 230.366
41.93000 253.595
42.10000 228.273
42.27000 237.528
42.44000 230.997
42.61000 227.316
42.78000 221.266
42.95000 218.380
43.12000 230.518
43.29000 235.210
43.46000 232.951
43.63000 228.019
43.80000 225.740
43.97000 209.413
44.14000 219.407
44.31000 218.360
44.48000 228.894
44.65000 243.002
44.82000 285.254
44.99000 398.989
45.16000 448.141
45.33000 319.732
45.50000 244.856
45.67000 223.717
45.84000 214.770
46.01000 203.394
46.18000 209.280
46.35000 207.864
46.52000 208.560
46.69000 207.718
46.86000 211.942
47.03000 195.290
47.20000 183.223
47.37000 188.574
47.54000 194.032
47.71000 181.817
47.88000 191.741
48.05000 199.049
48.22000 192.391
48.39000 185.792
48.56000 177.926
48.73000 184.460
48.90000 193.362
49.07000 186.797
49.24000 175.439
49.41000 177.073
49.58000 186.155
49.75000 179.936
49.92000 177.323
50.09000 171.184
50.26000 181.436
50.43000 199.992
50.60000 248.433
50.77000 283.566
50.94000 234.140
51.11000 182.118
51.28000 161.630
51.45000 169.447
51.62000 163.670
51.79000 177.595
51.96000 171.040
52.13000 166.018
52.30000 164.472
52.47000 158.231
52.64000 169.341
52.81000 156.607
52.98000 161.916
53.15000 175.947
53.32000 168.910
53.49000 168.779
53.66000 156.991
53.83000 158.391
54.00000 156.297
54.17000 163.997
54.34000 144.579
54.51000 163.827
54.68000 159.799
54.85000 146.916
55.02000 164.807
55.19000 162.866
55.36000 173.258
55.53000 194.724
55.70000 284.135
55.87000 573.852
56.04000 634.147
56.21000 367.288
56.38000 187.794
56.55000 168.825
56.72000 158.079
56.89000 150.193
57.06000 137.542
57.23000 152.452
57.40000 150.801
57.57000 148.080
57.74000 140.019
57.91000 138.090
58.08000 129.917
58.25000 138.197
58.42000 145.053
58.59000 129.990
58.76000 128.824
58.93000 135.339
59.10000 134.360
59.27000 132.868
59.44000 142.315
59.61000 145.212
59.78000 124.245
59.95000 134.634
60.12000 136.238
60.29000 140.126
60.46000 131.245
60.63000 127.373
60.80000 130.167
60.97000 132.401
61.14000 145.957
61.31000 149.277
61.48000 145.998
61.65000 300.518
61.82000 256.334
61.99000 145.407
62.16000 141.573
62.33000 145.666
62.50000 147.800
62.67000 141.358
62.84000 153.671
63.01000 152.562
63.18000 140.970
63.35000 150.802
63.52000 151.215
63.69000 152.480
63.86000 163.400
64.03000 159.678
64.20000 157.247
64.37000 170.703
64.54000 162.845
64.71000 172.441
64.88000 190.257
65.05000 198.672
65.22000 253.918
65.39000 314.759
65.56000 478.383
65.73000 711.460
65.90000 1399.224
66.07000 505.038
66.24000 317.691
66.41000 499.533
66.58000 407.450
66.75000 345.881
66.92000 361.393
67.09000 376.067
67.26000 398.334
67.43000 428.569
67.60000 477.070
67.77000 511.466
67.94000 555.736
68.11000 601.403
68.28000 674.255
68.45000 807.154
68.62000 1073.816
68.79000 2148.029
68.96000 9653.054
69.13000 77268.469
69.30000 53351.063
69.47000 16944.619
69.64000 1618.559
69.81000 1017.660
69.98000 789.639
70.00000 820.342