File: XRD/30-09-2025 Dep 1/XY Data/BTO_Mapping_Theta2Theta_30-09-2025_001_32_-29-344_6-237.xy
20.00000 576.865
20.17000 566.212
20.34000 579.289
20.51000 561.087
20.68000 544.346
20.85000 552.947
21.02000 547.646
21.19000 550.672
21.36000 523.574
21.53000 550.142
21.70000 537.932
21.87000 611.399
22.04000 642.243
22.21000 647.850
22.38000 545.402
22.55000 531.743
22.72000 527.014
22.89000 511.803
23.06000 515.981
23.23000 529.572
23.40000 510.267
23.57000 515.687
23.74000 514.058
23.91000 508.437
24.08000 524.930
24.25000 523.796
24.42000 481.631
24.59000 461.242
24.76000 480.151
24.93000 488.026
25.10000 492.622
25.27000 465.933
25.44000 484.203
25.61000 486.061
25.78000 462.805
25.95000 463.130
26.12000 462.963
26.29000 437.539
26.46000 464.087
26.63000 442.606
26.80000 440.300
26.97000 452.914
27.14000 460.567
27.31000 431.490
27.48000 448.070
27.65000 428.229
27.82000 446.124
27.99000 436.345
28.16000 425.649
28.33000 432.125
28.50000 416.394
28.67000 418.053
28.84000 413.496
29.01000 403.309
29.18000 407.137
29.35000 400.305
29.52000 401.298
29.69000 422.171
29.86000 412.653
30.03000 429.756
30.20000 427.366
30.37000 427.249
30.54000 418.144
30.71000 418.938
30.88000 474.044
31.05000 541.428
31.22000 1286.474
31.39000 2958.932
31.56000 1878.418
31.73000 632.148
31.90000 448.631
32.07000 417.724
32.24000 406.066
32.41000 386.315
32.58000 365.737
32.75000 384.708
32.92000 368.816
33.09000 384.871
33.26000 342.501
33.43000 346.415
33.60000 335.011
33.77000 344.765
33.94000 350.581
34.11000 352.182
34.28000 368.945
34.45000 365.873
34.62000 361.166
34.79000 348.197
34.96000 321.629
35.13000 321.710
35.30000 307.397
35.47000 307.735
35.64000 324.032
35.81000 293.701
35.98000 303.633
36.15000 294.537
36.32000 285.552
36.49000 295.555
36.66000 294.548
36.83000 302.938
37.00000 301.318
37.17000 296.593
37.34000 289.630
37.51000 298.472
37.68000 302.803
37.85000 289.659
38.02000 282.230
38.19000 294.968
38.36000 334.501
38.53000 473.432
38.70000 951.928
38.87000 885.871
39.04000 399.341
39.21000 307.378
39.38000 279.168
39.55000 277.952
39.72000 264.899
39.89000 264.678
40.06000 259.563
40.23000 260.464
40.40000 261.822
40.57000 249.003
40.74000 255.548
40.91000 251.160
41.08000 244.495
41.25000 263.463
41.42000 250.361
41.59000 231.200
41.76000 236.838
41.93000 252.726
42.10000 231.973
42.27000 243.267
42.44000 230.635
42.61000 233.716
42.78000 230.076
42.95000 236.125
43.12000 218.029
43.29000 238.078
43.46000 220.849
43.63000 229.216
43.80000 217.477
43.97000 219.813
44.14000 218.297
44.31000 212.400
44.48000 227.843
44.65000 237.435
44.82000 240.345
44.99000 287.701
45.16000 296.622
45.33000 272.148
45.50000 235.749
45.67000 221.840
45.84000 211.540
46.01000 193.032
46.18000 207.902
46.35000 208.925
46.52000 209.935
46.69000 204.754
46.86000 201.892
47.03000 203.180
47.20000 188.515
47.37000 191.332
47.54000 192.772
47.71000 185.649
47.88000 194.564
48.05000 179.890
48.22000 196.674
48.39000 192.648
48.56000 175.539
48.73000 180.346
48.90000 176.805
49.07000 172.520
49.24000 179.423
49.41000 179.581
49.58000 169.350
49.75000 189.721
49.92000 161.846
50.09000 180.670
50.26000 181.585
50.43000 197.342
50.60000 223.817
50.77000 239.380
50.94000 204.452
51.11000 178.869
51.28000 179.952
51.45000 159.019
51.62000 163.451
51.79000 148.374
51.96000 167.494
52.13000 162.532
52.30000 158.772
52.47000 166.460
52.64000 160.957
52.81000 162.038
52.98000 158.915
53.15000 158.165
53.32000 170.208
53.49000 172.493
53.66000 156.324
53.83000 162.593
54.00000 150.407
54.17000 149.872
54.34000 161.454
54.51000 157.768
54.68000 156.154
54.85000 149.721
55.02000 163.193
55.19000 162.041
55.36000 162.509
55.53000 200.655
55.70000 269.397
55.87000 509.408
56.04000 586.233
56.21000 385.305
56.38000 212.480
56.55000 171.679
56.72000 152.163
56.89000 152.700
57.06000 147.121
57.23000 150.977
57.40000 140.437
57.57000 146.492
57.74000 141.314
57.91000 139.137
58.08000 129.877
58.25000 136.841
58.42000 132.574
58.59000 134.272
58.76000 132.722
58.93000 133.175
59.10000 138.856
59.27000 140.521
59.44000 129.042
59.61000 126.174
59.78000 133.655
59.95000 129.507
60.12000 131.384
60.29000 137.293
60.46000 137.144
60.63000 129.637
60.80000 132.165
60.97000 139.496
61.14000 146.099
61.31000 144.671
61.48000 149.501
61.65000 231.837
61.82000 206.238
61.99000 146.319
62.16000 147.883
62.33000 138.198
62.50000 150.821
62.67000 135.236
62.84000 140.048
63.01000 146.886
63.18000 147.698
63.35000 144.654
63.52000 150.859
63.69000 151.361
63.86000 139.455
64.03000 149.519
64.20000 162.580
64.37000 165.979
64.54000 162.837
64.71000 160.010
64.88000 178.367
65.05000 191.653
65.22000 208.277
65.39000 280.737
65.56000 374.068
65.73000 524.271
65.90000 878.555
66.07000 372.033
66.24000 290.448
66.41000 393.225
66.58000 332.699
66.75000 298.175
66.92000 308.269
67.09000 322.305
67.26000 353.248
67.43000 363.508
67.60000 376.371
67.77000 413.023
67.94000 484.739
68.11000 512.056
68.28000 564.120
68.45000 650.975
68.62000 845.599
68.79000 1501.024
68.96000 5682.781
69.13000 46670.063
69.30000 31704.305
69.47000 9778.425
69.64000 1207.628
69.81000 784.587
69.98000 646.406
70.00000 638.391