File: XRD/30-09-2025 Dep 1/XY Data/BTO_Mapping_Theta2Theta_30-09-2025_001_55_13-383_-14-863.xy
20.00000 570.001
20.17000 575.817
20.34000 576.358
20.51000 560.655
20.68000 558.161
20.85000 570.899
21.02000 567.846
21.19000 567.061
21.36000 554.887
21.53000 570.047
21.70000 596.725
21.87000 804.545
22.04000 916.526
22.21000 686.091
22.38000 574.821
22.55000 554.468
22.72000 531.390
22.89000 521.073
23.06000 528.390
23.23000 533.533
23.40000 506.646
23.57000 526.518
23.74000 506.282
23.91000 511.662
24.08000 498.348
24.25000 500.534
24.42000 501.378
24.59000 494.139
24.76000 503.956
24.93000 473.002
25.10000 472.640
25.27000 480.404
25.44000 480.272
25.61000 482.514
25.78000 456.980
25.95000 458.991
26.12000 484.547
26.29000 464.359
26.46000 482.235
26.63000 468.557
26.80000 453.795
26.97000 463.236
27.14000 467.828
27.31000 453.105
27.48000 440.139
27.65000 457.529
27.82000 431.539
27.99000 443.349
28.16000 451.770
28.33000 445.602
28.50000 439.790
28.67000 435.747
28.84000 435.299
29.01000 436.507
29.18000 420.055
29.35000 412.524
29.52000 419.747
29.69000 444.333
29.86000 456.533
30.03000 469.487
30.20000 452.540
30.37000 441.280
30.54000 450.012
30.71000 469.677
30.88000 529.369
31.05000 958.588
31.22000 3131.818
31.39000 3859.953
31.56000 1231.545
31.73000 530.987
31.90000 446.608
32.07000 421.310
32.24000 411.527
32.41000 406.505
32.58000 393.242
32.75000 382.166
32.92000 464.142
33.09000 456.076
33.26000 374.281
33.43000 354.771
33.60000 355.264
33.77000 336.302
33.94000 347.053
34.11000 343.766
34.28000 343.187
34.45000 347.538
34.62000 339.432
34.79000 336.907
34.96000 327.894
35.13000 332.934
35.30000 332.942
35.47000 310.534
35.64000 311.735
35.81000 298.370
35.98000 302.758
36.15000 298.660
36.32000 296.320
36.49000 309.359
36.66000 316.676
36.83000 311.562
37.00000 313.799
37.17000 306.758
37.34000 300.034
37.51000 292.852
37.68000 294.692
37.85000 304.201
38.02000 304.102
38.19000 324.926
38.36000 342.271
38.53000 499.012
38.70000 590.780
38.87000 398.177
39.04000 289.646
39.21000 284.323
39.38000 275.577
39.55000 275.497
39.72000 275.841
39.89000 269.575
40.06000 262.520
40.23000 260.570
40.40000 252.929
40.57000 257.628
40.74000 259.333
40.91000 249.230
41.08000 257.153
41.25000 257.531
41.42000 241.666
41.59000 244.759
41.76000 247.500
41.93000 229.833
42.10000 254.437
42.27000 244.070
42.44000 244.509
42.61000 230.493
42.78000 236.766
42.95000 238.411
43.12000 232.100
43.29000 219.729
43.46000 235.249
43.63000 214.126
43.80000 236.870
43.97000 231.676
44.14000 235.244
44.31000 229.169
44.48000 241.989
44.65000 282.338
44.82000 437.280
44.99000 542.740
45.16000 435.419
45.33000 286.221
45.50000 246.709
45.67000 220.683
45.84000 217.135
46.01000 215.752
46.18000 224.357
46.35000 208.753
46.52000 202.232
46.69000 198.882
46.86000 196.191
47.03000 199.776
47.20000 193.261
47.37000 198.486
47.54000 185.410
47.71000 190.941
47.88000 192.510
48.05000 196.271
48.22000 191.696
48.39000 192.219
48.56000 189.072
48.73000 189.698
48.90000 194.390
49.07000 179.900
49.24000 192.118
49.41000 180.439
49.58000 186.891
49.75000 164.380
49.92000 185.722
50.09000 191.604
50.26000 188.979
50.43000 244.162
50.60000 302.773
50.77000 271.613
50.94000 201.502
51.11000 190.325
51.28000 170.583
51.45000 167.612
51.62000 162.714
51.79000 173.425
51.96000 170.302
52.13000 172.430
52.30000 161.084
52.47000 163.913
52.64000 162.389
52.81000 160.477
52.98000 165.637
53.15000 170.363
53.32000 175.312
53.49000 156.468
53.66000 153.783
53.83000 157.857
54.00000 162.727
54.17000 165.944
54.34000 162.938
54.51000 151.176
54.68000 154.205
54.85000 168.368
55.02000 154.309
55.19000 170.666
55.36000 193.944
55.53000 262.160
55.70000 478.342
55.87000 658.895
56.04000 439.398
56.21000 248.471
56.38000 171.479
56.55000 169.275
56.72000 154.797
56.89000 160.804
57.06000 158.282
57.23000 152.964
57.40000 143.147
57.57000 139.629
57.74000 146.055
57.91000 142.979
58.08000 134.731
58.25000 135.615
58.42000 137.947
58.59000 135.745
58.76000 144.008
58.93000 138.153
59.10000 139.308
59.27000 138.567
59.44000 137.923
59.61000 136.246
59.78000 135.628
59.95000 132.581
60.12000 138.031
60.29000 132.171
60.46000 138.319
60.63000 132.987
60.80000 127.789
60.97000 126.635
61.14000 138.928
61.31000 133.299
61.48000 156.101
61.65000 333.658
61.82000 211.422
61.99000 143.519
62.16000 142.034
62.33000 137.357
62.50000 155.196
62.67000 142.441
62.84000 148.263
63.01000 144.278
63.18000 155.341
63.35000 151.663
63.52000 158.427
63.69000 147.212
63.86000 161.247
64.03000 155.125
64.20000 163.074
64.37000 167.884
64.54000 164.060
64.71000 181.627
64.88000 196.617
65.05000 217.725
65.22000 297.998
65.39000 436.090
65.56000 462.432
65.73000 827.651
65.90000 1353.153
66.07000 414.451
66.24000 355.563
66.41000 515.667
66.58000 372.855
66.75000 357.282
66.92000 349.773
67.09000 385.456
67.26000 407.760
67.43000 445.141
67.60000 499.217
67.77000 518.195
67.94000 555.945
68.11000 624.969
68.28000 710.704
68.45000 821.964
68.62000 1255.226
68.79000 2376.319
68.96000 20744.982
69.13000 82017.469
69.30000 47648.738
69.47000 10300.938
69.64000 1506.081
69.81000 1002.883
69.98000 807.006
70.00000 789.886