File: XRD/30-09-2025 Dep 1/XY Data/BTO_Mapping_Theta2Theta_30-09-2025_001_60_27-406_-12-202.xy
20.00000 591.737
20.17000 574.983
20.34000 537.737
20.51000 561.234
20.68000 574.830
20.85000 580.673
21.02000 563.363
21.19000 564.340
21.36000 579.497
21.53000 565.877
21.70000 593.017
21.87000 775.912
22.04000 869.997
22.21000 648.461
22.38000 557.646
22.55000 526.492
22.72000 531.147
22.89000 525.327
23.06000 526.354
23.23000 520.361
23.40000 521.663
23.57000 476.826
23.74000 522.431
23.91000 515.444
24.08000 503.734
24.25000 485.753
24.42000 486.182
24.59000 495.333
24.76000 495.272
24.93000 468.986
25.10000 496.232
25.27000 468.206
25.44000 487.023
25.61000 463.763
25.78000 483.447
25.95000 455.437
26.12000 459.817
26.29000 471.257
26.46000 462.100
26.63000 462.251
26.80000 463.720
26.97000 464.889
27.14000 444.633
27.31000 473.714
27.48000 439.489
27.65000 457.708
27.82000 443.758
27.99000 429.968
28.16000 434.221
28.33000 444.492
28.50000 444.634
28.67000 432.558
28.84000 403.595
29.01000 434.441
29.18000 408.474
29.35000 425.624
29.52000 416.527
29.69000 429.329
29.86000 457.113
30.03000 470.305
30.20000 451.922
30.37000 440.851
30.54000 457.586
30.71000 466.709
30.88000 526.384
31.05000 935.363
31.22000 3309.901
31.39000 3986.486
31.56000 1278.676
31.73000 534.373
31.90000 448.348
32.07000 417.930
32.24000 406.879
32.41000 408.052
32.58000 387.025
32.75000 378.907
32.92000 485.558
33.09000 469.146
33.26000 376.528
33.43000 360.831
33.60000 340.573
33.77000 344.222
33.94000 359.203
34.11000 345.148
34.28000 333.450
34.45000 333.016
34.62000 327.630
34.79000 332.898
34.96000 320.257
35.13000 314.951
35.30000 326.812
35.47000 318.568
35.64000 308.093
35.81000 308.497
35.98000 302.884
36.15000 316.136
36.32000 302.161
36.49000 325.750
36.66000 303.576
36.83000 300.959
37.00000 298.904
37.17000 304.303
37.34000 309.657
37.51000 294.054
37.68000 304.542
37.85000 286.352
38.02000 293.073
38.19000 308.726
38.36000 349.638
38.53000 497.099
38.70000 608.540
38.87000 431.734
39.04000 315.226
39.21000 282.386
39.38000 276.208
39.55000 273.010
39.72000 279.893
39.89000 265.609
40.06000 260.223
40.23000 270.055
40.40000 260.911
40.57000 248.950
40.74000 257.683
40.91000 255.242
41.08000 249.452
41.25000 236.426
41.42000 244.102
41.59000 246.732
41.76000 251.110
41.93000 240.785
42.10000 245.316
42.27000 245.758
42.44000 243.114
42.61000 237.628
42.78000 241.102
42.95000 231.198
43.12000 240.779
43.29000 222.545
43.46000 225.795
43.63000 221.117
43.80000 223.602
43.97000 225.950
44.14000 228.928
44.31000 224.126
44.48000 237.293
44.65000 278.864
44.82000 432.058
44.99000 536.022
45.16000 414.425
45.33000 274.135
45.50000 242.220
45.67000 233.849
45.84000 213.884
46.01000 218.166
46.18000 213.968
46.35000 201.216
46.52000 215.555
46.69000 196.065
46.86000 201.034
47.03000 189.810
47.20000 210.027
47.37000 197.973
47.54000 191.232
47.71000 193.082
47.88000 195.752
48.05000 191.085
48.22000 189.488
48.39000 185.545
48.56000 171.406
48.73000 190.613
48.90000 186.413
49.07000 194.077
49.24000 181.499
49.41000 175.783
49.58000 194.680
49.75000 180.549
49.92000 182.623
50.09000 191.337
50.26000 188.556
50.43000 229.732
50.60000 309.863
50.77000 263.751
50.94000 211.987
51.11000 177.317
51.28000 169.661
51.45000 190.318
51.62000 170.292
51.79000 174.805
51.96000 167.033
52.13000 165.542
52.30000 159.077
52.47000 160.726
52.64000 161.792
52.81000 161.559
52.98000 166.540
53.15000 161.310
53.32000 165.519
53.49000 162.898
53.66000 151.620
53.83000 158.878
54.00000 157.981
54.17000 161.090
54.34000 155.516
54.51000 151.020
54.68000 164.628
54.85000 164.177
55.02000 163.346
55.19000 172.690
55.36000 184.375
55.53000 242.056
55.70000 502.713
55.87000 692.081
56.04000 457.139
56.21000 245.135
56.38000 166.204
56.55000 163.225
56.72000 154.316
56.89000 153.064
57.06000 151.442
57.23000 153.082
57.40000 157.929
57.57000 147.117
57.74000 144.683
57.91000 156.488
58.08000 138.464
58.25000 137.079
58.42000 143.315
58.59000 132.803
58.76000 137.212
58.93000 138.383
59.10000 137.412
59.27000 133.182
59.44000 138.873
59.61000 153.245
59.78000 133.142
59.95000 128.964
60.12000 130.719
60.29000 135.208
60.46000 133.998
60.63000 143.451
60.80000 128.085
60.97000 144.004
61.14000 128.365
61.31000 143.886
61.48000 155.062
61.65000 325.483
61.82000 207.574
61.99000 145.275
62.16000 148.140
62.33000 132.354
62.50000 129.486
62.67000 147.739
62.84000 147.689
63.01000 146.735
63.18000 141.427
63.35000 157.610
63.52000 158.406
63.69000 147.030
63.86000 154.002
64.03000 163.486
64.20000 159.064
64.37000 162.555
64.54000 177.495
64.71000 186.032
64.88000 195.279
65.05000 219.103
65.22000 294.007
65.39000 436.537
65.56000 479.171
65.73000 869.207
65.90000 1372.674
66.07000 401.807
66.24000 360.468
66.41000 531.423
66.58000 363.394
66.75000 354.640
66.92000 361.087
67.09000 374.687
67.26000 406.146
67.43000 458.812
67.60000 478.421
67.77000 545.382
67.94000 578.913
68.11000 630.942
68.28000 708.709
68.45000 846.549
68.62000 1271.761
68.79000 2501.060
68.96000 23781.740
69.13000 83201.063
69.30000 47042.402
69.47000 9352.800
69.64000 1473.198
69.81000 992.646
69.98000 776.755
70.00000 764.131