File: XRD/30-09-2025 Dep 1/XY Data/BTO_Mapping_Theta2Theta_30-09-2025_001_13_26-765_29-726.xy
20.00000 569.407
20.17000 562.490
20.34000 559.923
20.51000 545.169
20.68000 552.767
20.85000 553.447
21.02000 544.810
21.19000 559.873
21.36000 532.298
21.53000 543.140
21.70000 548.915
21.87000 575.564
22.04000 623.835
22.21000 626.716
22.38000 556.908
22.55000 522.552
22.72000 516.176
22.89000 500.491
23.06000 517.959
23.23000 495.776
23.40000 511.588
23.57000 505.530
23.74000 519.273
23.91000 524.615
24.08000 542.377
24.25000 502.663
24.42000 496.213
24.59000 480.480
24.76000 479.042
24.93000 491.362
25.10000 479.666
25.27000 460.109
25.44000 457.531
25.61000 457.106
25.78000 467.523
25.95000 479.613
26.12000 468.402
26.29000 456.430
26.46000 462.270
26.63000 459.188
26.80000 453.233
26.97000 437.045
27.14000 433.166
27.31000 440.929
27.48000 434.163
27.65000 450.721
27.82000 421.711
27.99000 438.733
28.16000 444.475
28.33000 428.575
28.50000 404.572
28.67000 423.472
28.84000 425.025
29.01000 410.944
29.18000 413.646
29.35000 407.999
29.52000 397.385
29.69000 409.460
29.86000 429.729
30.03000 427.621
30.20000 423.305
30.37000 425.587
30.54000 424.905
30.71000 424.253
30.88000 453.072
31.05000 556.886
31.22000 1341.696
31.39000 2555.207
31.56000 1421.069
31.73000 560.495
31.90000 422.981
32.07000 409.827
32.24000 382.433
32.41000 383.286
32.58000 381.349
32.75000 363.877
32.92000 367.266
33.09000 376.162
33.26000 349.448
33.43000 345.713
33.60000 348.062
33.77000 344.930
33.94000 363.005
34.11000 344.172
34.28000 361.564
34.45000 364.216
34.62000 351.145
34.79000 332.056
34.96000 323.279
35.13000 324.825
35.30000 302.950
35.47000 320.934
35.64000 297.085
35.81000 299.752
35.98000 313.322
36.15000 297.831
36.32000 301.387
36.49000 285.708
36.66000 304.791
36.83000 293.604
37.00000 319.433
37.17000 304.361
37.34000 292.187
37.51000 292.968
37.68000 307.434
37.85000 290.251
38.02000 292.858
38.19000 297.667
38.36000 322.917
38.53000 536.912
38.70000 1034.286
38.87000 833.450
39.04000 367.054
39.21000 294.895
39.38000 270.945
39.55000 282.395
39.72000 267.218
39.89000 271.215
40.06000 262.917
40.23000 250.870
40.40000 260.137
40.57000 246.609
40.74000 248.104
40.91000 246.758
41.08000 246.153
41.25000 240.934
41.42000 245.197
41.59000 237.204
41.76000 235.662
41.93000 243.725
42.10000 246.127
42.27000 255.388
42.44000 226.559
42.61000 240.510
42.78000 242.045
42.95000 228.762
43.12000 243.699
43.29000 231.337
43.46000 238.305
43.63000 223.119
43.80000 224.929
43.97000 226.897
44.14000 228.015
44.31000 205.240
44.48000 231.671
44.65000 242.187
44.82000 240.794
44.99000 263.451
45.16000 292.461
45.33000 256.696
45.50000 237.299
45.67000 220.710
45.84000 208.444
46.01000 215.517
46.18000 207.745
46.35000 208.931
46.52000 223.584
46.69000 213.041
46.86000 197.064
47.03000 198.245
47.20000 199.818
47.37000 195.904
47.54000 191.392
47.71000 180.697
47.88000 193.522
48.05000 194.257
48.22000 184.848
48.39000 200.914
48.56000 172.329
48.73000 181.143
48.90000 180.828
49.07000 179.084
49.24000 169.643
49.41000 178.189
49.58000 182.448
49.75000 181.745
49.92000 180.390
50.09000 189.342
50.26000 178.833
50.43000 193.861
50.60000 218.705
50.77000 227.478
50.94000 212.905
51.11000 172.148
51.28000 162.212
51.45000 175.691
51.62000 157.308
51.79000 174.591
51.96000 174.106
52.13000 162.303
52.30000 159.577
52.47000 149.738
52.64000 156.984
52.81000 158.122
52.98000 151.585
53.15000 156.629
53.32000 173.978
53.49000 165.303
53.66000 157.283
53.83000 159.120
54.00000 162.708
54.17000 150.329
54.34000 149.924
54.51000 154.413
54.68000 150.321
54.85000 164.414
55.02000 158.455
55.19000 153.812
55.36000 171.742
55.53000 191.277
55.70000 297.795
55.87000 550.272
56.04000 589.844
56.21000 338.236
56.38000 214.112
56.55000 162.918
56.72000 152.815
56.89000 148.674
57.06000 141.029
57.23000 140.806
57.40000 142.466
57.57000 143.716
57.74000 140.416
57.91000 145.067
58.08000 132.236
58.25000 140.834
58.42000 130.533
58.59000 137.760
58.76000 147.107
58.93000 132.867
59.10000 137.886
59.27000 131.889
59.44000 141.722
59.61000 138.084
59.78000 125.271
59.95000 133.651
60.12000 136.037
60.29000 129.332
60.46000 135.329
60.63000 132.049
60.80000 133.374
60.97000 145.111
61.14000 140.957
61.31000 142.093
61.48000 148.063
61.65000 236.386
61.82000 189.190
61.99000 141.660
62.16000 136.736
62.33000 133.150
62.50000 138.959
62.67000 138.406
62.84000 135.344
63.01000 153.771
63.18000 153.468
63.35000 145.477
63.52000 145.770
63.69000 151.242
63.86000 149.310
64.03000 165.915
64.20000 145.875
64.37000 156.448
64.54000 163.257
64.71000 164.465
64.88000 174.115
65.05000 187.113
65.22000 205.517
65.39000 277.663
65.56000 355.713
65.73000 618.479
65.90000 919.196
66.07000 318.416
66.24000 301.408
66.41000 397.685
66.58000 302.040
66.75000 299.153
66.92000 319.000
67.09000 332.017
67.26000 364.027
67.43000 386.988
67.60000 409.857
67.77000 452.141
67.94000 473.547
68.11000 515.621
68.28000 580.281
68.45000 669.479
68.62000 943.886
68.79000 1704.748
68.96000 11710.504
69.13000 48658.578
69.30000 27921.926
69.47000 6004.108
69.64000 1082.328
69.81000 763.833
69.98000 644.240
70.00000 627.641