File: XRD/30-09-2025 Dep 1/XY Data/BTO_Mapping_Theta2Theta_30-09-2025_001_43_-10-000_-17-321.xy
20.00000 565.073
20.17000 561.378
20.34000 568.225
20.51000 557.613
20.68000 559.466
20.85000 572.268
21.02000 547.800
21.19000 585.951
21.36000 548.315
21.53000 577.549
21.70000 594.594
21.87000 711.928
22.04000 915.437
22.21000 712.818
22.38000 573.437
22.55000 555.944
22.72000 537.053
22.89000 522.919
23.06000 515.902
23.23000 506.463
23.40000 513.044
23.57000 515.785
23.74000 500.453
23.91000 506.476
24.08000 502.331
24.25000 493.666
24.42000 496.727
24.59000 461.102
24.76000 491.993
24.93000 506.109
25.10000 486.524
25.27000 474.580
25.44000 470.831
25.61000 487.617
25.78000 483.570
25.95000 478.155
26.12000 446.698
26.29000 464.622
26.46000 458.970
26.63000 466.027
26.80000 455.791
26.97000 460.486
27.14000 460.056
27.31000 450.446
27.48000 438.838
27.65000 433.874
27.82000 435.276
27.99000 433.936
28.16000 438.964
28.33000 437.434
28.50000 420.255
28.67000 431.117
28.84000 427.552
29.01000 428.089
29.18000 427.862
29.35000 415.832
29.52000 424.139
29.69000 428.327
29.86000 455.771
30.03000 456.661
30.20000 440.132
30.37000 450.311
30.54000 460.272
30.71000 443.677
30.88000 517.308
31.05000 744.196
31.22000 2370.559
31.39000 3949.921
31.56000 1603.625
31.73000 571.185
31.90000 436.390
32.07000 437.612
32.24000 453.358
32.41000 391.585
32.58000 387.795
32.75000 390.086
32.92000 443.443
33.09000 461.220
33.26000 350.458
33.43000 349.556
33.60000 345.361
33.77000 347.329
33.94000 335.214
34.11000 318.764
34.28000 352.550
34.45000 327.704
34.62000 333.865
34.79000 329.538
34.96000 340.152
35.13000 314.227
35.30000 316.180
35.47000 320.523
35.64000 291.273
35.81000 312.272
35.98000 303.622
36.15000 304.098
36.32000 301.467
36.49000 304.386
36.66000 299.729
36.83000 291.337
37.00000 305.507
37.17000 319.723
37.34000 292.225
37.51000 289.825
37.68000 309.073
37.85000 297.673
38.02000 300.634
38.19000 314.977
38.36000 348.392
38.53000 469.270
38.70000 683.934
38.87000 483.527
39.04000 322.451
39.21000 289.654
39.38000 280.450
39.55000 267.926
39.72000 259.989
39.89000 261.877
40.06000 263.245
40.23000 256.527
40.40000 259.851
40.57000 249.363
40.74000 248.072
40.91000 257.311
41.08000 237.890
41.25000 241.323
41.42000 240.808
41.59000 252.517
41.76000 268.338
41.93000 239.167
42.10000 249.291
42.27000 235.092
42.44000 247.077
42.61000 216.179
42.78000 226.714
42.95000 240.071
43.12000 227.807
43.29000 228.126
43.46000 240.052
43.63000 235.934
43.80000 242.123
43.97000 240.802
44.14000 236.916
44.31000 230.900
44.48000 227.247
44.65000 256.851
44.82000 370.940
44.99000 554.199
45.16000 455.783
45.33000 291.301
45.50000 235.320
45.67000 224.087
45.84000 229.273
46.01000 212.444
46.18000 212.856
46.35000 206.253
46.52000 211.826
46.69000 214.463
46.86000 197.452
47.03000 197.926
47.20000 187.135
47.37000 192.077
47.54000 196.413
47.71000 190.116
47.88000 192.631
48.05000 188.211
48.22000 196.081
48.39000 171.729
48.56000 175.888
48.73000 183.545
48.90000 189.640
49.07000 190.536
49.24000 172.969
49.41000 166.905
49.58000 177.455
49.75000 178.464
49.92000 172.765
50.09000 181.974
50.26000 181.815
50.43000 214.333
50.60000 283.844
50.77000 284.525
50.94000 219.815
51.11000 184.746
51.28000 175.364
51.45000 186.951
51.62000 169.546
51.79000 169.304
51.96000 166.306
52.13000 172.938
52.30000 163.614
52.47000 159.744
52.64000 161.931
52.81000 161.549
52.98000 172.474
53.15000 171.842
53.32000 154.227
53.49000 169.328
53.66000 149.807
53.83000 159.454
54.00000 158.881
54.17000 153.878
54.34000 158.526
54.51000 147.380
54.68000 152.590
54.85000 160.648
55.02000 160.308
55.19000 172.846
55.36000 165.366
55.53000 221.506
55.70000 390.003
55.87000 648.631
56.04000 519.586
56.21000 263.043
56.38000 182.979
56.55000 168.456
56.72000 153.736
56.89000 148.617
57.06000 158.626
57.23000 152.042
57.40000 155.674
57.57000 139.093
57.74000 141.087
57.91000 133.187
58.08000 145.935
58.25000 146.582
58.42000 139.866
58.59000 139.044
58.76000 132.659
58.93000 133.364
59.10000 143.929
59.27000 120.732
59.44000 130.982
59.61000 126.516
59.78000 126.437
59.95000 140.983
60.12000 129.259
60.29000 135.767
60.46000 139.819
60.63000 129.391
60.80000 130.538
60.97000 124.870
61.14000 133.783
61.31000 145.583
61.48000 142.063
61.65000 306.153
61.82000 231.846
61.99000 144.608
62.16000 144.602
62.33000 135.860
62.50000 143.861
62.67000 146.903
62.84000 147.455
63.01000 145.590
63.18000 149.317
63.35000 141.148
63.52000 155.028
63.69000 152.364
63.86000 152.384
64.03000 166.232
64.20000 151.343
64.37000 151.413
64.54000 178.118
64.71000 176.710
64.88000 193.244
65.05000 205.708
65.22000 261.065
65.39000 391.498
65.56000 466.319
65.73000 736.210
65.90000 1386.862
66.07000 452.457
66.24000 332.330
66.41000 506.911
66.58000 388.202
66.75000 341.071
66.92000 350.962
67.09000 376.425
67.26000 419.471
67.43000 426.978
67.60000 483.285
67.77000 529.125
67.94000 562.714
68.11000 636.990
68.28000 692.302
68.45000 791.574
68.62000 1157.713
68.79000 2264.698
68.96000 14907.951
69.13000 79558.734
69.30000 49565.039
69.47000 12989.254
69.64000 1559.753
69.81000 971.901
69.98000 804.482
70.00000 794.557