File: XRD/30-09-2025 Dep 1/XY Data/BTO_Mapping_Theta2Theta_30-09-2025_001_48_-3-136_-29-836.xy
20.00000 578.604
20.17000 605.135
20.34000 551.376
20.51000 558.948
20.68000 577.582
20.85000 551.898
21.02000 574.291
21.19000 573.908
21.36000 567.427
21.53000 566.669
21.70000 675.752
21.87000 936.182
22.04000 1010.236
22.21000 673.947
22.38000 590.356
22.55000 569.364
22.72000 549.693
22.89000 516.971
23.06000 513.639
23.23000 518.327
23.40000 510.365
23.57000 526.355
23.74000 515.807
23.91000 494.519
24.08000 513.486
24.25000 514.005
24.42000 498.439
24.59000 481.868
24.76000 491.787
24.93000 484.624
25.10000 457.788
25.27000 482.040
25.44000 481.261
25.61000 473.464
25.78000 484.662
25.95000 457.756
26.12000 464.467
26.29000 480.200
26.46000 455.788
26.63000 474.044
26.80000 468.913
26.97000 465.341
27.14000 454.406
27.31000 468.339
27.48000 458.482
27.65000 469.591
27.82000 447.261
27.99000 440.329
28.16000 455.901
28.33000 457.760
28.50000 455.800
28.67000 450.843
28.84000 444.979
29.01000 443.860
29.18000 444.287
29.35000 438.920
29.52000 440.709
29.69000 434.456
29.86000 467.338
30.03000 479.083
30.20000 463.293
30.37000 447.179
30.54000 452.144
30.71000 490.523
30.88000 565.234
31.05000 1241.421
31.22000 3649.385
31.39000 3060.715
31.56000 932.873
31.73000 532.876
31.90000 463.352
32.07000 424.828
32.24000 407.565
32.41000 387.821
32.58000 406.480
32.75000 376.206
32.92000 446.243
33.09000 474.430
33.26000 377.622
33.43000 365.672
33.60000 345.541
33.77000 337.587
33.94000 329.472
34.11000 365.793
34.28000 337.889
34.45000 323.440
34.62000 333.073
34.79000 334.586
34.96000 332.355
35.13000 333.278
35.30000 317.596
35.47000 327.174
35.64000 324.733
35.81000 317.707
35.98000 289.596
36.15000 319.508
36.32000 304.477
36.49000 312.013
36.66000 299.819
36.83000 298.162
37.00000 307.724
37.17000 297.405
37.34000 304.255
37.51000 297.290
37.68000 304.181
37.85000 307.441
38.02000 302.473
38.19000 314.136
38.36000 380.792
38.53000 487.942
38.70000 480.039
38.87000 356.815
39.04000 279.910
39.21000 280.641
39.38000 281.881
39.55000 276.400
39.72000 266.152
39.89000 276.837
40.06000 266.641
40.23000 266.170
40.40000 276.818
40.57000 256.569
40.74000 264.635
40.91000 248.685
41.08000 251.146
41.25000 250.178
41.42000 253.680
41.59000 245.500
41.76000 248.033
41.93000 253.518
42.10000 244.794
42.27000 241.250
42.44000 255.912
42.61000 245.988
42.78000 240.952
42.95000 234.003
43.12000 234.776
43.29000 250.647
43.46000 225.620
43.63000 230.911
43.80000 228.204
43.97000 248.495
44.14000 233.887
44.31000 243.165
44.48000 262.731
44.65000 374.886
44.82000 616.486
44.99000 647.827
45.16000 415.938
45.33000 307.097
45.50000 239.314
45.67000 237.899
45.84000 229.276
46.01000 218.121
46.18000 216.782
46.35000 215.342
46.52000 210.375
46.69000 204.842
46.86000 204.936
47.03000 193.822
47.20000 196.935
47.37000 190.459
47.54000 199.790
47.71000 188.578
47.88000 203.728
48.05000 203.906
48.22000 199.156
48.39000 194.408
48.56000 186.601
48.73000 186.740
48.90000 186.780
49.07000 181.275
49.24000 185.912
49.41000 188.847
49.58000 180.063
49.75000 191.917
49.92000 192.188
50.09000 206.233
50.26000 212.141
50.43000 273.699
50.60000 294.356
50.77000 244.367
50.94000 201.443
51.11000 171.998
51.28000 170.986
51.45000 169.185
51.62000 167.043
51.79000 171.173
51.96000 168.063
52.13000 164.038
52.30000 162.959
52.47000 167.070
52.64000 156.407
52.81000 177.514
52.98000 163.569
53.15000 166.237
53.32000 171.422
53.49000 161.481
53.66000 152.600
53.83000 169.348
54.00000 161.535
54.17000 169.556
54.34000 162.808
54.51000 167.244
54.68000 160.266
54.85000 166.601
55.02000 169.050
55.19000 173.994
55.36000 217.145
55.53000 336.571
55.70000 542.586
55.87000 528.801
56.04000 309.443
56.21000 201.108
56.38000 167.350
56.55000 167.631
56.72000 153.781
56.89000 157.159
57.06000 146.787
57.23000 146.149
57.40000 152.388
57.57000 145.463
57.74000 141.252
57.91000 144.393
58.08000 147.083
58.25000 146.042
58.42000 155.279
58.59000 146.191
58.76000 137.790
58.93000 149.881
59.10000 139.525
59.27000 142.683
59.44000 129.766
59.61000 136.279
59.78000 132.386
59.95000 131.589
60.12000 139.982
60.29000 139.398
60.46000 131.269
60.63000 143.441
60.80000 137.708
60.97000 143.627
61.14000 138.118
61.31000 135.100
61.48000 156.328
61.65000 329.911
61.82000 227.199
61.99000 157.864
62.16000 146.775
62.33000 144.505
62.50000 142.347
62.67000 142.971
62.84000 148.729
63.01000 149.534
63.18000 150.371
63.35000 150.653
63.52000 152.725
63.69000 152.064
63.86000 167.110
64.03000 151.671
64.20000 164.126
64.37000 165.792
64.54000 172.343
64.71000 182.789
64.88000 196.691
65.05000 251.055
65.22000 371.478
65.39000 427.996
65.56000 383.391
65.73000 736.264
65.90000 1382.311
66.07000 433.971
66.24000 341.970
66.41000 514.650
66.58000 389.790
66.75000 342.707
66.92000 368.405
67.09000 385.979
67.26000 413.511
67.43000 445.425
67.60000 471.004
67.77000 522.799
67.94000 564.951
68.11000 614.341
68.28000 691.610
68.45000 825.131
68.62000 1196.776
68.79000 2383.140
68.96000 17473.131
69.13000 82551.156
69.30000 50234.012
69.47000 12506.568
69.64000 1604.589
69.81000 998.826
69.98000 796.918
70.00000 774.372