File: XRD/30-09-2025 Dep 1/XY Data/BTO_Mapping_Theta2Theta_30-09-2025_001_28_-24-271_17-634.xy
20.00000 569.431
20.17000 560.234
20.34000 561.695
20.51000 570.078
20.68000 542.503
20.85000 546.375
21.02000 550.560
21.19000 546.312
21.36000 557.639
21.53000 539.287
21.70000 547.447
21.87000 594.316
22.04000 633.865
22.21000 621.531
22.38000 539.660
22.55000 559.780
22.72000 525.303
22.89000 526.346
23.06000 514.892
23.23000 524.242
23.40000 508.822
23.57000 480.386
23.74000 512.476
23.91000 528.505
24.08000 545.997
24.25000 522.100
24.42000 505.053
24.59000 506.752
24.76000 503.224
24.93000 497.412
25.10000 485.524
25.27000 480.759
25.44000 476.148
25.61000 478.738
25.78000 457.981
25.95000 471.342
26.12000 452.871
26.29000 423.414
26.46000 443.384
26.63000 459.836
26.80000 442.060
26.97000 444.322
27.14000 440.958
27.31000 440.590
27.48000 453.529
27.65000 437.915
27.82000 424.294
27.99000 447.096
28.16000 437.404
28.33000 425.194
28.50000 441.061
28.67000 427.890
28.84000 401.953
29.01000 410.752
29.18000 420.979
29.35000 412.616
29.52000 408.057
29.69000 404.776
29.86000 423.636
30.03000 417.867
30.20000 428.399
30.37000 413.710
30.54000 411.611
30.71000 429.259
30.88000 428.326
31.05000 530.782
31.22000 1101.872
31.39000 2250.491
31.56000 1483.625
31.73000 566.358
31.90000 432.926
32.07000 407.542
32.24000 401.391
32.41000 379.837
32.58000 371.220
32.75000 368.292
32.92000 376.230
33.09000 393.865
33.26000 352.011
33.43000 342.462
33.60000 348.280
33.77000 350.625
33.94000 338.971
34.11000 357.426
34.28000 373.741
34.45000 367.846
34.62000 355.618
34.79000 343.981
34.96000 344.277
35.13000 319.865
35.30000 307.567
35.47000 312.483
35.64000 310.148
35.81000 306.814
35.98000 309.224
36.15000 301.740
36.32000 301.315
36.49000 297.537
36.66000 288.230
36.83000 299.661
37.00000 299.313
37.17000 314.835
37.34000 288.930
37.51000 294.460
37.68000 301.724
37.85000 299.222
38.02000 302.974
38.19000 297.402
38.36000 321.567
38.53000 516.300
38.70000 1060.169
38.87000 987.610
39.04000 414.140
39.21000 309.437
39.38000 272.826
39.55000 272.181
39.72000 269.599
39.89000 275.287
40.06000 261.251
40.23000 246.828
40.40000 243.288
40.57000 258.433
40.74000 250.123
40.91000 254.340
41.08000 241.329
41.25000 246.772
41.42000 246.091
41.59000 234.606
41.76000 238.826
41.93000 248.304
42.10000 242.186
42.27000 234.660
42.44000 239.596
42.61000 236.153
42.78000 227.394
42.95000 222.871
43.12000 229.929
43.29000 224.310
43.46000 217.333
43.63000 224.829
43.80000 223.042
43.97000 222.612
44.14000 217.244
44.31000 233.286
44.48000 237.235
44.65000 236.474
44.82000 254.562
44.99000 264.777
45.16000 295.180
45.33000 261.518
45.50000 239.584
45.67000 214.313
45.84000 213.187
46.01000 207.617
46.18000 210.814
46.35000 214.615
46.52000 209.214
46.69000 214.237
46.86000 201.835
47.03000 193.918
47.20000 193.177
47.37000 192.747
47.54000 197.358
47.71000 185.080
47.88000 178.732
48.05000 173.702
48.22000 190.299
48.39000 182.585
48.56000 186.386
48.73000 178.591
48.90000 179.614
49.07000 169.062
49.24000 185.459
49.41000 182.629
49.58000 177.801
49.75000 178.424
49.92000 184.166
50.09000 195.292
50.26000 186.330
50.43000 196.545
50.60000 204.665
50.77000 215.338
50.94000 209.289
51.11000 173.474
51.28000 168.992
51.45000 161.732
51.62000 171.119
51.79000 168.475
51.96000 159.819
52.13000 171.341
52.30000 158.119
52.47000 164.528
52.64000 154.155
52.81000 161.723
52.98000 166.942
53.15000 172.695
53.32000 163.978
53.49000 155.374
53.66000 160.000
53.83000 149.265
54.00000 169.118
54.17000 148.874
54.34000 154.223
54.51000 155.039
54.68000 143.277
54.85000 155.504
55.02000 154.360
55.19000 159.322
55.36000 161.677
55.53000 194.981
55.70000 277.411
55.87000 503.503
56.04000 589.694
56.21000 364.560
56.38000 221.508
56.55000 167.690
56.72000 147.111
56.89000 148.387
57.06000 150.346
57.23000 139.156
57.40000 140.376
57.57000 150.554
57.74000 148.561
57.91000 139.083
58.08000 143.009
58.25000 136.380
58.42000 142.576
58.59000 137.604
58.76000 135.564
58.93000 146.713
59.10000 147.295
59.27000 127.108
59.44000 139.391
59.61000 132.429
59.78000 134.443
59.95000 138.701
60.12000 137.079
60.29000 127.400
60.46000 132.676
60.63000 136.344
60.80000 137.535
60.97000 138.963
61.14000 130.763
61.31000 133.256
61.48000 145.747
61.65000 230.951
61.82000 207.250
61.99000 137.590
62.16000 140.148
62.33000 147.580
62.50000 142.447
62.67000 132.575
62.84000 148.026
63.01000 144.763
63.18000 144.995
63.35000 143.570
63.52000 141.767
63.69000 149.916
63.86000 147.981
64.03000 150.899
64.20000 148.606
64.37000 158.736
64.54000 164.750
64.71000 167.615
64.88000 170.662
65.05000 196.872
65.22000 209.662
65.39000 262.876
65.56000 322.055
65.73000 475.965
65.90000 911.766
66.07000 369.916
66.24000 287.246
66.41000 379.624
66.58000 319.482
66.75000 301.126
66.92000 301.076
67.09000 335.859
67.26000 353.221
67.43000 378.367
67.60000 403.872
67.77000 440.938
67.94000 462.829
68.11000 518.427
68.28000 562.167
68.45000 649.564
68.62000 885.931
68.79000 1537.091
68.96000 6094.835
69.13000 47071.004
69.30000 31218.504
69.47000 9500.322
69.64000 1183.569
69.81000 791.228
69.98000 648.128
70.00000 651.491