File: XRD/30-09-2025 Dep 1/XY Data/BTO_Mapping_Theta2Theta_30-09-2025_001_19_-2-091_19-890.xy
20.00000 566.938
20.17000 563.815
20.34000 570.517
20.51000 569.221
20.68000 552.201
20.85000 538.011
21.02000 546.542
21.19000 538.952
21.36000 567.499
21.53000 562.161
21.70000 553.750
21.87000 575.608
22.04000 641.849
22.21000 598.660
22.38000 566.312
22.55000 526.422
22.72000 537.088
22.89000 503.032
23.06000 509.455
23.23000 521.731
23.40000 506.821
23.57000 514.592
23.74000 499.683
23.91000 525.929
24.08000 527.023
24.25000 528.641
24.42000 503.443
24.59000 474.565
24.76000 496.832
24.93000 477.525
25.10000 472.396
25.27000 475.229
25.44000 465.185
25.61000 467.960
25.78000 452.686
25.95000 484.173
26.12000 465.863
26.29000 474.025
26.46000 461.189
26.63000 468.144
26.80000 437.007
26.97000 447.781
27.14000 436.246
27.31000 440.366
27.48000 449.130
27.65000 444.843
27.82000 445.825
27.99000 443.759
28.16000 441.961
28.33000 437.358
28.50000 439.187
28.67000 418.415
28.84000 404.612
29.01000 429.516
29.18000 418.311
29.35000 404.604
29.52000 406.871
29.69000 424.242
29.86000 425.894
30.03000 431.866
30.20000 438.219
30.37000 410.962
30.54000 406.437
30.71000 407.074
30.88000 471.156
31.05000 550.432
31.22000 1443.673
31.39000 2830.598
31.56000 1548.538
31.73000 555.841
31.90000 441.618
32.07000 412.917
32.24000 391.796
32.41000 393.032
32.58000 375.571
32.75000 382.995
32.92000 374.617
33.09000 392.332
33.26000 345.174
33.43000 332.314
33.60000 349.743
33.77000 354.909
33.94000 342.461
34.11000 329.657
34.28000 354.382
34.45000 344.566
34.62000 333.055
34.79000 358.870
34.96000 323.312
35.13000 318.942
35.30000 304.541
35.47000 327.478
35.64000 303.479
35.81000 308.005
35.98000 289.515
36.15000 303.495
36.32000 297.146
36.49000 297.825
36.66000 308.346
36.83000 298.417
37.00000 307.346
37.17000 284.575
37.34000 296.044
37.51000 286.630
37.68000 297.167
37.85000 281.613
38.02000 309.726
38.19000 300.134
38.36000 333.136
38.53000 518.695
38.70000 1068.161
38.87000 859.076
39.04000 390.346
39.21000 288.629
39.38000 274.020
39.55000 290.579
39.72000 279.534
39.89000 263.318
40.06000 266.165
40.23000 273.833
40.40000 253.497
40.57000 260.237
40.74000 243.584
40.91000 255.267
41.08000 248.909
41.25000 242.392
41.42000 243.426
41.59000 248.450
41.76000 243.687
41.93000 251.682
42.10000 242.237
42.27000 241.211
42.44000 241.968
42.61000 231.429
42.78000 230.119
42.95000 235.614
43.12000 222.893
43.29000 233.628
43.46000 219.769
43.63000 241.472
43.80000 225.904
43.97000 223.579
44.14000 230.202
44.31000 220.874
44.48000 219.257
44.65000 232.396
44.82000 243.408
44.99000 292.347
45.16000 318.454
45.33000 267.974
45.50000 233.688
45.67000 216.186
45.84000 203.462
46.01000 193.333
46.18000 208.688
46.35000 202.367
46.52000 207.246
46.69000 197.011
46.86000 189.560
47.03000 186.028
47.20000 194.290
47.37000 199.207
47.54000 187.461
47.71000 197.562
47.88000 183.129
48.05000 194.408
48.22000 185.333
48.39000 207.128
48.56000 184.325
48.73000 178.729
48.90000 178.975
49.07000 179.111
49.24000 182.023
49.41000 173.241
49.58000 180.414
49.75000 184.159
49.92000 175.081
50.09000 185.684
50.26000 182.084
50.43000 184.307
50.60000 221.386
50.77000 239.874
50.94000 210.144
51.11000 176.917
51.28000 177.065
51.45000 169.286
51.62000 167.972
51.79000 153.526
51.96000 164.644
52.13000 157.211
52.30000 167.113
52.47000 161.625
52.64000 161.675
52.81000 154.913
52.98000 160.982
53.15000 150.558
53.32000 159.607
53.49000 155.380
53.66000 158.397
53.83000 159.085
54.00000 158.207
54.17000 159.289
54.34000 155.530
54.51000 162.740
54.68000 157.394
54.85000 152.969
55.02000 158.044
55.19000 160.783
55.36000 174.421
55.53000 203.879
55.70000 312.964
55.87000 556.861
56.04000 563.703
56.21000 360.941
56.38000 207.139
56.55000 174.518
56.72000 162.382
56.89000 143.713
57.06000 142.724
57.23000 150.274
57.40000 160.044
57.57000 144.980
57.74000 139.041
57.91000 143.444
58.08000 140.356
58.25000 150.630
58.42000 139.223
58.59000 140.321
58.76000 135.860
58.93000 128.384
59.10000 134.879
59.27000 138.573
59.44000 130.183
59.61000 130.242
59.78000 132.993
59.95000 132.811
60.12000 136.407
60.29000 136.446
60.46000 137.669
60.63000 127.146
60.80000 146.050
60.97000 129.329
61.14000 134.757
61.31000 143.686
61.48000 141.736
61.65000 232.510
61.82000 190.053
61.99000 152.513
62.16000 145.717
62.33000 140.808
62.50000 137.772
62.67000 136.141
62.84000 146.696
63.01000 151.459
63.18000 150.354
63.35000 144.882
63.52000 144.655
63.69000 148.045
63.86000 153.346
64.03000 145.556
64.20000 170.612
64.37000 164.399
64.54000 167.978
64.71000 168.540
64.88000 175.034
65.05000 190.264
65.22000 224.313
65.39000 293.759
65.56000 385.731
65.73000 561.012
65.90000 898.938
66.07000 348.139
66.24000 281.480
66.41000 393.469
66.58000 326.111
66.75000 296.211
66.92000 305.534
67.09000 326.754
67.26000 371.628
67.43000 376.986
67.60000 382.712
67.77000 444.163
67.94000 470.689
68.11000 510.140
68.28000 563.580
68.45000 660.151
68.62000 906.827
68.79000 1581.794
68.96000 8536.381
69.13000 47145.301
69.30000 28602.879
69.47000 7390.185
69.64000 1109.873
69.81000 787.523
69.98000 660.518
70.00000 655.549