File: XRD/30-09-2025 Dep 1/XY Data/BTO_Mapping_Theta2Theta_30-09-2025_001_30_-9-781_2-079.xy
20.00000 580.793
20.17000 570.810
20.34000 572.623
20.51000 547.529
20.68000 558.701
20.85000 545.630
21.02000 556.492
21.19000 550.162
21.36000 556.587
21.53000 540.597
21.70000 562.915
21.87000 613.960
22.04000 747.794
22.21000 675.606
22.38000 567.871
22.55000 543.771
22.72000 533.249
22.89000 522.136
23.06000 519.846
23.23000 515.201
23.40000 512.434
23.57000 497.758
23.74000 523.545
23.91000 504.637
24.08000 532.688
24.25000 535.159
24.42000 502.954
24.59000 502.033
24.76000 486.294
24.93000 476.355
25.10000 479.889
25.27000 467.926
25.44000 473.838
25.61000 459.785
25.78000 471.361
25.95000 473.741
26.12000 462.938
26.29000 457.262
26.46000 447.995
26.63000 446.327
26.80000 458.375
26.97000 443.649
27.14000 473.662
27.31000 458.285
27.48000 449.741
27.65000 450.266
27.82000 425.740
27.99000 433.371
28.16000 420.235
28.33000 439.583
28.50000 429.210
28.67000 428.451
28.84000 424.790
29.01000 440.011
29.18000 416.045
29.35000 422.948
29.52000 430.674
29.69000 405.926
29.86000 431.493
30.03000 457.619
30.20000 432.892
30.37000 433.981
30.54000 440.713
30.71000 459.878
30.88000 478.929
31.05000 651.002
31.22000 1799.304
31.39000 3573.707
31.56000 1712.145
31.73000 569.870
31.90000 461.380
32.07000 410.021
32.24000 418.961
32.41000 387.973
32.58000 371.327
32.75000 364.941
32.92000 405.789
33.09000 423.555
33.26000 358.418
33.43000 347.843
33.60000 341.695
33.77000 348.757
33.94000 351.681
34.11000 341.851
34.28000 351.617
34.45000 332.540
34.62000 340.707
34.79000 334.127
34.96000 328.978
35.13000 327.181
35.30000 318.451
35.47000 320.108
35.64000 344.943
35.81000 315.368
35.98000 306.776
36.15000 296.870
36.32000 313.134
36.49000 299.229
36.66000 312.010
36.83000 286.260
37.00000 313.159
37.17000 318.155
37.34000 297.476
37.51000 299.458
37.68000 284.312
37.85000 296.905
38.02000 299.755
38.19000 317.005
38.36000 329.235
38.53000 493.536
38.70000 853.179
38.87000 636.469
39.04000 342.961
39.21000 272.737
39.38000 261.142
39.55000 277.827
39.72000 263.948
39.89000 257.625
40.06000 260.938
40.23000 252.947
40.40000 262.273
40.57000 259.036
40.74000 253.217
40.91000 257.791
41.08000 251.646
41.25000 253.536
41.42000 238.167
41.59000 243.503
41.76000 240.668
41.93000 232.268
42.10000 235.091
42.27000 238.330
42.44000 244.877
42.61000 252.997
42.78000 236.674
42.95000 225.613
43.12000 231.752
43.29000 230.667
43.46000 222.369
43.63000 238.463
43.80000 208.386
43.97000 232.893
44.14000 215.384
44.31000 222.654
44.48000 226.117
44.65000 233.975
44.82000 274.697
44.99000 350.903
45.16000 397.700
45.33000 299.607
45.50000 243.962
45.67000 222.216
45.84000 208.132
46.01000 215.666
46.18000 200.729
46.35000 200.228
46.52000 199.404
46.69000 213.468
46.86000 197.024
47.03000 198.892
47.20000 193.315
47.37000 205.278
47.54000 183.748
47.71000 185.844
47.88000 199.002
48.05000 182.479
48.22000 178.496
48.39000 188.755
48.56000 184.066
48.73000 183.597
48.90000 187.981
49.07000 187.138
49.24000 188.457
49.41000 183.444
49.58000 172.355
49.75000 183.156
49.92000 190.659
50.09000 165.709
50.26000 183.042
50.43000 196.838
50.60000 259.575
50.77000 269.940
50.94000 210.653
51.11000 176.736
51.28000 173.101
51.45000 164.513
51.62000 170.791
51.79000 166.637
51.96000 163.612
52.13000 166.239
52.30000 158.113
52.47000 157.136
52.64000 154.881
52.81000 167.705
52.98000 164.045
53.15000 165.622
53.32000 169.451
53.49000 156.084
53.66000 154.824
53.83000 159.668
54.00000 162.727
54.17000 155.057
54.34000 162.003
54.51000 157.007
54.68000 151.053
54.85000 165.384
55.02000 161.052
55.19000 161.415
55.36000 170.066
55.53000 191.986
55.70000 309.559
55.87000 590.442
56.04000 598.409
56.21000 314.927
56.38000 192.653
56.55000 155.850
56.72000 160.175
56.89000 154.224
57.06000 149.125
57.23000 154.367
57.40000 140.006
57.57000 150.707
57.74000 138.579
57.91000 141.747
58.08000 152.580
58.25000 138.371
58.42000 144.587
58.59000 133.328
58.76000 144.015
58.93000 134.697
59.10000 137.369
59.27000 125.396
59.44000 133.569
59.61000 135.115
59.78000 126.294
59.95000 138.595
60.12000 139.296
60.29000 123.815
60.46000 143.418
60.63000 134.950
60.80000 140.407
60.97000 131.250
61.14000 137.629
61.31000 134.784
61.48000 142.846
61.65000 273.167
61.82000 211.303
61.99000 133.422
62.16000 142.114
62.33000 139.401
62.50000 151.981
62.67000 140.696
62.84000 129.396
63.01000 150.006
63.18000 143.982
63.35000 151.681
63.52000 153.253
63.69000 149.837
63.86000 153.464
64.03000 150.786
64.20000 163.260
64.37000 168.870
64.54000 172.038
64.71000 173.568
64.88000 193.713
65.05000 204.075
65.22000 240.013
65.39000 315.121
65.56000 428.145
65.73000 661.024
65.90000 1119.922
66.07000 369.660
66.24000 298.885
66.41000 451.070
66.58000 345.409
66.75000 318.699
66.92000 330.040
67.09000 357.372
67.26000 371.841
67.43000 423.723
67.60000 446.283
67.77000 458.539
67.94000 531.917
68.11000 561.061
68.28000 649.905
68.45000 752.968
68.62000 1003.516
68.79000 1939.337
68.96000 10466.805
69.13000 62554.250
69.30000 38749.973
69.47000 10085.106
69.64000 1309.056
69.81000 881.792
69.98000 722.837
70.00000 721.338