File: XRD/30-09-2025 Dep 1/XY Data/BTO_Mapping_Theta2Theta_30-09-2025_001_46_-1-045_-9-945.xy
20.00000 555.645
20.17000 554.305
20.34000 568.926
20.51000 546.157
20.68000 549.350
20.85000 565.488
21.02000 569.937
21.19000 545.285
21.36000 565.847
21.53000 578.622
21.70000 584.531
21.87000 714.401
22.04000 907.117
22.21000 706.390
22.38000 567.956
22.55000 542.104
22.72000 530.652
22.89000 534.348
23.06000 518.176
23.23000 511.474
23.40000 520.598
23.57000 496.863
23.74000 510.340
23.91000 513.855
24.08000 516.932
24.25000 495.045
24.42000 507.689
24.59000 493.946
24.76000 480.834
24.93000 484.988
25.10000 483.454
25.27000 485.704
25.44000 469.903
25.61000 483.341
25.78000 482.827
25.95000 484.751
26.12000 454.078
26.29000 477.602
26.46000 474.849
26.63000 444.626
26.80000 454.662
26.97000 468.118
27.14000 449.318
27.31000 438.976
27.48000 439.966
27.65000 456.988
27.82000 429.546
27.99000 433.076
28.16000 437.836
28.33000 451.478
28.50000 427.347
28.67000 433.611
28.84000 430.355
29.01000 412.511
29.18000 432.188
29.35000 417.576
29.52000 426.865
29.69000 419.100
29.86000 448.645
30.03000 474.365
30.20000 449.828
30.37000 451.462
30.54000 462.777
30.71000 460.896
30.88000 503.697
31.05000 739.686
31.22000 2363.251
31.39000 3837.967
31.56000 1562.530
31.73000 558.807
31.90000 455.862
32.07000 432.422
32.24000 407.109
32.41000 395.732
32.58000 402.571
32.75000 384.420
32.92000 458.078
33.09000 444.008
33.26000 366.440
33.43000 354.996
33.60000 334.745
33.77000 340.635
33.94000 346.294
34.11000 322.316
34.28000 341.557
34.45000 325.282
34.62000 324.034
34.79000 324.159
34.96000 305.898
35.13000 325.028
35.30000 318.699
35.47000 307.091
35.64000 293.470
35.81000 311.489
35.98000 307.808
36.15000 306.924
36.32000 297.665
36.49000 304.540
36.66000 304.743
36.83000 297.847
37.00000 325.040
37.17000 299.807
37.34000 308.026
37.51000 298.710
37.68000 304.714
37.85000 304.106
38.02000 297.125
38.19000 322.608
38.36000 339.636
38.53000 509.831
38.70000 705.760
38.87000 497.471
39.04000 326.247
39.21000 289.967
39.38000 275.127
39.55000 269.629
39.72000 278.670
39.89000 268.142
40.06000 271.778
40.23000 247.255
40.40000 252.234
40.57000 260.334
40.74000 262.114
40.91000 247.830
41.08000 254.535
41.25000 248.246
41.42000 247.748
41.59000 245.997
41.76000 251.715
41.93000 236.781
42.10000 244.195
42.27000 235.336
42.44000 238.727
42.61000 242.844
42.78000 239.491
42.95000 237.742
43.12000 225.372
43.29000 222.144
43.46000 250.382
43.63000 231.183
43.80000 233.976
43.97000 233.695
44.14000 231.665
44.31000 224.785
44.48000 241.423
44.65000 261.599
44.82000 351.155
44.99000 534.846
45.16000 462.207
45.33000 266.261
45.50000 244.941
45.67000 221.136
45.84000 218.925
46.01000 221.821
46.18000 208.305
46.35000 211.330
46.52000 200.388
46.69000 204.347
46.86000 216.442
47.03000 194.099
47.20000 197.864
47.37000 198.155
47.54000 199.755
47.71000 192.730
47.88000 185.601
48.05000 195.056
48.22000 189.431
48.39000 186.807
48.56000 179.578
48.73000 180.829
48.90000 174.459
49.07000 185.913
49.24000 180.222
49.41000 173.275
49.58000 185.636
49.75000 191.483
49.92000 172.009
50.09000 183.333
50.26000 177.555
50.43000 235.166
50.60000 276.951
50.77000 277.589
50.94000 207.707
51.11000 189.325
51.28000 167.012
51.45000 173.281
51.62000 170.342
51.79000 167.634
51.96000 164.324
52.13000 161.214
52.30000 164.441
52.47000 170.796
52.64000 158.537
52.81000 153.696
52.98000 163.480
53.15000 165.751
53.32000 158.533
53.49000 164.572
53.66000 154.908
53.83000 161.873
54.00000 160.956
54.17000 151.864
54.34000 154.628
54.51000 167.231
54.68000 177.338
54.85000 153.786
55.02000 157.742
55.19000 167.244
55.36000 178.109
55.53000 221.077
55.70000 387.463
55.87000 647.497
56.04000 525.983
56.21000 268.468
56.38000 182.459
56.55000 179.780
56.72000 145.002
56.89000 149.393
57.06000 153.099
57.23000 144.936
57.40000 140.263
57.57000 145.640
57.74000 150.158
57.91000 141.446
58.08000 148.984
58.25000 139.368
58.42000 140.468
58.59000 142.310
58.76000 134.945
58.93000 135.209
59.10000 130.595
59.27000 137.340
59.44000 134.312
59.61000 138.246
59.78000 144.197
59.95000 140.134
60.12000 134.162
60.29000 129.614
60.46000 138.204
60.63000 136.946
60.80000 137.694
60.97000 129.638
61.14000 137.663
61.31000 136.265
61.48000 148.498
61.65000 313.340
61.82000 228.728
61.99000 149.982
62.16000 149.184
62.33000 138.375
62.50000 153.086
62.67000 141.257
62.84000 141.473
63.01000 154.809
63.18000 152.573
63.35000 145.877
63.52000 153.193
63.69000 152.772
63.86000 167.165
64.03000 157.649
64.20000 185.790
64.37000 173.980
64.54000 158.555
64.71000 180.911
64.88000 195.199
65.05000 210.532
65.22000 270.605
65.39000 381.511
65.56000 459.312
65.73000 780.278
65.90000 1327.829
66.07000 410.277
66.24000 347.898
66.41000 502.884
66.58000 374.678
66.75000 335.946
66.92000 362.573
67.09000 387.201
67.26000 390.868
67.43000 453.000
67.60000 479.029
67.77000 515.912
67.94000 560.842
68.11000 627.059
68.28000 691.922
68.45000 818.773
68.62000 1165.333
68.79000 2280.581
68.96000 15923.754
69.13000 77966.539
69.30000 46851.031
69.47000 11398.364
69.64000 1520.373
69.81000 961.339
69.98000 793.140
70.00000 765.569