File: XRD/30-09-2025 Dep 1/XY Data/BTO_fwhm_results.csv
X Coordinates,Y Coordinates,FWHM
-39.126,-8.316,0.312815
-39.126,8.316,0.320906
-32.361,-23.511,0.305779
-32.361,23.511,0.336952
-29.344,-6.237,0.306433
-29.344,6.237,0.313984
-24.271,-17.634,0.301793
-24.271,17.634,0.322332
-20.0,-34.641,0.308685
-20.0,34.641,0.350504
-19.563,-4.158,0.301413
-19.563,4.158,0.315311
-16.18,-11.756,0.30642
-16.18,11.756,0.307068
-15.0,-25.981,0.308451
-15.0,25.981,0.331831
-10.0,-17.321,0.310156
-10.0,17.321,0.314868
-9.781,-2.079,0.310643
-9.781,2.079,0.306925
-8.09,-5.878,0.307076
-8.09,5.878,0.310093
-5.0,-8.66,0.30838
-5.0,8.66,0.309171
-4.181,-39.781,0.328712
-4.181,39.781,0.341194
-3.136,-29.836,0.315286
-3.136,29.836,0.32395
-2.091,-19.89,0.311924
-2.091,19.89,0.315098
-1.045,-9.945,0.307793
-1.045,9.945,0.305762
0.0,0.0,0.307307
3.09,-9.511,0.309585
3.09,9.511,0.306114
6.18,-19.021,0.305647
6.18,19.021,0.315607
6.691,-7.431,0.307183
6.691,7.431,0.303805
9.135,-4.067,0.307156
9.135,4.067,0.306441
9.271,-28.532,0.326282
9.271,28.532,0.322237
10.0,0.0,0.309101
12.361,-38.042,0.319131
12.361,38.042,0.338458
13.383,-14.863,0.309884
13.383,14.863,0.314081
18.271,-8.135,0.312394
18.271,8.135,0.306854
20.0,0.0,0.306199
20.074,-22.294,0.32041
20.074,22.294,0.317355
26.765,-29.726,0.326202
26.765,29.726,0.319184
27.406,-12.202,0.309315
27.406,12.202,0.310956
30.0,0.0,0.311019
36.542,-16.269,0.307814
36.542,16.269,0.310605
40.0,0.0,0.313303