File: XRD/30-09-2025 Dep 1/XY Data/BTO_Mapping_Theta2Theta_30-09-2025_001_20_-3-136_29-836.xy
20.00000 561.260
20.17000 573.925
20.34000 575.848
20.51000 555.840
20.68000 542.218
20.85000 567.312
21.02000 554.507
21.19000 545.562
21.36000 550.189
21.53000 550.532
21.70000 573.704
21.87000 591.523
22.04000 662.163
22.21000 628.459
22.38000 556.449
22.55000 527.618
22.72000 530.269
22.89000 549.222
23.06000 525.324
23.23000 520.471
23.40000 517.096
23.57000 502.575
23.74000 516.575
23.91000 523.570
24.08000 545.425
24.25000 518.042
24.42000 515.764
24.59000 488.359
24.76000 471.341
24.93000 456.981
25.10000 491.312
25.27000 469.561
25.44000 479.188
25.61000 467.074
25.78000 469.861
25.95000 453.823
26.12000 434.403
26.29000 460.893
26.46000 443.064
26.63000 455.429
26.80000 468.911
26.97000 438.973
27.14000 443.522
27.31000 435.799
27.48000 444.272
27.65000 446.921
27.82000 420.332
27.99000 424.845
28.16000 425.800
28.33000 435.974
28.50000 430.681
28.67000 434.351
28.84000 421.288
29.01000 411.941
29.18000 410.133
29.35000 405.360
29.52000 394.610
29.69000 414.299
29.86000 434.060
30.03000 424.035
30.20000 436.391
30.37000 429.788
30.54000 410.849
30.71000 420.977
30.88000 440.421
31.05000 540.858
31.22000 1134.177
31.39000 2020.097
31.56000 1183.714
31.73000 558.063
31.90000 418.550
32.07000 406.143
32.24000 392.660
32.41000 385.593
32.58000 385.357
32.75000 380.750
32.92000 385.540
33.09000 386.515
33.26000 338.341
33.43000 353.909
33.60000 348.194
33.77000 348.456
33.94000 343.885
34.11000 360.608
34.28000 368.519
34.45000 390.186
34.62000 348.285
34.79000 341.820
34.96000 326.416
35.13000 325.054
35.30000 320.036
35.47000 313.804
35.64000 329.187
35.81000 309.565
35.98000 304.432
36.15000 304.576
36.32000 289.632
36.49000 296.647
36.66000 311.966
36.83000 298.188
37.00000 303.250
37.17000 296.562
37.34000 292.770
37.51000 301.525
37.68000 290.669
37.85000 285.619
38.02000 296.550
38.19000 304.040
38.36000 311.516
38.53000 545.415
38.70000 1063.034
38.87000 874.000
39.04000 383.792
39.21000 299.344
39.38000 285.075
39.55000 291.203
39.72000 278.158
39.89000 266.260
40.06000 266.414
40.23000 267.273
40.40000 263.842
40.57000 248.721
40.74000 262.706
40.91000 261.689
41.08000 260.366
41.25000 249.769
41.42000 236.317
41.59000 243.965
41.76000 258.349
41.93000 237.274
42.10000 249.653
42.27000 251.738
42.44000 230.960
42.61000 237.833
42.78000 240.394
42.95000 235.076
43.12000 233.436
43.29000 229.108
43.46000 212.433
43.63000 221.551
43.80000 222.738
43.97000 224.730
44.14000 211.797
44.31000 221.106
44.48000 237.485
44.65000 233.515
44.82000 247.528
44.99000 304.817
45.16000 302.936
45.33000 270.464
45.50000 241.934
45.67000 212.084
45.84000 205.811
46.01000 201.722
46.18000 213.411
46.35000 211.707
46.52000 212.555
46.69000 199.631
46.86000 210.058
47.03000 198.516
47.20000 197.084
47.37000 187.360
47.54000 193.206
47.71000 195.151
47.88000 201.462
48.05000 190.150
48.22000 176.187
48.39000 182.539
48.56000 187.523
48.73000 169.724
48.90000 182.684
49.07000 184.148
49.24000 168.814
49.41000 174.478
49.58000 172.937
49.75000 168.731
49.92000 177.151
50.09000 165.059
50.26000 182.906
50.43000 173.149
50.60000 209.795
50.77000 217.381
50.94000 196.056
51.11000 179.848
51.28000 168.578
51.45000 170.196
51.62000 162.735
51.79000 161.484
51.96000 162.098
52.13000 172.132
52.30000 156.641
52.47000 155.822
52.64000 165.781
52.81000 163.388
52.98000 155.678
53.15000 151.435
53.32000 167.191
53.49000 160.901
53.66000 164.010
53.83000 159.437
54.00000 155.581
54.17000 150.442
54.34000 150.244
54.51000 160.784
54.68000 160.773
54.85000 164.986
55.02000 158.059
55.19000 172.561
55.36000 176.418
55.53000 184.321
55.70000 291.620
55.87000 549.153
56.04000 558.372
56.21000 341.825
56.38000 208.410
56.55000 174.689
56.72000 162.565
56.89000 160.121
57.06000 143.112
57.23000 143.504
57.40000 150.787
57.57000 146.330
57.74000 142.127
57.91000 139.088
58.08000 138.378
58.25000 136.036
58.42000 132.729
58.59000 131.957
58.76000 128.809
58.93000 139.318
59.10000 129.321
59.27000 136.914
59.44000 133.315
59.61000 131.684
59.78000 138.115
59.95000 134.786
60.12000 137.282
60.29000 133.667
60.46000 131.489
60.63000 142.859
60.80000 128.764
60.97000 144.289
61.14000 129.626
61.31000 145.971
61.48000 141.308
61.65000 234.712
61.82000 188.163
61.99000 132.465
62.16000 150.361
62.33000 143.700
62.50000 143.658
62.67000 145.638
62.84000 145.288
63.01000 138.454
63.18000 146.901
63.35000 152.066
63.52000 149.225
63.69000 143.831
63.86000 160.656
64.03000 142.307
64.20000 151.876
64.37000 162.373
64.54000 164.915
64.71000 170.374
64.88000 184.968
65.05000 193.322
65.22000 214.583
65.39000 268.279
65.56000 305.213
65.73000 531.269
65.90000 907.262
66.07000 328.167
66.24000 280.913
66.41000 399.690
66.58000 321.259
66.75000 297.730
66.92000 298.913
67.09000 328.588
67.26000 355.195
67.43000 360.079
67.60000 419.124
67.77000 440.183
67.94000 472.434
68.11000 541.378
68.28000 573.073
68.45000 663.269
68.62000 877.423
68.79000 1630.509
68.96000 8609.380
69.13000 47941.980
69.30000 29269.795
69.47000 7504.375
69.64000 1136.104
69.81000 790.861
69.98000 645.656
70.00000 624.813