File: XRD/30-09-2025 Dep 1/XY Data/BTO_Mapping_Theta2Theta_30-09-2025_001_05_40-000_0-000.xy
20.00000 567.986
20.17000 589.496
20.34000 569.457
20.51000 564.489
20.68000 559.160
20.85000 562.762
21.02000 547.756
21.19000 566.166
21.36000 556.157
21.53000 556.078
21.70000 587.072
21.87000 674.148
22.04000 804.293
22.21000 655.577
22.38000 560.834
22.55000 542.237
22.72000 531.634
22.89000 516.670
23.06000 518.211
23.23000 521.615
23.40000 517.142
23.57000 504.019
23.74000 507.202
23.91000 498.723
24.08000 485.482
24.25000 498.459
24.42000 502.122
24.59000 472.695
24.76000 474.564
24.93000 497.801
25.10000 473.411
25.27000 494.873
25.44000 468.998
25.61000 478.401
25.78000 462.144
25.95000 455.689
26.12000 464.949
26.29000 445.465
26.46000 449.797
26.63000 465.002
26.80000 437.896
26.97000 428.012
27.14000 470.158
27.31000 442.838
27.48000 449.504
27.65000 440.922
27.82000 431.607
27.99000 443.230
28.16000 444.235
28.33000 448.105
28.50000 433.126
28.67000 426.707
28.84000 419.438
29.01000 445.628
29.18000 409.417
29.35000 429.644
29.52000 414.979
29.69000 411.702
29.86000 436.133
30.03000 454.661
30.20000 437.092
30.37000 449.468
30.54000 450.585
30.71000 451.974
30.88000 505.794
31.05000 760.736
31.22000 2470.925
31.39000 4166.696
31.56000 1764.363
31.73000 579.133
31.90000 445.756
32.07000 409.767
32.24000 407.185
32.41000 392.094
32.58000 380.930
32.75000 387.262
32.92000 451.696
33.09000 420.844
33.26000 358.795
33.43000 359.203
33.60000 354.686
33.77000 341.483
33.94000 337.062
34.11000 333.092
34.28000 326.377
34.45000 338.169
34.62000 324.390
34.79000 314.810
34.96000 329.196
35.13000 315.746
35.30000 312.313
35.47000 320.642
35.64000 324.395
35.81000 321.540
35.98000 298.484
36.15000 304.544
36.32000 308.244
36.49000 295.474
36.66000 298.592
36.83000 304.081
37.00000 305.855
37.17000 303.513
37.34000 305.545
37.51000 286.245
37.68000 304.145
37.85000 287.279
38.02000 311.332
38.19000 297.044
38.36000 334.436
38.53000 499.768
38.70000 801.533
38.87000 576.198
39.04000 326.412
39.21000 287.336
39.38000 280.285
39.55000 273.993
39.72000 280.929
39.89000 270.788
40.06000 264.047
40.23000 254.548
40.40000 259.610
40.57000 261.253
40.74000 255.669
40.91000 252.356
41.08000 254.520
41.25000 256.163
41.42000 246.566
41.59000 238.479
41.76000 237.118
41.93000 250.390
42.10000 224.874
42.27000 233.855
42.44000 227.142
42.61000 226.479
42.78000 237.382
42.95000 223.669
43.12000 213.631
43.29000 235.048
43.46000 221.774
43.63000 228.064
43.80000 209.908
43.97000 229.058
44.14000 225.599
44.31000 228.954
44.48000 228.292
44.65000 239.200
44.82000 294.207
44.99000 404.926
45.16000 386.425
45.33000 295.621
45.50000 240.000
45.67000 212.261
45.84000 220.789
46.01000 215.462
46.18000 214.311
46.35000 206.182
46.52000 215.138
46.69000 201.658
46.86000 201.266
47.03000 207.718
47.20000 186.873
47.37000 190.507
47.54000 193.492
47.71000 196.753
47.88000 183.889
48.05000 190.076
48.22000 194.870
48.39000 180.013
48.56000 185.059
48.73000 177.888
48.90000 180.624
49.07000 181.379
49.24000 176.906
49.41000 183.350
49.58000 179.839
49.75000 167.434
49.92000 177.413
50.09000 179.032
50.26000 197.345
50.43000 198.781
50.60000 269.919
50.77000 276.394
50.94000 224.987
51.11000 184.064
51.28000 177.541
51.45000 176.710
51.62000 150.719
51.79000 159.257
51.96000 160.475
52.13000 160.955
52.30000 158.514
52.47000 168.816
52.64000 156.793
52.81000 159.495
52.98000 151.584
53.15000 161.909
53.32000 172.994
53.49000 165.001
53.66000 158.451
53.83000 159.004
54.00000 160.316
54.17000 155.934
54.34000 158.097
54.51000 161.667
54.68000 161.064
54.85000 154.603
55.02000 150.872
55.19000 160.871
55.36000 171.029
55.53000 202.602
55.70000 353.598
55.87000 637.011
56.04000 600.283
56.21000 325.922
56.38000 189.711
56.55000 153.717
56.72000 159.072
56.89000 154.459
57.06000 136.807
57.23000 151.705
57.40000 142.838
57.57000 152.156
57.74000 141.081
57.91000 148.472
58.08000 143.804
58.25000 150.077
58.42000 136.516
58.59000 140.212
58.76000 137.624
58.93000 143.536
59.10000 139.467
59.27000 131.451
59.44000 130.205
59.61000 142.676
59.78000 144.542
59.95000 135.810
60.12000 132.722
60.29000 132.879
60.46000 138.876
60.63000 134.113
60.80000 143.872
60.97000 132.993
61.14000 146.494
61.31000 143.366
61.48000 145.842
61.65000 303.387
61.82000 202.243
61.99000 141.677
62.16000 138.360
62.33000 129.773
62.50000 151.928
62.67000 142.302
62.84000 147.646
63.01000 144.200
63.18000 153.493
63.35000 142.592
63.52000 146.962
63.69000 154.596
63.86000 150.482
64.03000 171.177
64.20000 162.851
64.37000 172.294
64.54000 167.262
64.71000 177.531
64.88000 186.121
65.05000 215.243
65.22000 266.453
65.39000 359.922
65.56000 471.633
65.73000 940.510
65.90000 1320.780
66.07000 395.563
66.24000 350.750
66.41000 507.407
66.58000 360.193
66.75000 328.853
66.92000 358.485
67.09000 392.777
67.26000 404.248
67.43000 458.819
67.60000 480.163
67.77000 513.119
67.94000 560.700
68.11000 609.053
68.28000 687.628
68.45000 825.749
68.62000 1284.569
68.79000 2393.537
68.96000 23546.605
69.13000 78186.805
69.30000 43397.242
69.47000 8179.525
69.64000 1402.234
69.81000 938.035
69.98000 782.140
70.00000 761.590