File: XRD/30-09-2025 Dep 1/XY Data/BTO_Mapping_Theta2Theta_30-09-2025_001_16_9-271_28-532.xy
20.00000 571.452
20.17000 545.447
20.34000 545.609
20.51000 572.139
20.68000 541.346
20.85000 567.506
21.02000 539.143
21.19000 560.846
21.36000 531.259
21.53000 546.138
21.70000 560.176
21.87000 586.709
22.04000 641.380
22.21000 622.889
22.38000 548.701
22.55000 506.236
22.72000 542.052
22.89000 522.927
23.06000 517.379
23.23000 515.289
23.40000 519.569
23.57000 499.094
23.74000 519.922
23.91000 540.377
24.08000 526.309
24.25000 515.493
24.42000 489.172
24.59000 494.275
24.76000 480.913
24.93000 472.053
25.10000 496.881
25.27000 473.176
25.44000 477.390
25.61000 448.798
25.78000 464.971
25.95000 456.964
26.12000 455.823
26.29000 456.020
26.46000 459.921
26.63000 459.119
26.80000 453.445
26.97000 439.967
27.14000 434.652
27.31000 460.098
27.48000 441.921
27.65000 458.050
27.82000 433.978
27.99000 448.766
28.16000 426.792
28.33000 444.353
28.50000 423.982
28.67000 419.121
28.84000 418.403
29.01000 413.954
29.18000 397.676
29.35000 389.008
29.52000 414.353
29.69000 418.286
29.86000 425.160
30.03000 434.599
30.20000 422.304
30.37000 410.156
30.54000 424.329
30.71000 424.843
30.88000 433.719
31.05000 551.695
31.22000 1269.430
31.39000 2358.501
31.56000 1341.658
31.73000 550.484
31.90000 436.807
32.07000 409.409
32.24000 389.269
32.41000 396.691
32.58000 361.316
32.75000 368.269
32.92000 371.501
33.09000 371.202
33.26000 342.912
33.43000 350.630
33.60000 327.669
33.77000 347.917
33.94000 366.194
34.11000 363.898
34.28000 358.271
34.45000 369.487
34.62000 348.604
34.79000 355.786
34.96000 338.307
35.13000 321.321
35.30000 318.926
35.47000 306.987
35.64000 307.365
35.81000 311.685
35.98000 315.283
36.15000 291.958
36.32000 296.941
36.49000 304.711
36.66000 315.628
36.83000 314.465
37.00000 323.869
37.17000 317.358
37.34000 299.193
37.51000 294.458
37.68000 297.995
37.85000 287.127
38.02000 286.142
38.19000 312.267
38.36000 339.286
38.53000 576.200
38.70000 1132.852
38.87000 891.710
39.04000 386.951
39.21000 296.024
39.38000 284.494
39.55000 275.480
39.72000 262.492
39.89000 275.583
40.06000 265.565
40.23000 264.276
40.40000 270.103
40.57000 268.618
40.74000 241.864
40.91000 241.435
41.08000 248.539
41.25000 239.483
41.42000 249.888
41.59000 246.232
41.76000 240.109
41.93000 244.273
42.10000 242.558
42.27000 237.501
42.44000 242.007
42.61000 246.438
42.78000 241.302
42.95000 234.746
43.12000 225.745
43.29000 221.695
43.46000 226.230
43.63000 225.743
43.80000 215.319
43.97000 226.264
44.14000 219.234
44.31000 223.135
44.48000 226.344
44.65000 225.659
44.82000 240.282
44.99000 295.995
45.16000 303.091
45.33000 266.075
45.50000 222.031
45.67000 224.446
45.84000 222.727
46.01000 208.022
46.18000 203.331
46.35000 207.689
46.52000 197.903
46.69000 202.077
46.86000 200.466
47.03000 193.615
47.20000 188.083
47.37000 197.389
47.54000 190.795
47.71000 189.838
47.88000 175.892
48.05000 187.162
48.22000 183.203
48.39000 176.341
48.56000 176.196
48.73000 182.703
48.90000 189.127
49.07000 185.216
49.24000 177.363
49.41000 184.210
49.58000 169.453
49.75000 187.138
49.92000 178.908
50.09000 191.672
50.26000 188.148
50.43000 177.061
50.60000 223.586
50.77000 219.301
50.94000 212.164
51.11000 190.613
51.28000 172.735
51.45000 169.126
51.62000 160.380
51.79000 161.107
51.96000 162.372
52.13000 154.145
52.30000 158.519
52.47000 165.486
52.64000 161.677
52.81000 154.474
52.98000 160.127
53.15000 171.389
53.32000 165.800
53.49000 154.323
53.66000 159.369
53.83000 165.065
54.00000 162.200
54.17000 166.055
54.34000 147.683
54.51000 156.888
54.68000 151.977
54.85000 157.124
55.02000 150.818
55.19000 174.676
55.36000 162.559
55.53000 191.723
55.70000 294.251
55.87000 563.571
56.04000 571.034
56.21000 361.561
56.38000 190.318
56.55000 161.438
56.72000 149.750
56.89000 152.161
57.06000 143.993
57.23000 152.823
57.40000 138.650
57.57000 138.468
57.74000 152.435
57.91000 141.362
58.08000 133.653
58.25000 137.505
58.42000 145.566
58.59000 139.067
58.76000 130.794
58.93000 131.218
59.10000 137.082
59.27000 129.915
59.44000 141.299
59.61000 136.387
59.78000 140.948
59.95000 137.286
60.12000 131.523
60.29000 136.377
60.46000 135.524
60.63000 128.492
60.80000 119.787
60.97000 134.207
61.14000 133.749
61.31000 143.083
61.48000 140.500
61.65000 240.660
61.82000 183.956
61.99000 140.195
62.16000 135.631
62.33000 129.520
62.50000 137.148
62.67000 147.091
62.84000 141.456
63.01000 134.188
63.18000 145.806
63.35000 138.631
63.52000 143.703
63.69000 153.435
63.86000 151.569
64.03000 154.372
64.20000 150.231
64.37000 151.306
64.54000 171.760
64.71000 168.348
64.88000 178.440
65.05000 201.002
65.22000 220.495
65.39000 263.875
65.56000 324.924
65.73000 553.275
65.90000 901.593
66.07000 333.848
66.24000 289.305
66.41000 393.294
66.58000 308.762
66.75000 289.925
66.92000 327.000
67.09000 333.379
67.26000 350.504
67.43000 382.430
67.60000 416.660
67.77000 446.156
67.94000 462.221
68.11000 520.859
68.28000 570.442
68.45000 676.174
68.62000 893.955
68.79000 1640.266
68.96000 9635.925
69.13000 47733.707
69.30000 28156.402
69.47000 6708.283
69.64000 1101.235
69.81000 783.129
69.98000 643.408
70.00000 651.782