File: XRD/30-09-2025 Dep 1/XY Data/BTO_Mapping_Theta2Theta_30-09-2025_001_31_-19-563_4-158.xy
20.00000 547.521
20.17000 570.878
20.34000 571.034
20.51000 542.261
20.68000 541.898
20.85000 550.202
21.02000 555.189
21.19000 539.764
21.36000 551.569
21.53000 533.835
21.70000 566.432
21.87000 593.078
22.04000 662.843
22.21000 640.899
22.38000 555.743
22.55000 526.487
22.72000 513.463
22.89000 516.921
23.06000 520.725
23.23000 510.469
23.40000 514.077
23.57000 508.599
23.74000 500.477
23.91000 497.577
24.08000 515.684
24.25000 527.886
24.42000 505.226
24.59000 504.393
24.76000 486.072
24.93000 482.284
25.10000 471.124
25.27000 468.263
25.44000 478.613
25.61000 467.169
25.78000 462.397
25.95000 460.504
26.12000 458.663
26.29000 471.285
26.46000 452.636
26.63000 435.932
26.80000 446.762
26.97000 433.090
27.14000 458.907
27.31000 446.652
27.48000 433.946
27.65000 450.491
27.82000 447.973
27.99000 425.330
28.16000 438.782
28.33000 451.298
28.50000 441.754
28.67000 422.117
28.84000 436.205
29.01000 413.861
29.18000 412.236
29.35000 413.614
29.52000 399.785
29.69000 409.341
29.86000 427.680
30.03000 437.957
30.20000 432.740
30.37000 417.015
30.54000 413.233
30.71000 448.316
30.88000 445.944
31.05000 590.824
31.22000 1549.673
31.39000 3368.646
31.56000 1924.798
31.73000 603.496
31.90000 442.455
32.07000 417.658
32.24000 394.285
32.41000 406.643
32.58000 389.069
32.75000 382.204
32.92000 377.759
33.09000 381.350
33.26000 350.659
33.43000 342.186
33.60000 343.072
33.77000 331.060
33.94000 332.185
34.11000 338.253
34.28000 336.046
34.45000 349.764
34.62000 346.223
34.79000 338.543
34.96000 309.631
35.13000 325.997
35.30000 322.493
35.47000 302.680
35.64000 311.351
35.81000 304.190
35.98000 286.722
36.15000 313.472
36.32000 302.089
36.49000 306.562
36.66000 300.770
36.83000 306.414
37.00000 303.353
37.17000 294.457
37.34000 288.496
37.51000 277.026
37.68000 302.726
37.85000 310.447
38.02000 302.800
38.19000 287.661
38.36000 325.569
38.53000 472.087
38.70000 897.373
38.87000 740.596
39.04000 379.096
39.21000 286.865
39.38000 293.877
39.55000 275.922
39.72000 276.634
39.89000 261.668
40.06000 259.933
40.23000 259.500
40.40000 245.936
40.57000 274.437
40.74000 250.554
40.91000 248.975
41.08000 248.184
41.25000 245.311
41.42000 249.252
41.59000 240.735
41.76000 242.655
41.93000 236.954
42.10000 236.641
42.27000 228.787
42.44000 235.884
42.61000 236.431
42.78000 245.937
42.95000 238.809
43.12000 235.440
43.29000 225.782
43.46000 216.245
43.63000 228.433
43.80000 227.209
43.97000 221.576
44.14000 226.918
44.31000 226.713
44.48000 224.188
44.65000 249.081
44.82000 255.559
44.99000 316.209
45.16000 368.213
45.33000 287.542
45.50000 238.743
45.67000 226.387
45.84000 222.234
46.01000 204.033
46.18000 209.728
46.35000 207.293
46.52000 212.942
46.69000 212.071
46.86000 188.844
47.03000 196.906
47.20000 197.293
47.37000 192.750
47.54000 184.145
47.71000 195.381
47.88000 198.471
48.05000 182.047
48.22000 174.970
48.39000 181.794
48.56000 190.672
48.73000 184.189
48.90000 179.424
49.07000 181.609
49.24000 177.661
49.41000 185.948
49.58000 181.075
49.75000 186.487
49.92000 154.216
50.09000 171.197
50.26000 177.346
50.43000 198.800
50.60000 238.326
50.77000 256.010
50.94000 212.998
51.11000 178.978
51.28000 179.318
51.45000 168.599
51.62000 167.038
51.79000 168.901
51.96000 156.344
52.13000 168.875
52.30000 167.683
52.47000 162.432
52.64000 164.742
52.81000 152.023
52.98000 171.098
53.15000 160.491
53.32000 160.224
53.49000 167.200
53.66000 146.362
53.83000 169.627
54.00000 150.841
54.17000 158.969
54.34000 149.130
54.51000 160.130
54.68000 155.125
54.85000 145.854
55.02000 156.513
55.19000 166.181
55.36000 169.754
55.53000 188.445
55.70000 297.807
55.87000 565.101
56.04000 618.486
56.21000 355.150
56.38000 199.491
56.55000 163.208
56.72000 156.543
56.89000 166.224
57.06000 145.334
57.23000 141.937
57.40000 146.734
57.57000 137.653
57.74000 140.528
57.91000 134.744
58.08000 134.698
58.25000 133.225
58.42000 133.589
58.59000 139.761
58.76000 146.044
58.93000 141.416
59.10000 137.301
59.27000 143.543
59.44000 132.593
59.61000 133.762
59.78000 131.111
59.95000 132.692
60.12000 132.772
60.29000 138.251
60.46000 138.057
60.63000 130.227
60.80000 144.639
60.97000 136.682
61.14000 130.364
61.31000 137.897
61.48000 137.406
61.65000 237.835
61.82000 185.666
61.99000 131.445
62.16000 135.120
62.33000 135.156
62.50000 138.074
62.67000 138.924
62.84000 138.962
63.01000 140.480
63.18000 148.626
63.35000 141.675
63.52000 151.695
63.69000 147.025
63.86000 151.966
64.03000 159.114
64.20000 154.999
64.37000 165.068
64.54000 161.936
64.71000 173.089
64.88000 180.964
65.05000 200.824
65.22000 236.724
65.39000 316.062
65.56000 382.791
65.73000 558.536
65.90000 922.740
66.07000 363.056
66.24000 289.690
66.41000 392.550
66.58000 340.039
66.75000 289.158
66.92000 322.454
67.09000 331.473
67.26000 350.159
67.43000 387.996
67.60000 403.695
67.77000 427.783
67.94000 482.808
68.11000 523.260
68.28000 567.568
68.45000 670.802
68.62000 869.416
68.79000 1580.984
68.96000 6867.104
69.13000 47518.730
69.30000 30633.074
69.47000 8871.423
69.64000 1161.953
69.81000 789.537
69.98000 649.404
70.00000 649.387