File: XRD/30-09-2025 Dep 1/XY Data/BTO_Mapping_Theta2Theta_30-09-2025_001_59_18-271_-8-135.xy
20.00000 551.255
20.17000 579.303
20.34000 558.235
20.51000 570.559
20.68000 555.158
20.85000 552.344
21.02000 552.385
21.19000 565.672
21.36000 539.167
21.53000 555.992
21.70000 585.974
21.87000 753.866
22.04000 880.795
22.21000 674.836
22.38000 560.616
22.55000 535.256
22.72000 528.313
22.89000 523.974
23.06000 509.494
23.23000 505.234
23.40000 516.506
23.57000 511.431
23.74000 508.629
23.91000 512.157
24.08000 510.573
24.25000 495.996
24.42000 475.737
24.59000 492.590
24.76000 481.449
24.93000 497.487
25.10000 474.577
25.27000 486.439
25.44000 471.533
25.61000 478.593
25.78000 464.107
25.95000 459.104
26.12000 455.112
26.29000 464.808
26.46000 448.949
26.63000 445.198
26.80000 450.109
26.97000 451.485
27.14000 456.891
27.31000 449.242
27.48000 443.335
27.65000 448.203
27.82000 436.805
27.99000 442.244
28.16000 444.277
28.33000 430.491
28.50000 439.469
28.67000 434.181
28.84000 440.306
29.01000 431.229
29.18000 415.025
29.35000 444.273
29.52000 425.037
29.69000 448.550
29.86000 462.672
30.03000 454.318
30.20000 446.696
30.37000 443.079
30.54000 439.684
30.71000 487.904
30.88000 504.673
31.05000 827.262
31.22000 2758.300
31.39000 3997.745
31.56000 1456.078
31.73000 548.692
31.90000 441.828
32.07000 439.229
32.24000 401.149
32.41000 420.677
32.58000 376.748
32.75000 391.868
32.92000 475.216
33.09000 446.181
33.26000 348.758
33.43000 354.145
33.60000 351.135
33.77000 334.389
33.94000 341.486
34.11000 321.529
34.28000 332.013
34.45000 324.923
34.62000 341.930
34.79000 334.554
34.96000 315.301
35.13000 316.574
35.30000 307.465
35.47000 323.563
35.64000 315.761
35.81000 326.976
35.98000 305.155
36.15000 309.247
36.32000 303.182
36.49000 312.921
36.66000 301.636
36.83000 305.534
37.00000 307.791
37.17000 317.006
37.34000 278.870
37.51000 298.393
37.68000 296.386
37.85000 301.529
38.02000 292.793
38.19000 297.581
38.36000 353.809
38.53000 498.343
38.70000 705.900
38.87000 457.731
39.04000 326.381
39.21000 277.906
39.38000 290.375
39.55000 268.720
39.72000 271.322
39.89000 261.777
40.06000 271.207
40.23000 268.881
40.40000 256.338
40.57000 254.923
40.74000 247.401
40.91000 245.759
41.08000 249.033
41.25000 249.957
41.42000 248.937
41.59000 237.999
41.76000 242.841
41.93000 244.627
42.10000 233.044
42.27000 257.099
42.44000 241.262
42.61000 225.020
42.78000 234.565
42.95000 232.674
43.12000 232.738
43.29000 236.432
43.46000 235.853
43.63000 220.515
43.80000 226.597
43.97000 239.779
44.14000 246.420
44.31000 221.084
44.48000 224.537
44.65000 275.262
44.82000 372.198
44.99000 509.655
45.16000 421.740
45.33000 288.328
45.50000 242.630
45.67000 230.096
45.84000 227.088
46.01000 210.451
46.18000 213.322
46.35000 219.198
46.52000 207.450
46.69000 200.113
46.86000 213.565
47.03000 196.418
47.20000 199.231
47.37000 203.311
47.54000 188.631
47.71000 187.212
47.88000 195.776
48.05000 201.635
48.22000 177.006
48.39000 175.405
48.56000 178.843
48.73000 178.040
48.90000 181.022
49.07000 184.210
49.24000 186.448
49.41000 179.845
49.58000 184.156
49.75000 172.140
49.92000 194.452
50.09000 178.601
50.26000 189.175
50.43000 232.745
50.60000 292.012
50.77000 271.633
50.94000 210.997
51.11000 176.230
51.28000 176.065
51.45000 171.722
51.62000 163.655
51.79000 162.302
51.96000 169.034
52.13000 168.107
52.30000 158.206
52.47000 167.100
52.64000 154.212
52.81000 169.145
52.98000 162.339
53.15000 165.949
53.32000 153.863
53.49000 171.258
53.66000 154.743
53.83000 159.257
54.00000 168.293
54.17000 162.493
54.34000 143.738
54.51000 159.602
54.68000 154.996
54.85000 157.541
55.02000 170.814
55.19000 160.599
55.36000 167.715
55.53000 221.835
55.70000 416.700
55.87000 673.826
56.04000 547.435
56.21000 275.320
56.38000 179.850
56.55000 159.591
56.72000 156.668
56.89000 149.148
57.06000 152.863
57.23000 150.707
57.40000 142.965
57.57000 146.104
57.74000 150.535
57.91000 145.943
58.08000 139.245
58.25000 140.946
58.42000 134.439
58.59000 141.771
58.76000 134.589
58.93000 142.704
59.10000 135.296
59.27000 132.481
59.44000 135.926
59.61000 137.192
59.78000 139.872
59.95000 144.292
60.12000 136.700
60.29000 132.049
60.46000 134.342
60.63000 129.391
60.80000 137.904
60.97000 137.625
61.14000 144.599
61.31000 141.639
61.48000 158.777
61.65000 329.448
61.82000 209.104
61.99000 137.733
62.16000 136.714
62.33000 151.687
62.50000 145.344
62.67000 150.679
62.84000 143.686
63.01000 153.212
63.18000 150.430
63.35000 149.963
63.52000 156.149
63.69000 161.448
63.86000 161.903
64.03000 167.312
64.20000 155.331
64.37000 167.030
64.54000 173.172
64.71000 185.546
64.88000 181.277
65.05000 219.991
65.22000 275.385
65.39000 405.182
65.56000 493.751
65.73000 865.966
65.90000 1356.567
66.07000 398.347
66.24000 345.600
66.41000 516.803
66.58000 368.620
66.75000 336.988
66.92000 362.861
67.09000 387.330
67.26000 422.109
67.43000 447.156
67.60000 482.789
67.77000 534.685
67.94000 576.881
68.11000 601.538
68.28000 691.339
68.45000 844.986
68.62000 1202.513
68.79000 2364.372
68.96000 20639.027
69.13000 80588.742
69.30000 46239.742
69.47000 9773.366
69.64000 1455.722
69.81000 960.556
69.98000 789.472
70.00000 787.288