File: XRD/30-09-2025 Dep 1/XY Data/BTO_Mapping_Theta2Theta_30-09-2025_001_09_36-542_16-269.xy
20.00000 605.223
20.17000 558.975
20.34000 572.842
20.51000 561.326
20.68000 553.875
20.85000 551.927
21.02000 554.956
21.19000 544.709
21.36000 538.220
21.53000 569.299
21.70000 567.724
21.87000 590.523
22.04000 679.333
22.21000 637.022
22.38000 560.818
22.55000 530.773
22.72000 509.320
22.89000 536.556
23.06000 504.101
23.23000 498.217
23.40000 526.320
23.57000 501.527
23.74000 506.915
23.91000 510.249
24.08000 512.296
24.25000 494.060
24.42000 492.756
24.59000 510.934
24.76000 502.723
24.93000 468.102
25.10000 484.896
25.27000 473.197
25.44000 453.198
25.61000 469.529
25.78000 478.158
25.95000 448.272
26.12000 463.632
26.29000 467.942
26.46000 455.319
26.63000 447.929
26.80000 464.857
26.97000 426.498
27.14000 428.250
27.31000 446.538
27.48000 446.935
27.65000 450.844
27.82000 439.542
27.99000 442.422
28.16000 420.491
28.33000 419.188
28.50000 428.004
28.67000 416.342
28.84000 413.705
29.01000 425.258
29.18000 413.394
29.35000 405.856
29.52000 404.365
29.69000 417.716
29.86000 429.449
30.03000 442.539
30.20000 435.921
30.37000 414.601
30.54000 411.914
30.71000 439.770
30.88000 448.695
31.05000 656.150
31.22000 1775.137
31.39000 3512.105
31.56000 1765.308
31.73000 570.090
31.90000 439.978
32.07000 423.468
32.24000 405.514
32.41000 387.669
32.58000 390.658
32.75000 371.701
32.92000 396.317
33.09000 409.127
33.26000 342.759
33.43000 348.033
33.60000 336.844
33.77000 351.795
33.94000 340.629
34.11000 333.081
34.28000 358.523
34.45000 354.599
34.62000 325.620
34.79000 330.827
34.96000 329.018
35.13000 318.104
35.30000 306.076
35.47000 322.191
35.64000 311.095
35.81000 303.929
35.98000 314.395
36.15000 289.485
36.32000 298.196
36.49000 292.388
36.66000 299.498
36.83000 295.048
37.00000 310.239
37.17000 310.862
37.34000 290.347
37.51000 286.438
37.68000 287.248
37.85000 288.672
38.02000 294.811
38.19000 314.097
38.36000 337.405
38.53000 500.257
38.70000 935.532
38.87000 703.504
39.04000 344.420
39.21000 293.420
39.38000 284.285
39.55000 257.895
39.72000 281.763
39.89000 265.758
40.06000 258.540
40.23000 268.835
40.40000 246.979
40.57000 273.324
40.74000 232.220
40.91000 256.402
41.08000 247.380
41.25000 246.230
41.42000 237.046
41.59000 234.631
41.76000 232.147
41.93000 258.014
42.10000 234.579
42.27000 234.504
42.44000 244.060
42.61000 240.331
42.78000 220.419
42.95000 232.132
43.12000 231.239
43.29000 211.209
43.46000 233.350
43.63000 220.911
43.80000 240.828
43.97000 231.338
44.14000 220.146
44.31000 225.758
44.48000 228.081
44.65000 229.718
44.82000 259.410
44.99000 296.044
45.16000 329.564
45.33000 293.447
45.50000 243.765
45.67000 227.639
45.84000 209.073
46.01000 205.350
46.18000 205.549
46.35000 197.861
46.52000 199.909
46.69000 202.785
46.86000 188.780
47.03000 192.301
47.20000 201.105
47.37000 195.072
47.54000 188.253
47.71000 198.480
47.88000 181.797
48.05000 189.801
48.22000 193.386
48.39000 169.582
48.56000 177.251
48.73000 190.255
48.90000 188.351
49.07000 179.702
49.24000 175.240
49.41000 180.375
49.58000 169.460
49.75000 181.653
49.92000 176.887
50.09000 173.953
50.26000 192.918
50.43000 201.863
50.60000 239.733
50.77000 263.782
50.94000 210.890
51.11000 189.238
51.28000 168.148
51.45000 164.953
51.62000 163.845
51.79000 161.633
51.96000 164.577
52.13000 161.313
52.30000 162.272
52.47000 157.637
52.64000 153.320
52.81000 144.134
52.98000 149.112
53.15000 153.372
53.32000 162.089
53.49000 159.923
53.66000 158.670
53.83000 154.258
54.00000 156.440
54.17000 153.314
54.34000 154.706
54.51000 155.170
54.68000 155.052
54.85000 160.130
55.02000 152.309
55.19000 152.988
55.36000 178.209
55.53000 204.083
55.70000 297.870
55.87000 571.009
56.04000 629.808
56.21000 367.156
56.38000 198.839
56.55000 184.164
56.72000 163.411
56.89000 155.625
57.06000 155.989
57.23000 137.044
57.40000 142.785
57.57000 152.366
57.74000 150.861
57.91000 136.883
58.08000 138.542
58.25000 143.147
58.42000 132.875
58.59000 140.597
58.76000 141.053
58.93000 134.735
59.10000 138.150
59.27000 146.139
59.44000 145.740
59.61000 133.759
59.78000 134.773
59.95000 133.180
60.12000 143.724
60.29000 133.050
60.46000 132.515
60.63000 128.959
60.80000 137.228
60.97000 131.222
61.14000 142.717
61.31000 139.110
61.48000 146.557
61.65000 285.237
61.82000 186.539
61.99000 131.018
62.16000 142.468
62.33000 136.163
62.50000 152.019
62.67000 147.046
62.84000 131.375
63.01000 151.015
63.18000 144.493
63.35000 145.474
63.52000 153.121
63.69000 154.916
63.86000 154.226
64.03000 148.420
64.20000 165.016
64.37000 171.574
64.54000 168.718
64.71000 186.597
64.88000 183.327
65.05000 196.157
65.22000 238.159
65.39000 319.529
65.56000 427.639
65.73000 754.435
65.90000 1113.167
66.07000 357.414
66.24000 306.398
66.41000 431.107
66.58000 346.436
66.75000 312.617
66.92000 322.253
67.09000 351.495
67.26000 396.849
67.43000 404.886
67.60000 437.503
67.77000 468.099
67.94000 499.326
68.11000 571.633
68.28000 619.804
68.45000 732.322
68.62000 1055.012
68.79000 1932.151
68.96000 15912.563
69.13000 60776.738
69.30000 33746.680
69.47000 6694.573
69.64000 1249.718
69.81000 864.669
69.98000 688.814
70.00000 675.095