File: XRD/Grazing Incidence/XY Data/Dilan_Full_Stack_Training_3_grazing_incidience_Map_001_1_0-000_0-000.xy
30.00000 22.627
30.06000 23.006
30.12000 15.638
30.18000 17.862
30.24000 20.981
30.30000 12.785
30.36000 17.936
30.42000 13.687
30.48000 19.584
30.54000 21.982
30.60000 20.901
30.66000 18.295
30.72000 22.057
30.78000 20.163
30.84000 24.433
30.90000 42.067
30.96000 39.714
31.02000 63.247
31.08000 79.653
31.14000 125.197
31.20000 210.813
31.26000 359.743
31.32000 513.820
31.38000 729.889
31.44000 760.608
31.50000 706.237
31.56000 546.019
31.62000 358.173
31.68000 224.522
31.74000 109.104
31.80000 71.326
31.86000 30.348
31.92000 25.364
31.98000 28.582
32.04000 17.439
32.10000 23.324
32.16000 10.604
32.22000 17.647
32.28000 10.786
32.34000 13.593
32.40000 13.548
32.46000 16.328
32.52000 8.147
32.58000 9.288
32.64000 11.218
32.70000 7.548
32.76000 5.635
32.82000 7.380
32.88000 10.130
32.94000 13.043
33.00000 8.073
33.06000 9.132
33.12000 16.634
33.18000 6.404
33.24000 15.143
33.30000 8.562
33.36000 10.151
33.42000 7.103
33.48000 8.042
33.54000 4.008
33.60000 7.008
33.66000 8.088
33.72000 14.422
33.78000 4.343
33.84000 5.863
33.90000 3.998
33.96000 11.129
34.02000 6.031
34.08000 9.530
34.14000 7.369
34.20000 6.491
34.26000 11.220
34.32000 11.088
34.38000 9.146
34.44000 7.033
34.50000 5.076
34.56000 8.144
34.62000 2.415
34.68000 12.512
34.74000 5.128
34.80000 9.026
34.86000 8.463
34.92000 2.017
34.98000 5.338
35.04000 5.013
35.10000 5.134
35.16000 5.085
35.22000 4.091
35.28000 9.043
35.34000 8.568
35.40000 4.306
35.46000 10.180
35.52000 6.191
35.58000 4.099
35.64000 5.462
35.70000 4.948
35.76000 9.197
35.82000 5.354
35.88000 5.515
35.94000 6.114
36.00000 9.088
36.06000 7.428
36.12000 5.129
36.18000 3.022
36.24000 4.791
36.30000 4.060
36.36000 2.028
36.42000 4.091
36.48000 10.231
36.54000 10.211
36.60000 10.082
36.66000 6.059
36.72000 4.015
36.78000 7.230
36.84000 5.019
36.90000 10.103
36.96000 7.174
37.02000 7.094
37.08000 3.088
37.14000 6.256
37.20000 9.179
37.26000 9.037
37.32000 4.144
37.38000 7.104
37.44000 10.614
37.50000 5.106
37.56000 5.211
37.62000 4.428
37.68000 7.044
37.74000 4.709
37.80000 10.107
37.86000 8.175
37.92000 4.034
37.98000 9.496
38.04000 3.415
38.10000 8.407
38.16000 9.638
38.22000 8.514
38.28000 6.866
38.34000 11.185
38.40000 9.176
38.46000 11.958
38.52000 28.763
38.58000 40.381
38.64000 46.871
38.70000 58.461
38.76000 67.690
38.82000 76.982
38.88000 65.352
38.94000 41.149
39.00000 33.572
39.06000 23.455
39.12000 10.759
39.18000 9.152
39.24000 5.077
39.30000 8.496
39.36000 4.793
39.42000 5.086
39.48000 4.102
39.54000 6.061
39.60000 7.460
39.66000 3.090
39.72000 5.097
39.78000 12.431
39.84000 6.357
39.90000 2.055
39.96000 4.358
40.02000 8.134
40.08000 3.062
40.14000 11.450
40.20000 3.020
40.26000 3.064
40.32000 5.424
40.38000 6.043
40.44000 10.227
40.50000 7.120
40.56000 3.083
40.62000 2.363
40.68000 6.051
40.74000 5.534
40.80000 4.632
40.86000 4.367
40.92000 3.385
40.98000 7.053
41.04000 7.121
41.10000 5.042
41.16000 5.044
41.22000 1.990
41.28000 2.011
41.34000 3.050
41.40000 1.029
41.46000 6.045
41.52000 3.012
41.58000 5.399
41.64000 4.021
41.70000 3.645
41.76000 3.113
41.82000 6.134
41.88000 6.069
41.94000 5.106
42.00000 2.045
42.06000 5.022
42.12000 11.162
42.18000 7.054
42.24000 6.208
42.30000 6.522
42.36000 2.043
42.42000 4.117
42.48000 3.014
42.54000 11.349
42.60000 5.357
42.66000 8.670
42.72000 1.326
42.78000 3.009
42.84000 6.220
42.90000 5.423
42.96000 3.045
43.02000 4.093
43.08000 7.123
43.14000 8.059
43.20000 3.986
43.26000 9.119
43.32000 4.072
43.38000 3.113
43.44000 4.339
43.50000 3.386
43.56000 4.111
43.62000 1.003
43.68000 5.369
43.74000 3.446
43.80000 5.047
43.86000 4.458
43.92000 6.025
43.98000 5.347
44.04000 3.111
44.10000 1.015
44.16000 5.347
44.22000 5.432
44.28000 5.761
44.34000 11.020
44.40000 11.340
44.46000 12.255
44.52000 13.573
44.58000 16.574
44.64000 15.535
44.70000 20.393
44.76000 39.017
44.82000 55.356
44.88000 73.754
44.94000 103.128
45.00000 112.288
45.06000 130.375
45.12000 149.905
45.18000 122.284
45.24000 93.886
45.30000 63.334
45.36000 39.912
45.42000 19.265
45.48000 12.840
45.54000 11.397
45.60000 12.529
45.66000 9.860
45.72000 8.429
45.78000 6.357
45.84000 7.101
45.90000 8.373
45.96000 6.164
46.02000 3.052
46.08000 6.120
46.14000 6.166
46.20000 5.026
46.26000 2.336
46.32000 3.094
46.38000 4.074
46.44000 7.166
46.50000 4.094
46.56000 1.063
46.62000 0.985
46.68000 6.170
46.74000 5.866
46.80000 8.251
46.86000 4.104
46.92000 2.059
46.98000 4.051
47.00000 0.000