File: XRD/Grazing Incidence/XY Data/Dilan_Full_Stack_Training_3_grazing_incidience_Map_001_2_30-000_0-000.xy
30.00000 17.449
30.06000 17.554
30.12000 16.276
30.18000 22.311
30.24000 7.503
30.30000 18.379
30.36000 15.683
30.42000 13.482
30.48000 17.520
30.54000 18.589
30.60000 16.937
30.66000 14.224
30.72000 19.300
30.78000 19.028
30.84000 23.847
30.90000 24.092
30.96000 29.663
31.02000 36.167
31.08000 42.318
31.14000 69.586
31.20000 98.366
31.26000 199.795
31.32000 287.649
31.38000 359.721
31.44000 415.786
31.50000 462.850
31.56000 364.025
31.62000 295.562
31.68000 179.801
31.74000 104.785
31.80000 48.469
31.86000 37.900
31.92000 25.122
31.98000 12.684
32.04000 21.417
32.10000 14.910
32.16000 14.894
32.22000 12.303
32.28000 13.239
32.34000 10.474
32.40000 11.193
32.46000 12.579
32.52000 7.146
32.58000 11.538
32.64000 10.092
32.70000 8.802
32.76000 13.185
32.82000 11.914
32.88000 6.092
32.94000 11.283
33.00000 7.745
33.06000 9.172
33.12000 4.376
33.18000 11.707
33.24000 8.080
33.30000 7.446
33.36000 12.231
33.42000 8.420
33.48000 9.306
33.54000 9.354
33.60000 10.862
33.66000 4.124
33.72000 3.813
33.78000 5.107
33.84000 6.109
33.90000 8.140
33.96000 8.387
34.02000 5.406
34.08000 7.155
34.14000 10.083
34.20000 5.450
34.26000 8.153
34.32000 16.036
34.38000 3.372
34.44000 8.156
34.50000 6.077
34.56000 11.262
34.62000 7.541
34.68000 6.209
34.74000 11.542
34.80000 6.333
34.86000 8.163
34.92000 7.420
34.98000 10.995
35.04000 7.143
35.10000 3.363
35.16000 6.209
35.22000 8.778
35.28000 5.742
35.34000 4.036
35.40000 7.168
35.46000 10.151
35.52000 6.803
35.58000 8.054
35.64000 5.333
35.70000 8.098
35.76000 5.432
35.82000 9.476
35.88000 9.060
35.94000 8.452
36.00000 12.217
36.06000 6.121
36.12000 6.165
36.18000 8.206
36.24000 4.087
36.30000 3.065
36.36000 5.407
36.42000 7.701
36.48000 5.063
36.54000 8.149
36.60000 5.402
36.66000 8.533
36.72000 4.100
36.78000 5.107
36.84000 8.220
36.90000 2.069
36.96000 9.206
37.02000 9.588
37.08000 6.199
37.14000 7.401
37.20000 2.020
37.26000 6.206
37.32000 11.136
37.38000 8.288
37.44000 7.573
37.50000 11.224
37.56000 9.133
37.62000 4.813
37.68000 5.081
37.74000 7.365
37.80000 8.187
37.86000 9.845
37.92000 7.396
37.98000 1.024
38.04000 9.160
38.10000 5.101
38.16000 6.370
38.22000 10.133
38.28000 12.101
38.34000 9.153
38.40000 9.160
38.46000 25.026
38.52000 32.360
38.58000 45.702
38.64000 88.707
38.70000 110.127
38.76000 123.886
38.82000 159.862
38.88000 112.526
38.94000 127.246
39.00000 82.590
39.06000 73.795
39.12000 23.153
39.18000 19.644
39.24000 15.190
39.30000 11.538
39.36000 9.181
39.42000 5.351
39.48000 4.657
39.54000 8.469
39.60000 7.195
39.66000 6.053
39.72000 6.117
39.78000 11.186
39.84000 4.969
39.90000 7.286
39.96000 7.187
40.02000 7.079
40.08000 8.219
40.14000 4.076
40.20000 10.520
40.26000 5.381
40.32000 5.350
40.38000 2.022
40.44000 8.170
40.50000 6.126
40.56000 6.086
40.62000 4.102
40.68000 6.108
40.74000 3.012
40.80000 6.129
40.86000 4.025
40.92000 6.124
40.98000 3.413
41.04000 2.377
41.10000 9.263
41.16000 0.000
41.22000 4.102
41.28000 5.081
41.34000 3.052
41.40000 7.146
41.46000 3.071
41.52000 2.357
41.58000 3.076
41.64000 6.471
41.70000 3.080
41.76000 5.993
41.82000 4.968
41.88000 3.043
41.94000 1.048
42.00000 5.030
42.06000 4.057
42.12000 5.420
42.18000 5.445
42.24000 5.717
42.30000 6.459
42.36000 4.084
42.42000 6.131
42.48000 5.444
42.54000 7.538
42.60000 5.149
42.66000 8.108
42.72000 4.379
42.78000 2.040
42.84000 10.091
42.90000 6.175
42.96000 3.087
43.02000 6.389
43.08000 5.344
43.14000 7.157
43.20000 3.370
43.26000 1.019
43.32000 4.058
43.38000 5.465
43.44000 8.155
43.50000 5.025
43.56000 9.869
43.62000 7.991
43.68000 8.137
43.74000 7.155
43.80000 4.372
43.86000 2.038
43.92000 7.180
43.98000 9.117
44.04000 4.015
44.10000 4.474
44.16000 7.393
44.22000 7.542
44.28000 9.227
44.34000 7.178
44.40000 7.447
44.46000 16.329
44.52000 10.480
44.58000 17.160
44.64000 18.191
44.70000 15.588
44.76000 19.995
44.82000 38.467
44.88000 45.958
44.94000 66.989
45.00000 77.021
45.06000 102.206
45.12000 93.937
45.18000 79.630
45.24000 77.286
45.30000 42.335
45.36000 20.968
45.42000 20.029
45.48000 13.911
45.54000 11.528
45.60000 8.195
45.66000 8.448
45.72000 8.112
45.78000 10.349
45.84000 3.745
45.90000 5.162
45.96000 3.052
46.02000 6.399
46.08000 4.402
46.14000 0.000
46.20000 1.979
46.26000 5.487
46.32000 5.064
46.38000 3.079
46.44000 4.378
46.50000 3.038
46.56000 2.317
46.62000 6.424
46.68000 5.428
46.74000 2.366
46.80000 8.086
46.86000 5.066
46.92000 4.088
46.98000 6.103
47.00000 4.056