File: XRD/Grazing Incidence/XY Data/Dilan_test_2.xy
20.00000 13.460
20.17000 13.377
20.34000 11.282
20.51000 8.133
20.68000 5.084
20.85000 16.297
21.02000 11.263
21.19000 6.089
21.36000 13.340
21.53000 9.179
21.70000 8.098
21.87000 16.523
22.04000 13.291
22.21000 11.160
22.38000 6.244
22.55000 11.292
22.72000 8.242
22.89000 9.038
23.06000 11.239
23.23000 15.218
23.40000 12.214
23.57000 13.286
23.74000 7.226
23.91000 10.218
24.08000 13.404
24.25000 9.304
24.42000 1.038
24.59000 6.110
24.76000 7.167
24.93000 9.226
25.10000 11.369
25.27000 15.279
25.44000 12.331
25.61000 5.206
25.78000 6.230
25.95000 5.082
26.12000 13.165
26.29000 9.307
26.46000 8.230
26.63000 10.211
26.80000 5.081
26.97000 10.200
27.14000 9.282
27.31000 8.224
27.48000 10.233
27.65000 6.054
27.82000 10.122
27.99000 7.226
28.16000 5.088
28.33000 7.216
28.50000 8.175
28.67000 3.012
28.84000 10.107
29.01000 5.188
29.18000 8.204
29.35000 5.192
29.52000 6.174
29.69000 6.059
29.86000 3.997
30.03000 8.134
30.20000 5.969
30.37000 7.188
30.54000 10.153
30.71000 9.091
30.88000 5.150
31.05000 12.418
31.22000 8.188
31.39000 6.168
31.56000 5.121
31.73000 4.060
31.90000 3.012
32.07000 6.183
32.24000 9.093
32.41000 4.113
32.58000 7.306
32.75000 3.049
32.92000 7.154
33.09000 5.149
33.26000 6.179
33.43000 7.205
33.60000 8.195
33.77000 3.063
33.94000 3.017
34.11000 9.094
34.28000 8.189
34.45000 5.083
34.62000 5.115
34.79000 6.121
34.96000 6.103
35.13000 8.165
35.30000 3.016
35.47000 3.036
35.64000 13.061
35.81000 5.112
35.98000 3.088
36.15000 2.099
36.32000 3.042
36.49000 4.115
36.66000 1.023
36.83000 2.077
37.00000 6.223
37.17000 9.052
37.34000 4.141
37.51000 4.060
37.68000 9.369
37.85000 6.088
38.02000 6.189
38.19000 13.352
38.36000 7.148
38.53000 8.233
38.70000 3.102
38.87000 6.202
39.04000 4.031
39.21000 4.130
39.38000 2.046
39.55000 3.074
39.72000 4.110
39.89000 4.023
40.06000 5.057
40.23000 4.127
40.40000 7.084
40.57000 6.120
40.74000 5.012
40.91000 8.184
41.08000 4.046
41.25000 1.996
41.42000 4.181
41.59000 1.001
41.76000 1.988
41.93000 4.142
42.10000 0.000
42.27000 3.111
42.44000 5.057
42.61000 9.166
42.78000 18.332
42.95000 23.477
43.12000 12.236
43.29000 8.007
43.46000 5.029
43.63000 2.003
43.80000 9.174
43.97000 8.200
44.14000 8.157
44.31000 9.280
44.48000 8.175
44.65000 4.019
44.82000 3.024
44.99000 11.095
45.16000 4.134
45.33000 2.032
45.50000 3.075
45.67000 3.040
45.84000 3.054
46.01000 5.992
46.18000 3.098
46.35000 3.091
46.52000 6.114
46.69000 5.029
46.86000 6.172
47.03000 6.162
47.20000 6.174
47.37000 0.999
47.54000 3.026
47.71000 7.128
47.88000 5.127
48.05000 3.052
48.22000 2.086
48.39000 4.199
48.56000 8.129
48.73000 1.011
48.90000 1.011
49.07000 4.024
49.24000 5.088
49.41000 5.140
49.58000 2.047
49.75000 1.992
49.92000 2.049
50.09000 1.978
50.26000 4.007
50.43000 2.019
50.60000 4.090
50.77000 4.038
50.94000 3.064
51.11000 5.241
51.28000 4.033
51.45000 3.076
51.62000 4.057
51.79000 7.131
51.96000 7.160
52.13000 9.139
52.30000 3.096
52.47000 4.129
52.64000 3.110
52.81000 4.034
52.98000 1.085
53.15000 4.002
53.32000 3.047
53.49000 3.041
53.66000 3.047
53.83000 5.167
54.00000 2.029
54.17000 2.068
54.34000 1.998
54.51000 4.037
54.68000 4.028
54.85000 1.979
55.02000 4.099
55.19000 2.107
55.36000 6.016
55.53000 4.064
55.70000 3.029
55.87000 6.094
56.04000 6.102
56.21000 2.072
56.38000 3.965
56.55000 1.035
56.72000 4.083
56.89000 3.039
57.06000 3.095
57.23000 1.055
57.40000 6.164
57.57000 4.050
57.74000 0.997
57.91000 3.019
58.08000 6.023
58.25000 3.112
58.42000 3.007
58.59000 5.026
58.76000 5.085
58.93000 3.071
59.10000 5.057
59.27000 4.102
59.44000 3.025
59.61000 3.069
59.78000 4.011
59.95000 2.004
60.12000 1.012
60.29000 3.083
60.46000 2.106
60.63000 5.153
60.80000 1.004
60.97000 5.114
61.14000 0.993
61.31000 3.069
61.48000 3.023
61.65000 3.075
61.82000 5.130
61.99000 4.049
62.16000 8.193
62.33000 17.427
62.50000 8.132
62.67000 6.018
62.84000 4.115
63.01000 6.179
63.18000 5.115
63.35000 2.032
63.52000 6.097
63.69000 5.068
63.86000 4.140
64.03000 1.044
64.20000 2.057
64.37000 3.036
64.54000 4.118
64.71000 9.158
64.88000 3.083
65.05000 3.056
65.22000 7.114
65.39000 3.110
65.56000 7.140
65.73000 3.094
65.90000 1.002
66.07000 5.167
66.24000 5.045
66.41000 5.121
66.58000 2.012
66.75000 9.100
66.92000 3.064
67.09000 2.093
67.26000 1.006
67.43000 3.110
67.60000 7.071
67.77000 5.091
67.94000 2.003
68.11000 3.063
68.28000 3.060
68.45000 2.072
68.62000 6.147
68.79000 4.156
68.96000 2.049
69.13000 1.016
69.30000 5.092
69.47000 2.011
69.64000 2.097
69.81000 2.075
69.98000 1.000
70.00000 2.018