File: XRD/XRD/24-09-2025 Dep 3/XY Data/BTO_Mapping_Theta2Theta_24-09-2025_001_31_-19-563_4-158.xy
20.00000 560.657
20.17000 580.010
20.34000 563.967
20.51000 564.315
20.68000 572.421
20.85000 567.583
21.02000 571.014
21.19000 550.370
21.36000 549.024
21.53000 546.317
21.70000 600.529
21.87000 753.051
22.04000 945.641
22.21000 727.630
22.38000 586.348
22.55000 550.816
22.72000 538.981
22.89000 513.269
23.06000 513.194
23.23000 528.587
23.40000 506.357
23.57000 484.528
23.74000 494.799
23.91000 512.879
24.08000 500.232
24.25000 505.753
24.42000 485.466
24.59000 500.287
24.76000 497.162
24.93000 470.467
25.10000 494.080
25.27000 472.924
25.44000 493.870
25.61000 470.372
25.78000 458.505
25.95000 458.965
26.12000 450.854
26.29000 460.871
26.46000 468.578
26.63000 447.923
26.80000 452.819
26.97000 454.945
27.14000 440.502
27.31000 439.155
27.48000 427.456
27.65000 441.751
27.82000 423.639
27.99000 429.079
28.16000 434.957
28.33000 428.249
28.50000 445.072
28.67000 408.250
28.84000 426.001
29.01000 419.592
29.18000 423.659
29.35000 421.980
29.52000 416.452
29.69000 424.887
29.86000 436.708
30.03000 471.034
30.20000 432.654
30.37000 438.222
30.54000 425.819
30.71000 448.763
30.88000 496.728
31.05000 780.393
31.22000 2198.945
31.39000 3382.058
31.56000 1765.441
31.73000 692.040
31.90000 479.753
32.07000 421.823
32.24000 416.531
32.41000 404.265
32.58000 391.115
32.75000 399.134
32.92000 595.286
33.09000 446.944
33.26000 355.420
33.43000 354.239
33.60000 349.531
33.77000 357.824
33.94000 333.551
34.11000 337.508
34.28000 334.243
34.45000 335.842
34.62000 326.182
34.79000 325.010
34.96000 313.537
35.13000 324.429
35.30000 313.117
35.47000 302.593
35.64000 318.908
35.81000 316.316
35.98000 306.384
36.15000 301.837
36.32000 290.408
36.49000 298.797
36.66000 302.600
36.83000 306.837
37.00000 300.169
37.17000 289.949
37.34000 288.287
37.51000 298.525
37.68000 288.573
37.85000 295.814
38.02000 315.234
38.19000 307.616
38.36000 418.200
38.53000 786.877
38.70000 1136.007
38.87000 681.883
39.04000 332.792
39.21000 285.041
39.38000 278.776
39.55000 277.414
39.72000 271.893
39.89000 268.869
40.06000 257.408
40.23000 262.793
40.40000 252.398
40.57000 255.373
40.74000 250.810
40.91000 253.603
41.08000 259.930
41.25000 260.548
41.42000 255.857
41.59000 248.649
41.76000 232.471
41.93000 248.036
42.10000 246.708
42.27000 235.934
42.44000 241.596
42.61000 228.851
42.78000 230.503
42.95000 231.489
43.12000 230.927
43.29000 226.735
43.46000 228.469
43.63000 225.067
43.80000 220.113
43.97000 228.262
44.14000 235.949
44.31000 230.668
44.48000 231.305
44.65000 271.573
44.82000 407.730
44.99000 580.110
45.16000 486.442
45.33000 339.246
45.50000 281.962
45.67000 259.421
45.84000 230.514
46.01000 209.669
46.18000 204.053
46.35000 208.680
46.52000 212.574
46.69000 200.954
46.86000 206.407
47.03000 204.873
47.20000 183.624
47.37000 196.322
47.54000 190.869
47.71000 189.633
47.88000 197.599
48.05000 192.663
48.22000 178.952
48.39000 185.139
48.56000 182.667
48.73000 184.099
48.90000 179.614
49.07000 184.652
49.24000 174.901
49.41000 185.669
49.58000 173.465
49.75000 189.306
49.92000 182.044
50.09000 186.690
50.26000 189.285
50.43000 232.182
50.60000 267.005
50.77000 290.748
50.94000 227.020
51.11000 196.954
51.28000 175.527
51.45000 181.350
51.62000 164.175
51.79000 173.014
51.96000 145.790
52.13000 157.717
52.30000 171.799
52.47000 161.623
52.64000 155.309
52.81000 152.096
52.98000 153.546
53.15000 171.564
53.32000 156.623
53.49000 168.733
53.66000 161.854
53.83000 164.997
54.00000 160.861
54.17000 156.337
54.34000 147.208
54.51000 148.656
54.68000 158.610
54.85000 158.518
55.02000 164.295
55.19000 174.306
55.36000 187.672
55.53000 262.476
55.70000 500.655
55.87000 839.745
56.04000 702.603
56.21000 386.536
56.38000 223.731
56.55000 182.494
56.72000 167.295
56.89000 161.978
57.06000 151.990
57.23000 146.416
57.40000 147.067
57.57000 148.306
57.74000 145.159
57.91000 141.402
58.08000 140.377
58.25000 148.912
58.42000 135.247
58.59000 135.982
58.76000 141.896
58.93000 135.605
59.10000 141.383
59.27000 139.278
59.44000 135.044
59.61000 131.289
59.78000 135.895
59.95000 130.187
60.12000 134.681
60.29000 137.813
60.46000 135.839
60.63000 134.770
60.80000 126.657
60.97000 135.915
61.14000 128.876
61.31000 149.139
61.48000 161.463
61.65000 336.470
61.82000 219.525
61.99000 144.883
62.16000 145.299
62.33000 138.957
62.50000 137.634
62.67000 150.340
62.84000 139.441
63.01000 149.822
63.18000 146.531
63.35000 132.338
63.52000 153.751
63.69000 159.367
63.86000 158.859
64.03000 153.103
64.20000 160.865
64.37000 167.991
64.54000 179.430
64.71000 176.201
64.88000 185.771
65.05000 205.443
65.22000 266.706
65.39000 356.094
65.56000 450.627
65.73000 866.353
65.90000 1469.313
66.07000 482.616
66.24000 364.002
66.41000 536.958
66.58000 391.970
66.75000 339.694
66.92000 362.069
67.09000 379.931
67.26000 401.476
67.43000 449.090
67.60000 483.658
67.77000 506.703
67.94000 585.363
68.11000 600.786
68.28000 678.697
68.45000 802.906
68.62000 1230.138
68.79000 2489.679
68.96000 19327.443
69.13000 77584.961
69.30000 45713.102
69.47000 10500.421
69.64000 1434.089
69.81000 919.608
69.98000 752.943
70.00000 745.108