File: XRD/XRD/24-09-2025 Dep 3/XY Data/BTO_Mapping_Theta2Theta_24-09-2025_001_27_-16-180_11-756.xy
20.00000 568.857
20.17000 562.198
20.34000 560.225
20.51000 541.004
20.68000 530.735
20.85000 567.448
21.02000 536.740
21.19000 592.867
21.36000 562.893
21.53000 560.039
21.70000 565.135
21.87000 693.570
22.04000 901.076
22.21000 747.422
22.38000 596.912
22.55000 543.715
22.72000 516.448
22.89000 521.023
23.06000 523.148
23.23000 519.901
23.40000 500.192
23.57000 500.691
23.74000 496.696
23.91000 508.647
24.08000 506.402
24.25000 469.888
24.42000 486.228
24.59000 497.752
24.76000 473.256
24.93000 471.643
25.10000 471.955
25.27000 462.558
25.44000 464.430
25.61000 479.377
25.78000 474.019
25.95000 470.650
26.12000 448.507
26.29000 454.306
26.46000 471.345
26.63000 445.479
26.80000 450.354
26.97000 453.786
27.14000 448.721
27.31000 443.128
27.48000 438.757
27.65000 437.938
27.82000 437.740
27.99000 438.952
28.16000 412.346
28.33000 430.539
28.50000 422.653
28.67000 423.157
28.84000 428.283
29.01000 422.478
29.18000 423.993
29.35000 416.360
29.52000 421.556
29.69000 442.959
29.86000 420.180
30.03000 459.116
30.20000 463.500
30.37000 434.655
30.54000 442.358
30.71000 454.346
30.88000 509.038
31.05000 757.686
31.22000 2080.553
31.39000 3454.093
31.56000 1856.757
31.73000 721.312
31.90000 488.471
32.07000 419.391
32.24000 420.827
32.41000 403.170
32.58000 390.659
32.75000 387.107
32.92000 574.771
33.09000 454.622
33.26000 356.386
33.43000 346.845
33.60000 345.089
33.77000 331.438
33.94000 342.360
34.11000 336.198
34.28000 335.921
34.45000 329.865
34.62000 319.377
34.79000 308.400
34.96000 328.603
35.13000 315.215
35.30000 311.655
35.47000 311.612
35.64000 309.994
35.81000 311.659
35.98000 307.845
36.15000 296.734
36.32000 317.590
36.49000 291.628
36.66000 308.845
36.83000 313.872
37.00000 318.512
37.17000 294.151
37.34000 293.058
37.51000 290.529
37.68000 299.468
37.85000 309.331
38.02000 305.700
38.19000 300.113
38.36000 391.308
38.53000 806.307
38.70000 1236.788
38.87000 733.755
39.04000 364.903
39.21000 287.780
39.38000 282.329
39.55000 282.912
39.72000 295.884
39.89000 251.899
40.06000 254.431
40.23000 270.176
40.40000 252.618
40.57000 255.193
40.74000 261.742
40.91000 250.584
41.08000 244.997
41.25000 253.542
41.42000 239.548
41.59000 237.212
41.76000 240.438
41.93000 252.161
42.10000 227.097
42.27000 234.953
42.44000 229.622
42.61000 227.081
42.78000 228.160
42.95000 223.956
43.12000 222.281
43.29000 226.969
43.46000 230.907
43.63000 216.945
43.80000 227.674
43.97000 222.516
44.14000 215.573
44.31000 225.936
44.48000 227.616
44.65000 261.283
44.82000 342.076
44.99000 518.714
45.16000 461.235
45.33000 340.235
45.50000 276.223
45.67000 258.798
45.84000 223.325
46.01000 225.500
46.18000 210.317
46.35000 213.947
46.52000 196.883
46.69000 207.767
46.86000 204.752
47.03000 197.020
47.20000 186.976
47.37000 193.829
47.54000 188.510
47.71000 184.611
47.88000 205.804
48.05000 182.408
48.22000 187.932
48.39000 183.772
48.56000 175.738
48.73000 185.369
48.90000 190.292
49.07000 172.771
49.24000 178.720
49.41000 177.806
49.58000 174.397
49.75000 162.098
49.92000 172.965
50.09000 190.286
50.26000 188.281
50.43000 217.300
50.60000 283.870
50.77000 256.328
50.94000 226.351
51.11000 201.231
51.28000 193.927
51.45000 181.946
51.62000 168.878
51.79000 167.026
51.96000 161.268
52.13000 166.470
52.30000 161.755
52.47000 162.532
52.64000 157.711
52.81000 163.089
52.98000 153.990
53.15000 166.708
53.32000 167.751
53.49000 161.813
53.66000 153.527
53.83000 148.303
54.00000 151.922
54.17000 154.222
54.34000 152.681
54.51000 163.684
54.68000 148.476
54.85000 164.456
55.02000 163.525
55.19000 167.390
55.36000 178.614
55.53000 240.177
55.70000 455.115
55.87000 808.228
56.04000 730.079
56.21000 361.200
56.38000 228.555
56.55000 178.814
56.72000 161.878
56.89000 164.422
57.06000 150.522
57.23000 143.654
57.40000 156.098
57.57000 142.618
57.74000 146.877
57.91000 135.553
58.08000 141.927
58.25000 137.738
58.42000 139.208
58.59000 129.667
58.76000 141.226
58.93000 139.194
59.10000 134.130
59.27000 135.916
59.44000 131.121
59.61000 138.675
59.78000 138.168
59.95000 135.700
60.12000 140.058
60.29000 125.876
60.46000 134.969
60.63000 126.274
60.80000 132.594
60.97000 131.041
61.14000 154.305
61.31000 138.178
61.48000 152.655
61.65000 301.066
61.82000 226.149
61.99000 139.568
62.16000 139.796
62.33000 138.214
62.50000 149.207
62.67000 165.514
62.84000 135.750
63.01000 145.322
63.18000 140.264
63.35000 139.791
63.52000 158.545
63.69000 147.738
63.86000 140.855
64.03000 151.728
64.20000 169.266
64.37000 166.308
64.54000 157.646
64.71000 186.665
64.88000 187.011
65.05000 214.094
65.22000 245.237
65.39000 334.650
65.56000 424.029
65.73000 834.224
65.90000 1364.713
66.07000 429.652
66.24000 352.310
66.41000 523.238
66.58000 344.357
66.75000 336.509
66.92000 356.420
67.09000 383.650
67.26000 403.369
67.43000 444.341
67.60000 469.038
67.77000 497.188
67.94000 533.513
68.11000 577.647
68.28000 624.488
68.45000 764.513
68.62000 1172.506
68.79000 2350.850
68.96000 17541.422
69.13000 72348.008
69.30000 42232.277
69.47000 9757.778
69.64000 1397.352
69.81000 915.570
69.98000 700.455
70.00000 714.333