File: XRD/XRD/24-09-2025 Dep 3/XY Data/BTO_Mapping_Theta2Theta_24-09-2025_001_48_-3-136_-29-836.xy
20.00000 551.875
20.17000 552.681
20.34000 560.717
20.51000 566.284
20.68000 561.740
20.85000 539.472
21.02000 544.699
21.19000 542.192
21.36000 537.346
21.53000 568.827
21.70000 570.319
21.87000 590.495
22.04000 691.767
22.21000 634.231
22.38000 592.099
22.55000 531.709
22.72000 518.608
22.89000 511.290
23.06000 507.993
23.23000 508.219
23.40000 505.448
23.57000 507.066
23.74000 508.848
23.91000 479.473
24.08000 483.728
24.25000 503.298
24.42000 492.550
24.59000 489.832
24.76000 507.211
24.93000 506.557
25.10000 481.207
25.27000 463.312
25.44000 460.943
25.61000 455.458
25.78000 469.830
25.95000 461.494
26.12000 456.733
26.29000 457.329
26.46000 426.630
26.63000 448.151
26.80000 438.920
26.97000 442.821
27.14000 437.807
27.31000 436.779
27.48000 433.259
27.65000 443.702
27.82000 429.611
27.99000 431.054
28.16000 429.508
28.33000 420.745
28.50000 430.932
28.67000 410.655
28.84000 428.718
29.01000 414.398
29.18000 424.733
29.35000 408.013
29.52000 402.417
29.69000 399.196
29.86000 429.831
30.03000 428.564
30.20000 426.889
30.37000 413.921
30.54000 417.625
30.71000 433.825
30.88000 455.734
31.05000 644.342
31.22000 1562.882
31.39000 2572.431
31.56000 1586.751
31.73000 672.127
31.90000 452.950
32.07000 405.076
32.24000 394.424
32.41000 393.935
32.58000 365.708
32.75000 369.691
32.92000 472.697
33.09000 384.579
33.26000 355.121
33.43000 349.466
33.60000 340.713
33.77000 332.960
33.94000 348.286
34.11000 334.683
34.28000 337.356
34.45000 326.428
34.62000 331.246
34.79000 335.829
34.96000 306.542
35.13000 314.973
35.30000 312.956
35.47000 315.675
35.64000 307.967
35.81000 304.878
35.98000 299.758
36.15000 301.527
36.32000 297.465
36.49000 288.154
36.66000 290.979
36.83000 289.509
37.00000 321.259
37.17000 310.275
37.34000 296.574
37.51000 291.573
37.68000 292.247
37.85000 297.773
38.02000 314.344
38.19000 321.832
38.36000 367.984
38.53000 810.265
38.70000 1671.879
38.87000 1124.968
39.04000 430.414
39.21000 296.928
39.38000 299.146
39.55000 272.479
39.72000 260.204
39.89000 265.452
40.06000 254.579
40.23000 266.340
40.40000 246.546
40.57000 250.092
40.74000 247.847
40.91000 248.551
41.08000 249.383
41.25000 260.401
41.42000 252.808
41.59000 235.080
41.76000 244.481
41.93000 225.905
42.10000 247.537
42.27000 235.008
42.44000 230.573
42.61000 231.747
42.78000 241.987
42.95000 228.958
43.12000 211.583
43.29000 230.493
43.46000 228.261
43.63000 239.405
43.80000 217.749
43.97000 225.159
44.14000 218.843
44.31000 215.007
44.48000 213.471
44.65000 234.752
44.82000 241.243
44.99000 304.951
45.16000 305.072
45.33000 284.585
45.50000 261.383
45.67000 248.363
45.84000 226.705
46.01000 212.720
46.18000 199.941
46.35000 212.897
46.52000 206.231
46.69000 189.428
46.86000 197.411
47.03000 203.714
47.20000 188.311
47.37000 183.736
47.54000 186.251
47.71000 194.106
47.88000 170.830
48.05000 192.087
48.22000 169.444
48.39000 184.506
48.56000 191.826
48.73000 187.552
48.90000 173.930
49.07000 185.365
49.24000 180.538
49.41000 183.022
49.58000 172.458
49.75000 175.243
49.92000 168.897
50.09000 179.722
50.26000 183.600
50.43000 204.726
50.60000 221.949
50.77000 213.179
50.94000 190.079
51.11000 183.364
51.28000 172.255
51.45000 184.000
51.62000 161.644
51.79000 167.730
51.96000 164.090
52.13000 159.052
52.30000 160.645
52.47000 157.545
52.64000 150.689
52.81000 159.844
52.98000 157.845
53.15000 149.861
53.32000 175.459
53.49000 161.089
53.66000 163.791
53.83000 161.511
54.00000 155.444
54.17000 157.866
54.34000 165.083
54.51000 162.355
54.68000 168.570
54.85000 149.884
55.02000 157.351
55.19000 164.376
55.36000 185.528
55.53000 238.405
55.70000 437.355
55.87000 833.836
56.04000 861.202
56.21000 488.258
56.38000 285.303
56.55000 198.418
56.72000 159.384
56.89000 157.005
57.06000 147.431
57.23000 153.166
57.40000 147.250
57.57000 140.312
57.74000 151.641
57.91000 143.666
58.08000 149.469
58.25000 139.520
58.42000 143.328
58.59000 137.851
58.76000 139.363
58.93000 138.437
59.10000 138.033
59.27000 137.037
59.44000 129.124
59.61000 135.366
59.78000 130.436
59.95000 124.926
60.12000 132.598
60.29000 134.563
60.46000 133.211
60.63000 132.476
60.80000 126.428
60.97000 131.584
61.14000 136.536
61.31000 133.573
61.48000 144.926
61.65000 271.010
61.82000 183.014
61.99000 131.987
62.16000 136.942
62.33000 128.787
62.50000 143.160
62.67000 135.227
62.84000 137.186
63.01000 140.257
63.18000 142.366
63.35000 144.688
63.52000 145.015
63.69000 137.093
63.86000 155.351
64.03000 153.267
64.20000 163.341
64.37000 167.852
64.54000 155.391
64.71000 170.033
64.88000 182.869
65.05000 184.463
65.22000 241.496
65.39000 285.337
65.56000 332.784
65.73000 681.459
65.90000 1114.716
66.07000 386.726
66.24000 312.218
66.41000 441.512
66.58000 318.527
66.75000 305.908
66.92000 321.110
67.09000 332.091
67.26000 369.271
67.43000 395.515
67.60000 430.193
67.77000 463.872
67.94000 467.894
68.11000 533.741
68.28000 610.808
68.45000 689.171
68.62000 989.007
68.79000 1873.618
68.96000 12994.500
69.13000 54637.930
69.30000 31446.813
69.47000 7090.050
69.64000 1184.082
69.81000 779.147
69.98000 670.418
70.00000 663.378