File: XRD/XRD/24-09-2025 Dep 3/XY Data/BTO_Mapping_Theta2Theta_24-09-2025_001_09_36-542_16-269.xy
20.00000 574.439
20.17000 569.250
20.34000 559.296
20.51000 561.161
20.68000 543.650
20.85000 557.166
21.02000 550.614
21.19000 564.076
21.36000 560.368
21.53000 549.052
21.70000 536.279
21.87000 575.252
22.04000 588.631
22.21000 586.728
22.38000 558.833
22.55000 543.244
22.72000 524.092
22.89000 521.500
23.06000 531.186
23.23000 518.364
23.40000 504.852
23.57000 514.576
23.74000 540.988
23.91000 560.316
24.08000 562.434
24.25000 527.345
24.42000 510.102
24.59000 479.413
24.76000 505.272
24.93000 454.227
25.10000 480.995
25.27000 473.204
25.44000 461.856
25.61000 482.353
25.78000 472.374
25.95000 479.266
26.12000 464.518
26.29000 474.172
26.46000 450.629
26.63000 462.185
26.80000 442.520
26.97000 448.197
27.14000 450.909
27.31000 451.211
27.48000 445.775
27.65000 448.457
27.82000 422.495
27.99000 420.563
28.16000 429.399
28.33000 433.923
28.50000 431.669
28.67000 425.606
28.84000 425.704
29.01000 419.801
29.18000 428.778
29.35000 408.739
29.52000 413.428
29.69000 401.961
29.86000 408.567
30.03000 411.032
30.20000 439.692
30.37000 408.750
30.54000 419.179
30.71000 427.418
30.88000 463.239
31.05000 536.356
31.22000 802.891
31.39000 1175.582
31.56000 871.699
31.73000 537.163
31.90000 462.995
32.07000 422.761
32.24000 414.627
32.41000 395.865
32.58000 385.921
32.75000 382.885
32.92000 454.772
33.09000 413.497
33.26000 352.168
33.43000 353.542
33.60000 344.278
33.77000 359.878
33.94000 350.823
34.11000 361.054
34.28000 365.136
34.45000 371.535
34.62000 349.354
34.79000 325.307
34.96000 323.879
35.13000 304.781
35.30000 326.719
35.47000 325.021
35.64000 308.498
35.81000 303.845
35.98000 314.427
36.15000 300.717
36.32000 280.646
36.49000 314.276
36.66000 278.239
36.83000 296.261
37.00000 297.736
37.17000 282.537
37.34000 283.321
37.51000 297.119
37.68000 290.566
37.85000 302.997
38.02000 310.564
38.19000 327.767
38.36000 378.274
38.53000 610.677
38.70000 1048.141
38.87000 741.490
39.04000 401.583
39.21000 311.597
39.38000 287.194
39.55000 267.555
39.72000 284.048
39.89000 271.178
40.06000 278.750
40.23000 269.567
40.40000 250.844
40.57000 242.706
40.74000 258.583
40.91000 249.107
41.08000 248.157
41.25000 242.723
41.42000 248.837
41.59000 245.984
41.76000 257.441
41.93000 238.158
42.10000 247.972
42.27000 241.776
42.44000 243.624
42.61000 243.514
42.78000 237.568
42.95000 235.050
43.12000 221.209
43.29000 219.768
43.46000 211.959
43.63000 223.150
43.80000 223.152
43.97000 220.455
44.14000 224.434
44.31000 232.614
44.48000 243.351
44.65000 240.241
44.82000 262.636
44.99000 273.736
45.16000 266.965
45.33000 240.964
45.50000 243.323
45.67000 228.813
45.84000 219.773
46.01000 210.452
46.18000 199.076
46.35000 195.180
46.52000 205.397
46.69000 198.854
46.86000 201.616
47.03000 200.798
47.20000 197.948
47.37000 187.226
47.54000 185.792
47.71000 179.014
47.88000 201.775
48.05000 181.537
48.22000 189.230
48.39000 198.568
48.56000 185.135
48.73000 173.135
48.90000 188.226
49.07000 188.039
49.24000 185.018
49.41000 178.940
49.58000 178.113
49.75000 177.516
49.92000 179.475
50.09000 170.173
50.26000 185.624
50.43000 189.747
50.60000 185.839
50.77000 188.088
50.94000 175.814
51.11000 177.222
51.28000 170.229
51.45000 166.614
51.62000 161.767
51.79000 165.982
51.96000 166.198
52.13000 165.684
52.30000 173.363
52.47000 155.766
52.64000 153.295
52.81000 168.334
52.98000 156.350
53.15000 158.166
53.32000 171.829
53.49000 166.497
53.66000 152.850
53.83000 156.935
54.00000 166.988
54.17000 165.605
54.34000 173.276
54.51000 160.765
54.68000 155.285
54.85000 152.756
55.02000 170.718
55.19000 173.518
55.36000 190.626
55.53000 222.463
55.70000 325.170
55.87000 464.728
56.04000 480.258
56.21000 339.649
56.38000 225.701
56.55000 176.267
56.72000 168.799
56.89000 149.223
57.06000 155.757
57.23000 149.086
57.40000 153.187
57.57000 150.824
57.74000 142.357
57.91000 145.797
58.08000 137.873
58.25000 140.467
58.42000 141.087
58.59000 138.579
58.76000 135.196
58.93000 138.105
59.10000 131.531
59.27000 137.652
59.44000 134.051
59.61000 132.568
59.78000 139.290
59.95000 148.060
60.12000 134.472
60.29000 132.353
60.46000 134.663
60.63000 132.119
60.80000 133.592
60.97000 132.778
61.14000 127.470
61.31000 150.798
61.48000 148.450
61.65000 257.761
61.82000 209.497
61.99000 133.998
62.16000 138.275
62.33000 134.466
62.50000 145.508
62.67000 147.024
62.84000 140.839
63.01000 134.157
63.18000 151.964
63.35000 150.854
63.52000 149.324
63.69000 155.310
63.86000 158.414
64.03000 149.414
64.20000 155.709
64.37000 155.868
64.54000 163.635
64.71000 171.731
64.88000 170.660
65.05000 189.903
65.22000 207.793
65.39000 225.150
65.56000 270.956
65.73000 542.156
65.90000 1055.030
66.07000 369.557
66.24000 294.767
66.41000 437.881
66.58000 353.327
66.75000 311.273
66.92000 344.291
67.09000 341.330
67.26000 382.008
67.43000 403.005
67.60000 409.022
67.77000 458.732
67.94000 510.072
68.11000 545.091
68.28000 592.946
68.45000 712.983
68.62000 952.283
68.79000 1740.426
68.96000 9492.128
69.13000 52986.641
69.30000 32158.229
69.47000 8569.539
69.64000 1198.046
69.81000 817.510
69.98000 658.266
70.00000 653.294