File: XRD/XRD/24-09-2025 Dep 3/XY Data/BTO_Mapping_Theta2Theta_24-09-2025_001_07_18-271_8-135.xy
20.00000 563.411
20.17000 568.201
20.34000 539.623
20.51000 568.721
20.68000 553.040
20.85000 565.505
21.02000 545.420
21.19000 569.124
21.36000 545.464
21.53000 544.444
21.70000 535.866
21.87000 557.643
22.04000 626.206
22.21000 600.323
22.38000 562.209
22.55000 520.651
22.72000 552.423
22.89000 494.441
23.06000 509.173
23.23000 543.863
23.40000 499.301
23.57000 508.803
23.74000 513.926
23.91000 497.196
24.08000 505.876
24.25000 487.389
24.42000 478.010
24.59000 499.095
24.76000 474.323
24.93000 472.464
25.10000 461.144
25.27000 466.003
25.44000 489.700
25.61000 465.011
25.78000 456.574
25.95000 452.419
26.12000 460.221
26.29000 447.085
26.46000 466.312
26.63000 452.745
26.80000 434.791
26.97000 438.973
27.14000 438.226
27.31000 429.588
27.48000 446.243
27.65000 438.369
27.82000 440.420
27.99000 410.321
28.16000 428.304
28.33000 413.900
28.50000 420.957
28.67000 423.706
28.84000 403.407
29.01000 404.995
29.18000 420.588
29.35000 416.778
29.52000 399.086
29.69000 403.261
29.86000 421.326
30.03000 443.630
30.20000 409.558
30.37000 414.471
30.54000 419.551
30.71000 422.207
30.88000 442.384
31.05000 509.169
31.22000 974.358
31.39000 1527.603
31.56000 1193.837
31.73000 609.795
31.90000 436.244
32.07000 411.778
32.24000 383.389
32.41000 399.853
32.58000 378.272
32.75000 374.943
32.92000 452.868
33.09000 400.629
33.26000 343.168
33.43000 342.076
33.60000 346.136
33.77000 333.883
33.94000 340.676
34.11000 323.324
34.28000 329.474
34.45000 326.448
34.62000 307.507
34.79000 321.271
34.96000 303.777
35.13000 316.819
35.30000 310.802
35.47000 321.186
35.64000 300.014
35.81000 304.117
35.98000 307.265
36.15000 314.612
36.32000 279.857
36.49000 278.945
36.66000 295.667
36.83000 297.676
37.00000 310.061
37.17000 320.846
37.34000 300.717
37.51000 297.334
37.68000 293.360
37.85000 295.724
38.02000 289.239
38.19000 309.039
38.36000 316.421
38.53000 628.519
38.70000 1419.581
38.87000 1150.555
39.04000 445.297
39.21000 309.010
39.38000 271.963
39.55000 265.640
39.72000 288.244
39.89000 272.494
40.06000 248.263
40.23000 267.885
40.40000 248.069
40.57000 243.097
40.74000 254.176
40.91000 247.927
41.08000 246.262
41.25000 255.524
41.42000 234.082
41.59000 233.543
41.76000 230.440
41.93000 243.340
42.10000 234.583
42.27000 245.280
42.44000 227.543
42.61000 229.631
42.78000 231.385
42.95000 227.930
43.12000 230.697
43.29000 217.707
43.46000 219.851
43.63000 213.935
43.80000 225.469
43.97000 217.230
44.14000 223.195
44.31000 233.159
44.48000 201.656
44.65000 218.028
44.82000 243.149
44.99000 256.599
45.16000 274.872
45.33000 252.602
45.50000 227.563
45.67000 235.575
45.84000 216.829
46.01000 224.848
46.18000 210.065
46.35000 209.264
46.52000 198.217
46.69000 189.903
46.86000 194.746
47.03000 199.616
47.20000 186.994
47.37000 185.676
47.54000 185.806
47.71000 174.480
47.88000 197.070
48.05000 189.578
48.22000 187.031
48.39000 190.407
48.56000 184.889
48.73000 167.483
48.90000 182.798
49.07000 176.966
49.24000 182.021
49.41000 162.319
49.58000 178.071
49.75000 184.258
49.92000 180.164
50.09000 171.950
50.26000 178.346
50.43000 181.691
50.60000 185.397
50.77000 190.509
50.94000 191.058
51.11000 183.518
51.28000 157.543
51.45000 168.888
51.62000 174.510
51.79000 172.233
51.96000 154.297
52.13000 164.114
52.30000 157.726
52.47000 157.699
52.64000 158.252
52.81000 157.472
52.98000 165.427
53.15000 163.735
53.32000 174.037
53.49000 167.865
53.66000 151.637
53.83000 160.236
54.00000 144.172
54.17000 158.387
54.34000 153.932
54.51000 155.418
54.68000 157.237
54.85000 165.341
55.02000 170.815
55.19000 169.425
55.36000 174.829
55.53000 214.220
55.70000 365.264
55.87000 703.063
56.04000 850.558
56.21000 539.177
56.38000 252.152
56.55000 184.958
56.72000 169.841
56.89000 158.716
57.06000 142.828
57.23000 152.203
57.40000 141.463
57.57000 144.766
57.74000 140.844
57.91000 154.321
58.08000 148.618
58.25000 127.383
58.42000 140.344
58.59000 137.918
58.76000 132.951
58.93000 137.030
59.10000 140.657
59.27000 131.860
59.44000 137.852
59.61000 139.730
59.78000 126.102
59.95000 133.396
60.12000 126.187
60.29000 143.209
60.46000 126.683
60.63000 134.787
60.80000 125.195
60.97000 137.328
61.14000 128.818
61.31000 149.611
61.48000 158.829
61.65000 233.694
61.82000 198.460
61.99000 143.385
62.16000 132.198
62.33000 130.965
62.50000 142.786
62.67000 141.848
62.84000 145.022
63.01000 149.979
63.18000 147.977
63.35000 153.357
63.52000 154.041
63.69000 139.099
63.86000 156.274
64.03000 149.234
64.20000 160.301
64.37000 156.801
64.54000 166.610
64.71000 164.591
64.88000 163.005
65.05000 189.157
65.22000 208.334
65.39000 231.654
65.56000 291.525
65.73000 582.003
65.90000 1006.256
66.07000 364.882
66.24000 293.858
66.41000 435.622
66.58000 320.943
66.75000 292.130
66.92000 318.780
67.09000 353.739
67.26000 368.126
67.43000 368.326
67.60000 425.232
67.77000 453.722
67.94000 484.976
68.11000 525.936
68.28000 582.815
68.45000 673.736
68.62000 948.760
68.79000 1666.914
68.96000 10329.503
69.13000 49642.566
69.30000 29286.736
69.47000 7150.986
69.64000 1125.779
69.81000 751.778
69.98000 641.170
70.00000 632.142