File: XRD/XRD/24-09-2025 Dep 3/XY Data/BTO_Mapping_Theta2Theta_24-09-2025_001_58_9-135_-4-067.xy
20.00000 551.457
20.17000 562.289
20.34000 565.839
20.51000 556.173
20.68000 547.480
20.85000 538.140
21.02000 556.826
21.19000 531.127
21.36000 534.750
21.53000 550.497
21.70000 539.207
21.87000 568.784
22.04000 596.746
22.21000 607.231
22.38000 560.575
22.55000 538.284
22.72000 523.072
22.89000 512.095
23.06000 509.778
23.23000 501.448
23.40000 498.794
23.57000 491.877
23.74000 488.140
23.91000 476.753
24.08000 489.335
24.25000 494.585
24.42000 495.130
24.59000 491.777
24.76000 481.366
24.93000 495.378
25.10000 465.775
25.27000 459.970
25.44000 456.905
25.61000 480.475
25.78000 461.416
25.95000 461.298
26.12000 480.831
26.29000 464.830
26.46000 478.271
26.63000 454.639
26.80000 450.513
26.97000 434.780
27.14000 433.780
27.31000 432.214
27.48000 440.886
27.65000 427.758
27.82000 417.302
27.99000 427.774
28.16000 420.839
28.33000 418.195
28.50000 403.309
28.67000 408.805
28.84000 409.271
29.01000 411.512
29.18000 415.923
29.35000 397.225
29.52000 411.279
29.69000 400.591
29.86000 429.727
30.03000 426.255
30.20000 415.233
30.37000 417.942
30.54000 414.618
30.71000 416.945
30.88000 431.953
31.05000 582.364
31.22000 1205.036
31.39000 2051.046
31.56000 1404.011
31.73000 637.623
31.90000 467.229
32.07000 414.983
32.24000 400.951
32.41000 388.334
32.58000 383.589
32.75000 373.643
32.92000 436.516
33.09000 395.254
33.26000 341.641
33.43000 346.047
33.60000 325.649
33.77000 332.773
33.94000 321.985
34.11000 332.072
34.28000 330.748
34.45000 328.602
34.62000 319.202
34.79000 330.655
34.96000 323.390
35.13000 311.681
35.30000 303.038
35.47000 322.449
35.64000 312.323
35.81000 311.058
35.98000 305.276
36.15000 297.886
36.32000 313.947
36.49000 297.758
36.66000 298.990
36.83000 288.174
37.00000 305.735
37.17000 311.177
37.34000 311.889
37.51000 289.216
37.68000 306.539
37.85000 286.306
38.02000 307.538
38.19000 314.199
38.36000 350.756
38.53000 709.374
38.70000 1549.740
38.87000 1120.153
39.04000 424.615
39.21000 306.789
39.38000 284.619
39.55000 278.223
39.72000 272.151
39.89000 253.618
40.06000 280.184
40.23000 268.845
40.40000 249.162
40.57000 252.628
40.74000 249.226
40.91000 252.862
41.08000 248.257
41.25000 238.168
41.42000 237.142
41.59000 239.383
41.76000 236.918
41.93000 241.817
42.10000 239.403
42.27000 236.289
42.44000 235.728
42.61000 232.694
42.78000 226.300
42.95000 229.157
43.12000 233.959
43.29000 225.821
43.46000 217.949
43.63000 227.037
43.80000 230.034
43.97000 229.825
44.14000 217.659
44.31000 227.579
44.48000 211.815
44.65000 223.178
44.82000 228.413
44.99000 247.687
45.16000 260.843
45.33000 254.326
45.50000 258.025
45.67000 245.436
45.84000 240.751
46.01000 215.864
46.18000 211.677
46.35000 209.538
46.52000 201.371
46.69000 199.574
46.86000 190.544
47.03000 190.687
47.20000 183.497
47.37000 195.083
47.54000 181.938
47.71000 192.709
47.88000 187.803
48.05000 187.332
48.22000 179.204
48.39000 195.838
48.56000 175.403
48.73000 182.964
48.90000 181.891
49.07000 192.530
49.24000 188.215
49.41000 182.708
49.58000 180.097
49.75000 172.108
49.92000 169.091
50.09000 174.413
50.26000 179.753
50.43000 185.102
50.60000 188.036
50.77000 207.227
50.94000 198.028
51.11000 179.707
51.28000 179.533
51.45000 179.309
51.62000 156.719
51.79000 167.367
51.96000 157.526
52.13000 161.243
52.30000 169.701
52.47000 159.126
52.64000 154.963
52.81000 158.553
52.98000 154.291
53.15000 155.817
53.32000 167.284
53.49000 153.663
53.66000 160.065
53.83000 157.479
54.00000 151.473
54.17000 163.134
54.34000 152.296
54.51000 163.584
54.68000 154.433
54.85000 151.678
55.02000 156.317
55.19000 168.434
55.36000 181.304
55.53000 221.471
55.70000 371.042
55.87000 783.652
56.04000 874.915
56.21000 573.682
56.38000 285.691
56.55000 180.794
56.72000 166.422
56.89000 158.819
57.06000 147.467
57.23000 141.501
57.40000 152.609
57.57000 146.183
57.74000 143.305
57.91000 141.865
58.08000 133.650
58.25000 146.913
58.42000 142.354
58.59000 135.449
58.76000 139.189
58.93000 132.652
59.10000 130.603
59.27000 130.523
59.44000 132.911
59.61000 127.891
59.78000 127.701
59.95000 138.251
60.12000 133.264
60.29000 129.547
60.46000 127.767
60.63000 133.236
60.80000 132.319
60.97000 140.363
61.14000 119.562
61.31000 145.344
61.48000 140.491
61.65000 257.913
61.82000 192.931
61.99000 132.770
62.16000 135.335
62.33000 143.795
62.50000 147.198
62.67000 130.326
62.84000 153.557
63.01000 143.334
63.18000 139.728
63.35000 140.813
63.52000 157.961
63.69000 141.076
63.86000 144.942
64.03000 149.076
64.20000 143.229
64.37000 154.318
64.54000 165.948
64.71000 177.766
64.88000 188.996
65.05000 198.397
65.22000 223.024
65.39000 246.046
65.56000 318.007
65.73000 589.761
65.90000 1049.112
66.07000 357.095
66.24000 327.281
66.41000 411.115
66.58000 325.452
66.75000 310.738
66.92000 311.719
67.09000 342.917
67.26000 362.187
67.43000 393.421
67.60000 418.173
67.77000 466.173
67.94000 493.697
68.11000 529.674
68.28000 591.056
68.45000 678.120
68.62000 955.224
68.79000 1726.384
68.96000 10908.049
69.13000 50770.965
69.30000 29841.234
69.47000 7194.813
69.64000 1135.628
69.81000 792.398
69.98000 652.373
70.00000 632.430