File: XRD/XRD/24-09-2025 Dep 3/XY Data/BTO_Mapping_Theta2Theta_24-09-2025_001_38_-8-090_-5-878.xy
20.00000 544.849
20.17000 599.378
20.34000 545.006
20.51000 577.383
20.68000 546.737
20.85000 566.443
21.02000 576.607
21.19000 544.009
21.36000 563.222
21.53000 512.106
21.70000 565.476
21.87000 641.950
22.04000 761.644
22.21000 682.099
22.38000 575.681
22.55000 542.777
22.72000 516.739
22.89000 524.174
23.06000 526.977
23.23000 507.227
23.40000 500.257
23.57000 498.688
23.74000 510.510
23.91000 502.222
24.08000 487.818
24.25000 481.078
24.42000 482.985
24.59000 492.800
24.76000 494.703
24.93000 477.950
25.10000 484.052
25.27000 475.130
25.44000 468.188
25.61000 470.216
25.78000 440.906
25.95000 475.542
26.12000 461.067
26.29000 434.895
26.46000 447.270
26.63000 458.773
26.80000 457.166
26.97000 463.501
27.14000 444.801
27.31000 423.043
27.48000 431.899
27.65000 427.043
27.82000 430.305
27.99000 424.792
28.16000 416.243
28.33000 449.051
28.50000 412.728
28.67000 426.653
28.84000 424.857
29.01000 420.627
29.18000 416.634
29.35000 417.373
29.52000 419.238
29.69000 406.648
29.86000 424.870
30.03000 455.598
30.20000 450.012
30.37000 427.487
30.54000 435.711
30.71000 452.579
30.88000 495.740
31.05000 779.471
31.22000 2127.360
31.39000 3613.612
31.56000 1979.763
31.73000 745.872
31.90000 488.512
32.07000 431.010
32.24000 392.856
32.41000 391.733
32.58000 380.799
32.75000 364.759
32.92000 510.774
33.09000 420.268
33.26000 345.303
33.43000 340.048
33.60000 343.149
33.77000 336.153
33.94000 328.987
34.11000 341.813
34.28000 332.685
34.45000 329.942
34.62000 327.102
34.79000 321.972
34.96000 308.257
35.13000 301.889
35.30000 303.891
35.47000 324.664
35.64000 302.689
35.81000 305.278
35.98000 312.887
36.15000 288.523
36.32000 299.204
36.49000 310.237
36.66000 317.060
36.83000 324.768
37.00000 302.236
37.17000 295.243
37.34000 303.707
37.51000 278.167
37.68000 304.000
37.85000 292.828
38.02000 297.699
38.19000 309.439
38.36000 404.577
38.53000 831.639
38.70000 1424.832
38.87000 880.497
39.04000 374.161
39.21000 295.377
39.38000 284.252
39.55000 282.005
39.72000 277.197
39.89000 270.343
40.06000 245.663
40.23000 255.760
40.40000 253.052
40.57000 263.724
40.74000 246.213
40.91000 243.376
41.08000 238.429
41.25000 245.920
41.42000 246.169
41.59000 229.181
41.76000 241.098
41.93000 242.727
42.10000 236.056
42.27000 238.932
42.44000 225.841
42.61000 234.466
42.78000 225.357
42.95000 235.233
43.12000 235.037
43.29000 240.473
43.46000 227.043
43.63000 217.385
43.80000 230.913
43.97000 228.689
44.14000 227.930
44.31000 218.746
44.48000 223.177
44.65000 246.998
44.82000 296.768
44.99000 399.668
45.16000 359.869
45.33000 310.659
45.50000 272.592
45.67000 257.616
45.84000 244.876
46.01000 218.338
46.18000 214.446
46.35000 211.752
46.52000 198.273
46.69000 197.508
46.86000 200.045
47.03000 206.293
47.20000 189.835
47.37000 190.563
47.54000 192.213
47.71000 196.607
47.88000 181.409
48.05000 198.414
48.22000 175.169
48.39000 166.848
48.56000 184.480
48.73000 171.255
48.90000 177.253
49.07000 174.932
49.24000 183.680
49.41000 171.828
49.58000 177.589
49.75000 185.159
49.92000 180.465
50.09000 174.450
50.26000 185.817
50.43000 215.226
50.60000 258.226
50.77000 251.300
50.94000 213.778
51.11000 192.605
51.28000 177.255
51.45000 172.149
51.62000 160.457
51.79000 154.362
51.96000 161.006
52.13000 165.026
52.30000 171.618
52.47000 159.454
52.64000 169.258
52.81000 170.423
52.98000 157.913
53.15000 151.645
53.32000 166.386
53.49000 167.862
53.66000 161.890
53.83000 160.223
54.00000 155.643
54.17000 155.321
54.34000 159.084
54.51000 157.425
54.68000 145.715
54.85000 150.663
55.02000 163.470
55.19000 170.646
55.36000 174.032
55.53000 240.326
55.70000 426.522
55.87000 794.928
56.04000 696.897
56.21000 398.964
56.38000 224.378
56.55000 185.329
56.72000 158.831
56.89000 160.804
57.06000 149.608
57.23000 142.895
57.40000 143.838
57.57000 136.788
57.74000 145.902
57.91000 144.680
58.08000 149.527
58.25000 134.166
58.42000 142.653
58.59000 142.465
58.76000 131.314
58.93000 131.112
59.10000 141.568
59.27000 139.118
59.44000 129.075
59.61000 131.664
59.78000 145.085
59.95000 128.169
60.12000 123.106
60.29000 126.206
60.46000 122.728
60.63000 131.555
60.80000 133.620
60.97000 131.591
61.14000 136.863
61.31000 142.261
61.48000 141.166
61.65000 280.452
61.82000 202.214
61.99000 137.695
62.16000 146.197
62.33000 145.481
62.50000 151.073
62.67000 141.977
62.84000 143.643
63.01000 141.752
63.18000 137.207
63.35000 160.973
63.52000 156.519
63.69000 158.746
63.86000 154.271
64.03000 150.216
64.20000 164.074
64.37000 176.623
64.54000 173.824
64.71000 178.466
64.88000 183.068
65.05000 200.389
65.22000 262.093
65.39000 353.654
65.56000 422.210
65.73000 801.045
65.90000 1262.289
66.07000 394.138
66.24000 326.669
66.41000 476.895
66.58000 324.037
66.75000 337.109
66.92000 332.206
67.09000 354.889
67.26000 388.314
67.43000 405.413
67.60000 441.020
67.77000 466.079
67.94000 518.317
68.11000 567.801
68.28000 608.377
68.45000 723.233
68.62000 1040.662
68.79000 2055.688
68.96000 14762.604
69.13000 62009.168
69.30000 35831.055
69.47000 8099.171
69.64000 1260.350
69.81000 825.574
69.98000 677.016
70.00000 656.719