File: XRD/XRD/24-09-2025 Dep 3/XY Data/BTO_Mapping_Theta2Theta_24-09-2025_001_61_36-542_-16-269.xy
20.00000 563.199
20.17000 549.366
20.34000 544.617
20.51000 564.504
20.68000 562.684
20.85000 556.519
21.02000 526.080
21.19000 567.936
21.36000 552.362
21.53000 566.581
21.70000 579.299
21.87000 598.158
22.04000 622.984
22.21000 595.648
22.38000 555.749
22.55000 549.421
22.72000 526.660
22.89000 527.014
23.06000 518.279
23.23000 529.029
23.40000 525.148
23.57000 513.678
23.74000 544.606
23.91000 574.736
24.08000 556.801
24.25000 514.381
24.42000 488.726
24.59000 490.807
24.76000 482.173
24.93000 493.269
25.10000 474.351
25.27000 490.395
25.44000 485.060
25.61000 466.057
25.78000 467.670
25.95000 474.260
26.12000 467.568
26.29000 457.913
26.46000 468.933
26.63000 463.778
26.80000 442.930
26.97000 429.909
27.14000 456.104
27.31000 442.743
27.48000 448.387
27.65000 435.702
27.82000 439.413
27.99000 424.959
28.16000 423.147
28.33000 417.616
28.50000 439.650
28.67000 406.782
28.84000 415.019
29.01000 422.251
29.18000 412.283
29.35000 413.206
29.52000 397.686
29.69000 423.739
29.86000 421.137
30.03000 435.828
30.20000 417.050
30.37000 424.007
30.54000 406.783
30.71000 451.187
30.88000 469.346
31.05000 536.742
31.22000 834.999
31.39000 1111.185
31.56000 876.553
31.73000 530.064
31.90000 445.431
32.07000 408.989
32.24000 408.429
32.41000 388.797
32.58000 388.034
32.75000 387.973
32.92000 469.316
33.09000 401.091
33.26000 355.637
33.43000 342.920
33.60000 344.542
33.77000 350.289
33.94000 343.269
34.11000 364.244
34.28000 371.859
34.45000 356.859
34.62000 324.142
34.79000 344.753
34.96000 328.159
35.13000 326.625
35.30000 339.079
35.47000 309.924
35.64000 309.009
35.81000 303.962
35.98000 308.244
36.15000 306.070
36.32000 287.630
36.49000 298.876
36.66000 300.532
36.83000 303.069
37.00000 295.243
37.17000 308.979
37.34000 304.488
37.51000 294.227
37.68000 305.273
37.85000 301.810
38.02000 301.616
38.19000 307.986
38.36000 375.091
38.53000 638.008
38.70000 1052.344
38.87000 744.304
39.04000 382.122
39.21000 297.207
39.38000 302.694
39.55000 284.668
39.72000 293.604
39.89000 283.139
40.06000 261.219
40.23000 267.461
40.40000 273.660
40.57000 255.773
40.74000 256.627
40.91000 259.627
41.08000 246.306
41.25000 230.249
41.42000 241.746
41.59000 243.032
41.76000 237.141
41.93000 238.534
42.10000 252.637
42.27000 253.843
42.44000 244.694
42.61000 234.384
42.78000 236.120
42.95000 226.013
43.12000 232.350
43.29000 226.588
43.46000 229.978
43.63000 229.768
43.80000 230.195
43.97000 228.154
44.14000 227.805
44.31000 242.463
44.48000 251.241
44.65000 252.067
44.82000 267.417
44.99000 275.701
45.16000 286.128
45.33000 257.712
45.50000 239.608
45.67000 211.910
45.84000 216.231
46.01000 207.486
46.18000 199.852
46.35000 202.418
46.52000 214.280
46.69000 206.516
46.86000 200.017
47.03000 195.497
47.20000 191.418
47.37000 193.015
47.54000 200.614
47.71000 187.758
47.88000 181.691
48.05000 187.804
48.22000 183.358
48.39000 188.914
48.56000 176.193
48.73000 187.241
48.90000 186.078
49.07000 188.163
49.24000 186.829
49.41000 187.134
49.58000 177.055
49.75000 183.691
49.92000 179.495
50.09000 177.725
50.26000 177.537
50.43000 183.278
50.60000 181.538
50.77000 188.946
50.94000 188.246
51.11000 178.278
51.28000 173.358
51.45000 174.306
51.62000 170.245
51.79000 168.784
51.96000 174.929
52.13000 171.076
52.30000 161.059
52.47000 164.327
52.64000 160.506
52.81000 161.294
52.98000 171.178
53.15000 167.588
53.32000 164.410
53.49000 163.844
53.66000 166.150
53.83000 161.225
54.00000 157.092
54.17000 163.175
54.34000 163.589
54.51000 192.275
54.68000 159.597
54.85000 161.451
55.02000 181.966
55.19000 175.675
55.36000 194.100
55.53000 244.854
55.70000 345.456
55.87000 484.070
56.04000 475.805
56.21000 328.377
56.38000 223.496
56.55000 194.226
56.72000 157.409
56.89000 159.656
57.06000 152.606
57.23000 153.981
57.40000 147.867
57.57000 151.747
57.74000 157.002
57.91000 134.299
58.08000 130.890
58.25000 145.253
58.42000 140.572
58.59000 140.189
58.76000 135.103
58.93000 130.875
59.10000 144.105
59.27000 146.421
59.44000 133.610
59.61000 130.876
59.78000 137.360
59.95000 138.176
60.12000 133.030
60.29000 139.122
60.46000 134.860
60.63000 134.112
60.80000 133.139
60.97000 140.938
61.14000 143.549
61.31000 142.606
61.48000 144.662
61.65000 250.073
61.82000 199.398
61.99000 154.514
62.16000 141.930
62.33000 136.751
62.50000 149.484
62.67000 136.130
62.84000 134.803
63.01000 143.359
63.18000 151.495
63.35000 148.749
63.52000 149.317
63.69000 150.003
63.86000 153.096
64.03000 162.071
64.20000 154.303
64.37000 171.749
64.54000 165.691
64.71000 165.828
64.88000 189.019
65.05000 184.009
65.22000 214.315
65.39000 223.706
65.56000 259.473
65.73000 569.327
65.90000 1045.325
66.07000 374.601
66.24000 309.590
66.41000 448.952
66.58000 336.826
66.75000 314.057
66.92000 314.902
67.09000 345.936
67.26000 377.354
67.43000 395.710
67.60000 428.301
67.77000 484.211
67.94000 516.080
68.11000 550.292
68.28000 629.424
68.45000 692.501
68.62000 982.959
68.79000 1741.594
68.96000 11196.246
69.13000 52876.633
69.30000 30786.053
69.47000 7198.470
69.64000 1189.813
69.81000 780.899
69.98000 645.215
70.00000 644.497