File: XRD/XRD/24-09-2025 Dep 3/XY Data/BTO_Mapping_Theta2Theta_24-09-2025_001_10_6-691_7-431.xy
20.00000 580.932
20.17000 556.789
20.34000 559.195
20.51000 559.425
20.68000 555.750
20.85000 559.417
21.02000 540.108
21.19000 534.023
21.36000 526.395
21.53000 548.183
21.70000 527.354
21.87000 559.786
22.04000 618.925
22.21000 606.941
22.38000 593.323
22.55000 531.496
22.72000 509.636
22.89000 495.188
23.06000 501.069
23.23000 501.703
23.40000 499.791
23.57000 506.805
23.74000 499.738
23.91000 495.896
24.08000 494.632
24.25000 492.159
24.42000 495.532
24.59000 480.673
24.76000 474.883
24.93000 493.071
25.10000 477.923
25.27000 480.679
25.44000 467.071
25.61000 472.858
25.78000 451.285
25.95000 462.229
26.12000 456.087
26.29000 469.763
26.46000 445.696
26.63000 464.481
26.80000 435.781
26.97000 444.428
27.14000 447.048
27.31000 436.492
27.48000 430.945
27.65000 427.055
27.82000 432.436
27.99000 429.758
28.16000 416.178
28.33000 435.881
28.50000 437.368
28.67000 404.654
28.84000 435.426
29.01000 413.133
29.18000 413.647
29.35000 420.276
29.52000 420.445
29.69000 423.208
29.86000 441.535
30.03000 411.752
30.20000 431.744
30.37000 416.657
30.54000 404.963
30.71000 428.486
30.88000 459.472
31.05000 568.644
31.22000 1232.425
31.39000 2286.440
31.56000 1538.334
31.73000 673.040
31.90000 452.495
32.07000 419.145
32.24000 408.138
32.41000 382.342
32.58000 391.195
32.75000 378.066
32.92000 464.638
33.09000 380.982
33.26000 338.585
33.43000 339.863
33.60000 336.713
33.77000 320.860
33.94000 345.169
34.11000 330.009
34.28000 321.320
34.45000 327.710
34.62000 309.627
34.79000 311.959
34.96000 327.597
35.13000 309.817
35.30000 308.514
35.47000 292.013
35.64000 313.749
35.81000 308.138
35.98000 298.267
36.15000 300.617
36.32000 306.200
36.49000 300.531
36.66000 289.332
36.83000 294.170
37.00000 306.499
37.17000 309.824
37.34000 308.665
37.51000 295.673
37.68000 274.198
37.85000 289.807
38.02000 296.162
38.19000 299.486
38.36000 346.776
38.53000 690.911
38.70000 1543.763
38.87000 1153.538
39.04000 439.323
39.21000 293.430
39.38000 277.314
39.55000 287.187
39.72000 268.997
39.89000 265.296
40.06000 241.505
40.23000 259.802
40.40000 255.557
40.57000 264.813
40.74000 249.174
40.91000 250.463
41.08000 249.739
41.25000 250.863
41.42000 248.408
41.59000 253.005
41.76000 234.898
41.93000 225.698
42.10000 234.754
42.27000 242.831
42.44000 224.536
42.61000 233.691
42.78000 232.121
42.95000 222.353
43.12000 212.675
43.29000 230.083
43.46000 212.354
43.63000 214.940
43.80000 228.551
43.97000 224.395
44.14000 225.100
44.31000 216.397
44.48000 219.435
44.65000 230.996
44.82000 241.423
44.99000 275.682
45.16000 291.768
45.33000 279.595
45.50000 247.008
45.67000 252.190
45.84000 228.094
46.01000 230.630
46.18000 202.727
46.35000 208.523
46.52000 204.149
46.69000 203.926
46.86000 185.943
47.03000 197.214
47.20000 197.374
47.37000 194.633
47.54000 195.267
47.71000 186.322
47.88000 182.633
48.05000 188.583
48.22000 179.583
48.39000 172.470
48.56000 181.770
48.73000 184.676
48.90000 180.704
49.07000 180.375
49.24000 168.767
49.41000 169.350
49.58000 181.938
49.75000 182.030
49.92000 168.818
50.09000 181.251
50.26000 173.861
50.43000 191.410
50.60000 209.550
50.77000 210.765
50.94000 202.166
51.11000 177.998
51.28000 182.452
51.45000 170.439
51.62000 165.386
51.79000 163.159
51.96000 166.076
52.13000 163.805
52.30000 162.202
52.47000 156.427
52.64000 146.902
52.81000 164.505
52.98000 159.169
53.15000 161.075
53.32000 170.613
53.49000 165.899
53.66000 171.949
53.83000 147.217
54.00000 162.077
54.17000 165.312
54.34000 155.286
54.51000 157.880
54.68000 156.496
54.85000 156.661
55.02000 162.576
55.19000 166.984
55.36000 180.911
55.53000 227.967
55.70000 383.102
55.87000 759.540
56.04000 879.789
56.21000 559.056
56.38000 286.632
56.55000 191.836
56.72000 163.308
56.89000 143.493
57.06000 148.041
57.23000 158.459
57.40000 141.499
57.57000 148.662
57.74000 160.048
57.91000 142.265
58.08000 133.505
58.25000 130.070
58.42000 140.850
58.59000 131.088
58.76000 135.897
58.93000 141.003
59.10000 133.875
59.27000 135.347
59.44000 133.809
59.61000 136.377
59.78000 138.845
59.95000 131.046
60.12000 139.057
60.29000 127.215
60.46000 133.930
60.63000 131.214
60.80000 127.562
60.97000 130.191
61.14000 126.147
61.31000 126.890
61.48000 145.140
61.65000 250.486
61.82000 189.516
61.99000 139.824
62.16000 137.580
62.33000 139.202
62.50000 138.677
62.67000 141.600
62.84000 134.500
63.01000 134.907
63.18000 136.150
63.35000 146.819
63.52000 144.654
63.69000 151.983
63.86000 154.558
64.03000 142.225
64.20000 156.579
64.37000 160.947
64.54000 167.901
64.71000 178.192
64.88000 174.598
65.05000 182.996
65.22000 222.116
65.39000 278.407
65.56000 321.364
65.73000 615.418
65.90000 1078.870
66.07000 396.110
66.24000 299.940
66.41000 420.747
66.58000 339.225
66.75000 306.293
66.92000 331.009
67.09000 343.043
67.26000 349.342
67.43000 386.659
67.60000 412.459
67.77000 460.180
67.94000 484.924
68.11000 516.859
68.28000 575.659
68.45000 658.447
68.62000 976.646
68.79000 1753.048
68.96000 11129.644
69.13000 51802.125
69.30000 30653.496
69.47000 7324.199
69.64000 1145.024
69.81000 789.062
69.98000 638.709
70.00000 627.781