File: XRD/XRD/24-09-2025 Dep 3/XY Data/BTO_Mapping_Theta2Theta_24-09-2025_001_50_3-090_-9-511.xy
20.00000 555.746
20.17000 562.596
20.34000 566.722
20.51000 549.611
20.68000 556.164
20.85000 544.143
21.02000 551.260
21.19000 566.056
21.36000 553.237
21.53000 543.070
21.70000 549.731
21.87000 572.244
22.04000 665.395
22.21000 625.078
22.38000 580.805
22.55000 558.097
22.72000 514.998
22.89000 505.008
23.06000 520.253
23.23000 502.387
23.40000 512.150
23.57000 487.324
23.74000 501.502
23.91000 484.141
24.08000 499.233
24.25000 499.814
24.42000 484.623
24.59000 483.563
24.76000 494.769
24.93000 481.447
25.10000 464.326
25.27000 457.566
25.44000 478.001
25.61000 466.342
25.78000 457.036
25.95000 447.691
26.12000 452.534
26.29000 465.681
26.46000 441.592
26.63000 445.252
26.80000 448.530
26.97000 442.788
27.14000 429.118
27.31000 439.683
27.48000 439.408
27.65000 431.680
27.82000 435.052
27.99000 424.738
28.16000 423.637
28.33000 410.463
28.50000 431.387
28.67000 411.246
28.84000 416.144
29.01000 414.613
29.18000 411.610
29.35000 405.771
29.52000 408.405
29.69000 407.406
29.86000 418.532
30.03000 439.043
30.20000 430.904
30.37000 417.623
30.54000 416.773
30.71000 431.840
30.88000 471.432
31.05000 625.022
31.22000 1503.040
31.39000 2630.678
31.56000 1635.283
31.73000 692.362
31.90000 460.181
32.07000 417.825
32.24000 399.865
32.41000 376.357
32.58000 367.277
32.75000 378.310
32.92000 457.315
33.09000 411.435
33.26000 352.498
33.43000 339.050
33.60000 338.895
33.77000 343.024
33.94000 337.267
34.11000 332.112
34.28000 336.299
34.45000 313.861
34.62000 322.614
34.79000 320.749
34.96000 318.583
35.13000 305.720
35.30000 321.186
35.47000 319.327
35.64000 313.805
35.81000 291.164
35.98000 315.204
36.15000 288.540
36.32000 286.338
36.49000 288.951
36.66000 292.155
36.83000 290.553
37.00000 305.894
37.17000 318.051
37.34000 288.398
37.51000 295.541
37.68000 280.547
37.85000 302.698
38.02000 294.072
38.19000 301.278
38.36000 375.318
38.53000 745.875
38.70000 1571.274
38.87000 1123.835
39.04000 408.268
39.21000 310.702
39.38000 281.987
39.55000 272.560
39.72000 263.586
39.89000 268.268
40.06000 270.676
40.23000 266.733
40.40000 254.213
40.57000 239.410
40.74000 246.639
40.91000 246.600
41.08000 244.672
41.25000 240.915
41.42000 248.188
41.59000 236.924
41.76000 244.906
41.93000 249.646
42.10000 238.003
42.27000 227.524
42.44000 239.641
42.61000 238.608
42.78000 236.062
42.95000 219.933
43.12000 226.254
43.29000 234.578
43.46000 217.259
43.63000 215.986
43.80000 218.608
43.97000 215.582
44.14000 216.654
44.31000 207.941
44.48000 221.172
44.65000 215.176
44.82000 248.959
44.99000 290.353
45.16000 319.894
45.33000 275.726
45.50000 248.444
45.67000 239.744
45.84000 236.120
46.01000 209.996
46.18000 216.425
46.35000 196.268
46.52000 205.694
46.69000 197.331
46.86000 199.533
47.03000 201.373
47.20000 195.565
47.37000 189.525
47.54000 190.999
47.71000 188.207
47.88000 191.242
48.05000 179.525
48.22000 193.673
48.39000 167.741
48.56000 182.846
48.73000 172.643
48.90000 175.848
49.07000 179.567
49.24000 181.752
49.41000 184.890
49.58000 174.668
49.75000 178.486
49.92000 186.130
50.09000 179.585
50.26000 181.261
50.43000 191.088
50.60000 212.086
50.77000 224.767
50.94000 211.910
51.11000 177.190
51.28000 171.046
51.45000 163.629
51.62000 176.404
51.79000 159.741
51.96000 173.817
52.13000 158.048
52.30000 161.509
52.47000 154.573
52.64000 156.797
52.81000 164.432
52.98000 161.955
53.15000 155.778
53.32000 163.257
53.49000 158.546
53.66000 166.431
53.83000 145.505
54.00000 161.578
54.17000 159.248
54.34000 157.919
54.51000 158.706
54.68000 151.477
54.85000 165.372
55.02000 152.926
55.19000 173.494
55.36000 177.084
55.53000 224.781
55.70000 400.534
55.87000 781.444
56.04000 836.074
56.21000 509.769
56.38000 266.794
56.55000 187.588
56.72000 176.699
56.89000 154.694
57.06000 155.479
57.23000 140.238
57.40000 142.964
57.57000 146.719
57.74000 133.243
57.91000 140.883
58.08000 139.513
58.25000 144.294
58.42000 128.849
58.59000 147.624
58.76000 137.626
58.93000 126.613
59.10000 137.161
59.27000 143.438
59.44000 126.876
59.61000 140.020
59.78000 134.278
59.95000 127.247
60.12000 122.201
60.29000 130.555
60.46000 139.397
60.63000 122.915
60.80000 132.259
60.97000 130.754
61.14000 142.259
61.31000 135.541
61.48000 140.874
61.65000 244.300
61.82000 195.636
61.99000 140.959
62.16000 142.399
62.33000 138.532
62.50000 152.500
62.67000 146.996
62.84000 143.744
63.01000 140.844
63.18000 131.639
63.35000 147.195
63.52000 154.884
63.69000 144.591
63.86000 152.093
64.03000 147.020
64.20000 157.196
64.37000 165.563
64.54000 167.281
64.71000 169.411
64.88000 171.157
65.05000 190.175
65.22000 238.347
65.39000 285.296
65.56000 358.942
65.73000 646.949
65.90000 1062.569
66.07000 369.445
66.24000 329.815
66.41000 445.999
66.58000 328.060
66.75000 293.345
66.92000 321.884
67.09000 341.159
67.26000 366.296
67.43000 391.933
67.60000 414.224
67.77000 421.645
67.94000 479.779
68.11000 528.235
68.28000 602.878
68.45000 670.474
68.62000 958.956
68.79000 1831.283
68.96000 12128.021
69.13000 53150.223
69.30000 30859.346
69.47000 7138.201
69.64000 1176.688
69.81000 810.133
69.98000 643.775
70.00000 640.884