File: XRD/XRD/24-09-2025 Dep 3/XY Data/BTO_Mapping_Theta2Theta_24-09-2025_001_13_26-765_29-726.xy
20.00000 576.740
20.17000 570.387
20.34000 558.116
20.51000 551.792
20.68000 548.922
20.85000 540.299
21.02000 544.016
21.19000 533.598
21.36000 538.667
21.53000 553.832
21.70000 571.242
21.87000 565.445
22.04000 586.863
22.21000 607.539
22.38000 569.661
22.55000 540.070
22.72000 518.984
22.89000 517.266
23.06000 506.661
23.23000 528.528
23.40000 510.099
23.57000 518.927
23.74000 523.790
23.91000 540.436
24.08000 527.388
24.25000 492.015
24.42000 504.895
24.59000 488.306
24.76000 484.942
24.93000 476.359
25.10000 469.100
25.27000 480.134
25.44000 465.607
25.61000 471.855
25.78000 478.665
25.95000 463.410
26.12000 459.073
26.29000 457.774
26.46000 453.451
26.63000 466.965
26.80000 439.861
26.97000 440.755
27.14000 464.328
27.31000 452.842
27.48000 435.814
27.65000 434.562
27.82000 432.358
27.99000 435.656
28.16000 414.771
28.33000 433.502
28.50000 416.466
28.67000 428.534
28.84000 420.375
29.01000 412.064
29.18000 419.601
29.35000 415.385
29.52000 407.885
29.69000 401.277
29.86000 410.252
30.03000 451.465
30.20000 423.167
30.37000 415.382
30.54000 428.257
30.71000 420.318
30.88000 439.478
31.05000 549.740
31.22000 848.441
31.39000 1283.883
31.56000 1026.366
31.73000 598.530
31.90000 453.853
32.07000 417.262
32.24000 405.910
32.41000 409.215
32.58000 384.052
32.75000 351.028
32.92000 460.180
33.09000 422.504
33.26000 343.782
33.43000 346.768
33.60000 353.908
33.77000 340.821
33.94000 336.935
34.11000 339.120
34.28000 363.402
34.45000 341.522
34.62000 346.658
34.79000 327.096
34.96000 323.106
35.13000 310.038
35.30000 307.972
35.47000 314.721
35.64000 310.637
35.81000 315.139
35.98000 301.175
36.15000 306.487
36.32000 292.975
36.49000 315.163
36.66000 284.526
36.83000 290.347
37.00000 309.592
37.17000 307.207
37.34000 311.094
37.51000 293.094
37.68000 288.511
37.85000 294.632
38.02000 304.480
38.19000 310.391
38.36000 351.125
38.53000 582.713
38.70000 1181.208
38.87000 975.739
39.04000 416.716
39.21000 292.146
39.38000 287.067
39.55000 283.195
39.72000 267.183
39.89000 258.576
40.06000 258.593
40.23000 254.873
40.40000 248.869
40.57000 261.270
40.74000 263.362
40.91000 265.655
41.08000 255.819
41.25000 248.971
41.42000 242.633
41.59000 234.460
41.76000 233.004
41.93000 249.823
42.10000 247.217
42.27000 251.415
42.44000 242.073
42.61000 224.322
42.78000 235.945
42.95000 230.616
43.12000 230.831
43.29000 235.623
43.46000 227.743
43.63000 223.841
43.80000 213.689
43.97000 222.452
44.14000 222.625
44.31000 219.531
44.48000 228.792
44.65000 245.220
44.82000 252.884
44.99000 252.547
45.16000 265.042
45.33000 251.155
45.50000 240.767
45.67000 217.161
45.84000 204.690
46.01000 207.399
46.18000 213.514
46.35000 211.420
46.52000 197.224
46.69000 204.822
46.86000 203.065
47.03000 192.640
47.20000 193.796
47.37000 195.978
47.54000 189.571
47.71000 189.205
47.88000 186.798
48.05000 188.761
48.22000 186.241
48.39000 172.565
48.56000 185.332
48.73000 178.719
48.90000 191.739
49.07000 186.755
49.24000 183.399
49.41000 175.038
49.58000 181.077
49.75000 175.594
49.92000 178.611
50.09000 165.505
50.26000 182.066
50.43000 180.259
50.60000 178.616
50.77000 183.144
50.94000 187.482
51.11000 169.542
51.28000 167.715
51.45000 163.394
51.62000 166.229
51.79000 169.229
51.96000 169.259
52.13000 152.769
52.30000 164.247
52.47000 155.301
52.64000 159.800
52.81000 170.594
52.98000 166.360
53.15000 162.603
53.32000 151.671
53.49000 174.176
53.66000 149.812
53.83000 160.900
54.00000 160.592
54.17000 158.886
54.34000 165.273
54.51000 166.924
54.68000 162.148
54.85000 162.000
55.02000 164.356
55.19000 175.195
55.36000 173.982
55.53000 220.046
55.70000 335.162
55.87000 543.270
56.04000 627.586
56.21000 425.408
56.38000 241.892
56.55000 185.311
56.72000 170.533
56.89000 167.911
57.06000 153.602
57.23000 152.730
57.40000 141.268
57.57000 144.360
57.74000 150.336
57.91000 141.679
58.08000 145.716
58.25000 140.155
58.42000 133.499
58.59000 141.333
58.76000 135.254
58.93000 134.722
59.10000 126.845
59.27000 145.194
59.44000 133.909
59.61000 138.782
59.78000 138.848
59.95000 145.083
60.12000 132.528
60.29000 142.074
60.46000 131.407
60.63000 127.948
60.80000 139.772
60.97000 142.955
61.14000 131.127
61.31000 134.407
61.48000 144.467
61.65000 278.439
61.82000 205.082
61.99000 147.697
62.16000 145.793
62.33000 141.461
62.50000 147.612
62.67000 134.771
62.84000 138.848
63.01000 147.410
63.18000 147.637
63.35000 141.835
63.52000 146.464
63.69000 162.072
63.86000 149.649
64.03000 157.782
64.20000 152.904
64.37000 162.342
64.54000 163.763
64.71000 167.111
64.88000 181.618
65.05000 178.766
65.22000 196.811
65.39000 236.548
65.56000 275.688
65.73000 538.717
65.90000 1088.540
66.07000 402.502
66.24000 307.615
66.41000 422.166
66.58000 350.652
66.75000 305.381
66.92000 320.008
67.09000 346.482
67.26000 371.957
67.43000 398.271
67.60000 437.935
67.77000 437.038
67.94000 518.019
68.11000 553.422
68.28000 583.800
68.45000 677.401
68.62000 955.861
68.79000 1753.829
68.96000 9585.650
69.13000 53742.938
69.30000 32431.486
69.47000 8674.199
69.64000 1215.584
69.81000 800.262
69.98000 648.117
70.00000 656.380