File: XRD/XRD/24-09-2025 Dep 3/XY Data/BTO_Mapping_Theta2Theta_24-09-2025_001_19_-2-091_19-890.xy
20.00000 559.707
20.17000 553.934
20.34000 562.334
20.51000 553.558
20.68000 574.682
20.85000 544.103
21.02000 563.273
21.19000 558.182
21.36000 549.549
21.53000 547.928
21.70000 570.789
21.87000 598.660
22.04000 670.344
22.21000 644.991
22.38000 578.027
22.55000 541.308
22.72000 543.709
22.89000 529.119
23.06000 498.860
23.23000 520.440
23.40000 481.066
23.57000 499.687
23.74000 500.175
23.91000 492.546
24.08000 499.435
24.25000 468.553
24.42000 494.619
24.59000 487.344
24.76000 477.070
24.93000 479.025
25.10000 479.538
25.27000 468.756
25.44000 478.679
25.61000 450.432
25.78000 471.226
25.95000 448.357
26.12000 472.770
26.29000 450.165
26.46000 450.652
26.63000 460.243
26.80000 439.590
26.97000 440.652
27.14000 442.911
27.31000 446.897
27.48000 445.627
27.65000 414.487
27.82000 423.433
27.99000 423.288
28.16000 427.624
28.33000 429.837
28.50000 439.992
28.67000 414.692
28.84000 418.363
29.01000 434.751
29.18000 406.925
29.35000 389.010
29.52000 411.116
29.69000 411.640
29.86000 443.110
30.03000 451.683
30.20000 437.770
30.37000 420.878
30.54000 434.101
30.71000 433.324
30.88000 470.497
31.05000 604.252
31.22000 1571.485
31.39000 2972.871
31.56000 1926.792
31.73000 755.966
31.90000 498.143
32.07000 426.216
32.24000 408.669
32.41000 403.006
32.58000 380.314
32.75000 366.591
32.92000 476.323
33.09000 415.161
33.26000 351.695
33.43000 364.671
33.60000 342.359
33.77000 329.504
33.94000 335.061
34.11000 324.687
34.28000 331.584
34.45000 338.192
34.62000 317.848
34.79000 328.809
34.96000 311.593
35.13000 327.936
35.30000 307.469
35.47000 314.228
35.64000 311.137
35.81000 307.845
35.98000 298.810
36.15000 290.418
36.32000 302.238
36.49000 294.119
36.66000 281.974
36.83000 296.455
37.00000 299.325
37.17000 315.714
37.34000 300.593
37.51000 294.319
37.68000 295.002
37.85000 303.394
38.02000 302.662
38.19000 308.954
38.36000 377.598
38.53000 700.970
38.70000 1543.429
38.87000 1103.125
39.04000 425.349
39.21000 315.776
39.38000 294.107
39.55000 279.195
39.72000 280.281
39.89000 273.170
40.06000 275.775
40.23000 263.862
40.40000 251.171
40.57000 247.848
40.74000 239.026
40.91000 241.632
41.08000 250.073
41.25000 244.884
41.42000 242.036
41.59000 236.629
41.76000 244.323
41.93000 232.933
42.10000 246.007
42.27000 234.050
42.44000 234.475
42.61000 231.576
42.78000 221.899
42.95000 231.118
43.12000 230.466
43.29000 220.339
43.46000 228.955
43.63000 227.814
43.80000 220.051
43.97000 216.121
44.14000 221.778
44.31000 220.255
44.48000 230.499
44.65000 227.964
44.82000 257.630
44.99000 320.152
45.16000 323.545
45.33000 296.034
45.50000 265.975
45.67000 252.651
45.84000 229.857
46.01000 207.705
46.18000 198.968
46.35000 203.585
46.52000 215.605
46.69000 206.838
46.86000 197.476
47.03000 200.751
47.20000 197.125
47.37000 187.342
47.54000 192.431
47.71000 194.095
47.88000 187.768
48.05000 177.394
48.22000 178.143
48.39000 176.569
48.56000 188.028
48.73000 173.749
48.90000 181.944
49.07000 171.816
49.24000 177.503
49.41000 178.598
49.58000 162.644
49.75000 176.550
49.92000 178.694
50.09000 182.261
50.26000 178.723
50.43000 196.813
50.60000 233.877
50.77000 244.817
50.94000 228.914
51.11000 192.883
51.28000 182.304
51.45000 171.535
51.62000 170.837
51.79000 177.772
51.96000 165.947
52.13000 152.590
52.30000 162.530
52.47000 163.839
52.64000 164.353
52.81000 159.223
52.98000 157.952
53.15000 151.424
53.32000 166.372
53.49000 176.456
53.66000 161.473
53.83000 160.067
54.00000 165.981
54.17000 157.021
54.34000 155.250
54.51000 148.166
54.68000 138.075
54.85000 166.882
55.02000 170.648
55.19000 156.438
55.36000 176.755
55.53000 217.093
55.70000 351.209
55.87000 725.029
56.04000 802.411
56.21000 472.419
56.38000 255.628
56.55000 182.125
56.72000 164.164
56.89000 150.515
57.06000 159.459
57.23000 148.700
57.40000 151.449
57.57000 146.703
57.74000 137.665
57.91000 147.438
58.08000 132.005
58.25000 124.642
58.42000 150.199
58.59000 128.226
58.76000 137.462
58.93000 143.824
59.10000 133.277
59.27000 139.803
59.44000 141.500
59.61000 134.759
59.78000 125.100
59.95000 128.011
60.12000 134.117
60.29000 129.131
60.46000 130.255
60.63000 130.041
60.80000 129.406
60.97000 124.456
61.14000 139.791
61.31000 137.230
61.48000 149.929
61.65000 272.609
61.82000 197.012
61.99000 138.600
62.16000 142.721
62.33000 136.325
62.50000 142.587
62.67000 144.096
62.84000 144.720
63.01000 142.682
63.18000 146.432
63.35000 140.650
63.52000 145.275
63.69000 145.473
63.86000 144.375
64.03000 156.003
64.20000 159.927
64.37000 162.646
64.54000 170.433
64.71000 171.631
64.88000 180.576
65.05000 211.553
65.22000 226.361
65.39000 292.621
65.56000 369.389
65.73000 712.176
65.90000 1173.442
66.07000 405.881
66.24000 328.858
66.41000 443.826
66.58000 363.605
66.75000 321.500
66.92000 339.638
67.09000 337.232
67.26000 382.918
67.43000 384.351
67.60000 419.430
67.77000 463.910
67.94000 489.544
68.11000 550.113
68.28000 595.636
68.45000 700.216
68.62000 989.511
68.79000 1840.132
68.96000 11966.414
69.13000 56477.746
69.30000 33500.746
69.47000 8133.632
69.64000 1215.578
69.81000 817.052
69.98000 682.182
70.00000 659.555