File: XRD/XRD/24-09-2025 Dep 3/XY Data/BTO_Mapping_Theta2Theta_24-09-2025_001_30_-9-781_2-079.xy
20.00000 576.985
20.17000 557.058
20.34000 579.291
20.51000 553.863
20.68000 536.420
20.85000 561.908
21.02000 556.312
21.19000 557.175
21.36000 552.261
21.53000 534.635
21.70000 563.660
21.87000 650.249
22.04000 788.565
22.21000 689.824
22.38000 585.529
22.55000 548.712
22.72000 543.319
22.89000 514.457
23.06000 524.044
23.23000 500.718
23.40000 494.918
23.57000 489.396
23.74000 511.696
23.91000 503.877
24.08000 499.516
24.25000 472.591
24.42000 492.680
24.59000 500.197
24.76000 494.374
24.93000 496.032
25.10000 477.783
25.27000 460.804
25.44000 473.969
25.61000 452.509
25.78000 449.981
25.95000 480.827
26.12000 460.200
26.29000 473.998
26.46000 460.894
26.63000 427.504
26.80000 458.488
26.97000 453.739
27.14000 429.317
27.31000 438.389
27.48000 449.269
27.65000 433.161
27.82000 422.232
27.99000 430.312
28.16000 434.193
28.33000 450.533
28.50000 417.826
28.67000 436.921
28.84000 430.446
29.01000 428.673
29.18000 429.621
29.35000 411.899
29.52000 418.354
29.69000 404.636
29.86000 444.372
30.03000 449.588
30.20000 452.325
30.37000 443.045
30.54000 436.385
30.71000 452.965
30.88000 506.324
31.05000 742.255
31.22000 2128.440
31.39000 3720.158
31.56000 2006.385
31.73000 733.556
31.90000 491.747
32.07000 413.360
32.24000 407.364
32.41000 394.121
32.58000 391.025
32.75000 398.469
32.92000 548.881
33.09000 450.967
33.26000 349.998
33.43000 345.934
33.60000 342.510
33.77000 337.357
33.94000 337.647
34.11000 327.611
34.28000 338.364
34.45000 312.104
34.62000 339.763
34.79000 303.866
34.96000 324.077
35.13000 327.672
35.30000 322.244
35.47000 308.332
35.64000 321.528
35.81000 304.716
35.98000 309.860
36.15000 291.755
36.32000 289.221
36.49000 314.565
36.66000 291.274
36.83000 302.196
37.00000 300.475
37.17000 304.389
37.34000 299.923
37.51000 293.228
37.68000 285.048
37.85000 310.401
38.02000 309.391
38.19000 303.978
38.36000 390.029
38.53000 830.039
38.70000 1357.753
38.87000 830.138
39.04000 378.374
39.21000 300.393
39.38000 297.222
39.55000 267.712
39.72000 277.873
39.89000 269.265
40.06000 257.103
40.23000 256.739
40.40000 264.736
40.57000 255.604
40.74000 239.858
40.91000 247.418
41.08000 246.734
41.25000 239.729
41.42000 241.253
41.59000 251.118
41.76000 241.224
41.93000 239.735
42.10000 227.506
42.27000 235.554
42.44000 231.141
42.61000 223.459
42.78000 235.539
42.95000 227.954
43.12000 233.785
43.29000 235.903
43.46000 224.589
43.63000 233.893
43.80000 232.894
43.97000 221.296
44.14000 229.477
44.31000 218.614
44.48000 236.547
44.65000 228.223
44.82000 292.675
44.99000 423.131
45.16000 398.651
45.33000 323.477
45.50000 279.249
45.67000 248.317
45.84000 229.436
46.01000 212.606
46.18000 197.255
46.35000 209.505
46.52000 198.370
46.69000 201.872
46.86000 198.032
47.03000 187.613
47.20000 199.340
47.37000 198.006
47.54000 188.205
47.71000 184.222
47.88000 188.677
48.05000 188.957
48.22000 187.731
48.39000 176.555
48.56000 195.266
48.73000 195.239
48.90000 180.114
49.07000 177.597
49.24000 169.034
49.41000 173.100
49.58000 165.277
49.75000 177.961
49.92000 181.160
50.09000 186.430
50.26000 187.352
50.43000 203.242
50.60000 262.953
50.77000 277.193
50.94000 226.381
51.11000 186.935
51.28000 157.911
51.45000 184.929
51.62000 169.774
51.79000 160.397
51.96000 175.871
52.13000 166.687
52.30000 167.223
52.47000 160.270
52.64000 153.883
52.81000 159.470
52.98000 152.992
53.15000 159.135
53.32000 173.864
53.49000 156.331
53.66000 166.392
53.83000 148.199
54.00000 148.940
54.17000 157.644
54.34000 155.415
54.51000 167.381
54.68000 143.536
54.85000 156.183
55.02000 166.916
55.19000 162.510
55.36000 187.485
55.53000 230.434
55.70000 435.251
55.87000 756.275
56.04000 721.810
56.21000 377.662
56.38000 241.792
56.55000 188.030
56.72000 166.284
56.89000 150.962
57.06000 158.669
57.23000 139.940
57.40000 157.674
57.57000 149.220
57.74000 145.205
57.91000 139.658
58.08000 134.477
58.25000 135.960
58.42000 126.879
58.59000 143.925
58.76000 146.856
58.93000 132.853
59.10000 130.749
59.27000 135.436
59.44000 132.327
59.61000 146.350
59.78000 139.802
59.95000 125.173
60.12000 129.468
60.29000 140.956
60.46000 133.118
60.63000 137.960
60.80000 126.324
60.97000 130.801
61.14000 126.191
61.31000 138.141
61.48000 139.687
61.65000 288.294
61.82000 195.940
61.99000 136.878
62.16000 147.825
62.33000 133.406
62.50000 138.093
62.67000 148.235
62.84000 151.333
63.01000 150.595
63.18000 136.267
63.35000 157.420
63.52000 141.906
63.69000 146.173
63.86000 153.711
64.03000 167.570
64.20000 150.174
64.37000 167.177
64.54000 160.994
64.71000 177.310
64.88000 185.420
65.05000 199.612
65.22000 260.791
65.39000 342.268
65.56000 424.901
65.73000 782.315
65.90000 1253.795
66.07000 406.930
66.24000 350.970
66.41000 488.507
66.58000 367.968
66.75000 320.913
66.92000 349.027
67.09000 361.795
67.26000 401.190
67.43000 412.728
67.60000 424.586
67.77000 481.756
67.94000 509.683
68.11000 541.390
68.28000 635.766
68.45000 747.445
68.62000 1073.421
68.79000 2077.904
68.96000 15322.986
69.13000 64500.063
69.30000 37277.164
69.47000 8540.148
69.64000 1283.767
69.81000 842.131
69.98000 717.491
70.00000 696.578