File: XRD/XRD/24-09-2025 Dep 3/XY Data/BTO_Mapping_Theta2Theta_24-09-2025_001_59_18-271_-8-135.xy
20.00000 577.435
20.17000 549.426
20.34000 553.798
20.51000 551.948
20.68000 542.469
20.85000 554.227
21.02000 531.689
21.19000 550.676
21.36000 537.783
21.53000 535.433
21.70000 543.379
21.87000 559.986
22.04000 585.633
22.21000 600.654
22.38000 557.054
22.55000 544.086
22.72000 521.476
22.89000 499.048
23.06000 490.772
23.23000 526.507
23.40000 517.698
23.57000 513.846
23.74000 483.337
23.91000 487.465
24.08000 483.147
24.25000 494.112
24.42000 482.868
24.59000 495.650
24.76000 471.373
24.93000 480.646
25.10000 463.360
25.27000 482.381
25.44000 463.678
25.61000 450.978
25.78000 464.804
25.95000 464.250
26.12000 444.249
26.29000 459.837
26.46000 447.315
26.63000 438.872
26.80000 450.433
26.97000 444.242
27.14000 448.313
27.31000 444.134
27.48000 431.456
27.65000 441.784
27.82000 419.188
27.99000 407.738
28.16000 430.812
28.33000 438.194
28.50000 422.962
28.67000 421.531
28.84000 422.976
29.01000 423.714
29.18000 419.733
29.35000 408.382
29.52000 387.068
29.69000 402.442
29.86000 403.834
30.03000 453.648
30.20000 413.184
30.37000 413.938
30.54000 419.222
30.71000 432.236
30.88000 438.486
31.05000 524.810
31.22000 997.377
31.39000 1572.867
31.56000 1152.826
31.73000 590.518
31.90000 445.839
32.07000 404.975
32.24000 392.514
32.41000 382.914
32.58000 386.528
32.75000 364.675
32.92000 433.787
33.09000 359.038
33.26000 340.437
33.43000 339.187
33.60000 331.902
33.77000 342.558
33.94000 337.359
34.11000 323.063
34.28000 323.567
34.45000 319.101
34.62000 339.083
34.79000 311.822
34.96000 308.878
35.13000 317.494
35.30000 308.258
35.47000 298.047
35.64000 313.084
35.81000 303.522
35.98000 311.913
36.15000 295.630
36.32000 311.350
36.49000 310.680
36.66000 315.077
36.83000 303.221
37.00000 313.938
37.17000 303.023
37.34000 302.736
37.51000 307.651
37.68000 299.968
37.85000 303.763
38.02000 302.153
38.19000 305.130
38.36000 338.697
38.53000 648.793
38.70000 1459.056
38.87000 1156.286
39.04000 433.211
39.21000 302.060
39.38000 293.934
39.55000 267.194
39.72000 260.935
39.89000 265.183
40.06000 262.535
40.23000 267.242
40.40000 261.714
40.57000 251.012
40.74000 252.594
40.91000 244.117
41.08000 231.797
41.25000 258.440
41.42000 248.383
41.59000 232.991
41.76000 242.568
41.93000 236.906
42.10000 233.727
42.27000 239.411
42.44000 231.358
42.61000 233.566
42.78000 229.200
42.95000 225.326
43.12000 222.598
43.29000 233.432
43.46000 216.182
43.63000 229.331
43.80000 224.349
43.97000 211.341
44.14000 214.268
44.31000 214.800
44.48000 208.037
44.65000 223.797
44.82000 244.988
44.99000 257.472
45.16000 255.377
45.33000 257.578
45.50000 239.184
45.67000 219.194
45.84000 224.821
46.01000 205.229
46.18000 214.891
46.35000 193.481
46.52000 192.932
46.69000 206.551
46.86000 185.783
47.03000 188.164
47.20000 197.204
47.37000 184.204
47.54000 190.938
47.71000 179.368
47.88000 190.719
48.05000 191.990
48.22000 183.027
48.39000 173.173
48.56000 195.794
48.73000 175.133
48.90000 175.366
49.07000 171.710
49.24000 185.487
49.41000 175.257
49.58000 178.151
49.75000 162.867
49.92000 171.110
50.09000 175.236
50.26000 176.586
50.43000 184.325
50.60000 196.523
50.77000 202.265
50.94000 188.032
51.11000 185.584
51.28000 167.805
51.45000 177.660
51.62000 184.792
51.79000 158.231
51.96000 156.887
52.13000 163.058
52.30000 153.775
52.47000 168.386
52.64000 154.075
52.81000 155.596
52.98000 168.034
53.15000 151.816
53.32000 173.014
53.49000 161.714
53.66000 173.268
53.83000 166.712
54.00000 151.925
54.17000 161.973
54.34000 167.327
54.51000 164.401
54.68000 165.381
54.85000 159.732
55.02000 168.980
55.19000 170.146
55.36000 181.520
55.53000 217.422
55.70000 379.257
55.87000 709.367
56.04000 818.931
56.21000 515.267
56.38000 264.095
56.55000 194.167
56.72000 167.509
56.89000 159.382
57.06000 149.709
57.23000 146.877
57.40000 153.001
57.57000 140.882
57.74000 137.124
57.91000 140.963
58.08000 142.198
58.25000 145.771
58.42000 137.307
58.59000 129.331
58.76000 132.574
58.93000 132.685
59.10000 127.490
59.27000 138.974
59.44000 127.584
59.61000 126.426
59.78000 131.653
59.95000 126.542
60.12000 133.501
60.29000 124.282
60.46000 128.054
60.63000 129.114
60.80000 130.571
60.97000 122.522
61.14000 138.387
61.31000 132.796
61.48000 152.652
61.65000 264.813
61.82000 191.583
61.99000 140.051
62.16000 137.526
62.33000 148.467
62.50000 141.357
62.67000 146.240
62.84000 147.703
63.01000 134.209
63.18000 136.889
63.35000 140.014
63.52000 145.049
63.69000 146.677
63.86000 147.289
64.03000 152.816
64.20000 166.015
64.37000 153.686
64.54000 170.221
64.71000 171.311
64.88000 175.374
65.05000 184.100
65.22000 215.503
65.39000 231.954
65.56000 280.087
65.73000 565.146
65.90000 994.255
66.07000 354.200
66.24000 294.571
66.41000 421.808
66.58000 335.545
66.75000 306.676
66.92000 310.893
67.09000 346.230
67.26000 361.225
67.43000 392.813
67.60000 430.633
67.77000 450.302
67.94000 485.877
68.11000 526.459
68.28000 570.284
68.45000 649.113
68.62000 907.324
68.79000 1699.905
68.96000 10581.837
69.13000 49486.680
69.30000 28843.674
69.47000 6896.853
69.64000 1132.472
69.81000 764.553
69.98000 633.732
70.00000 630.943