File: XRD/XRD/24-09-2025 Dep 3/XY Data/BTO_Mapping_Theta2Theta_24-09-2025_001_44_-15-000_-25-981.xy
20.00000 569.158
20.17000 575.233
20.34000 533.493
20.51000 547.867
20.68000 558.255
20.85000 558.765
21.02000 561.568
21.19000 532.632
21.36000 564.259
21.53000 545.513
21.70000 570.306
21.87000 688.688
22.04000 792.386
22.21000 681.523
22.38000 596.609
22.55000 540.914
22.72000 535.358
22.89000 515.712
23.06000 516.649
23.23000 499.295
23.40000 524.349
23.57000 487.716
23.74000 497.245
23.91000 489.599
24.08000 493.293
24.25000 484.581
24.42000 484.318
24.59000 486.363
24.76000 474.199
24.93000 464.619
25.10000 478.696
25.27000 486.540
25.44000 448.202
25.61000 466.405
25.78000 468.603
25.95000 460.308
26.12000 457.796
26.29000 443.933
26.46000 442.441
26.63000 458.608
26.80000 448.372
26.97000 445.316
27.14000 435.643
27.31000 436.700
27.48000 431.922
27.65000 435.176
27.82000 409.292
27.99000 443.512
28.16000 432.183
28.33000 432.514
28.50000 412.608
28.67000 421.417
28.84000 420.154
29.01000 414.891
29.18000 413.041
29.35000 421.432
29.52000 407.521
29.69000 419.320
29.86000 439.318
30.03000 457.416
30.20000 447.121
30.37000 440.603
30.54000 441.365
30.71000 444.525
30.88000 527.633
31.05000 792.537
31.22000 2206.707
31.39000 3686.568
31.56000 1974.319
31.73000 738.839
31.90000 505.111
32.07000 437.983
32.24000 408.940
32.41000 376.793
32.58000 379.997
32.75000 392.365
32.92000 538.790
33.09000 435.105
33.26000 359.526
33.43000 349.159
33.60000 335.525
33.77000 344.170
33.94000 330.087
34.11000 333.947
34.28000 334.960
34.45000 316.950
34.62000 320.004
34.79000 319.727
34.96000 321.607
35.13000 298.359
35.30000 318.825
35.47000 315.636
35.64000 320.413
35.81000 299.897
35.98000 304.961
36.15000 304.438
36.32000 314.293
36.49000 300.872
36.66000 304.546
36.83000 299.267
37.00000 311.553
37.17000 305.407
37.34000 310.801
37.51000 294.954
37.68000 288.748
37.85000 289.088
38.02000 301.513
38.19000 329.161
38.36000 407.579
38.53000 853.272
38.70000 1411.499
38.87000 810.281
39.04000 364.113
39.21000 300.276
39.38000 286.966
39.55000 281.211
39.72000 258.298
39.89000 268.417
40.06000 263.236
40.23000 239.798
40.40000 253.918
40.57000 252.197
40.74000 256.209
40.91000 239.566
41.08000 248.766
41.25000 254.344
41.42000 255.395
41.59000 242.760
41.76000 249.323
41.93000 238.232
42.10000 238.447
42.27000 245.767
42.44000 235.530
42.61000 231.224
42.78000 227.782
42.95000 235.813
43.12000 237.012
43.29000 210.000
43.46000 227.182
43.63000 237.574
43.80000 220.199
43.97000 226.157
44.14000 226.178
44.31000 218.851
44.48000 236.331
44.65000 242.465
44.82000 305.869
44.99000 404.290
45.16000 401.284
45.33000 306.704
45.50000 269.718
45.67000 258.843
45.84000 221.421
46.01000 212.587
46.18000 215.560
46.35000 205.173
46.52000 192.755
46.69000 202.018
46.86000 209.340
47.03000 196.224
47.20000 191.965
47.37000 182.214
47.54000 189.104
47.71000 183.123
47.88000 191.373
48.05000 173.560
48.22000 181.532
48.39000 187.718
48.56000 181.103
48.73000 177.629
48.90000 189.893
49.07000 180.142
49.24000 182.174
49.41000 178.386
49.58000 180.696
49.75000 169.835
49.92000 179.013
50.09000 173.277
50.26000 183.871
50.43000 208.440
50.60000 264.987
50.77000 271.340
50.94000 202.811
51.11000 191.168
51.28000 169.526
51.45000 167.945
51.62000 164.908
51.79000 170.543
51.96000 158.169
52.13000 156.192
52.30000 157.095
52.47000 159.412
52.64000 155.802
52.81000 158.679
52.98000 169.015
53.15000 154.735
53.32000 160.070
53.49000 167.557
53.66000 156.788
53.83000 161.017
54.00000 159.064
54.17000 146.935
54.34000 161.220
54.51000 159.106
54.68000 151.438
54.85000 162.498
55.02000 177.223
55.19000 165.743
55.36000 189.310
55.53000 242.675
55.70000 464.697
55.87000 806.281
56.04000 750.739
56.21000 386.691
56.38000 245.400
56.55000 178.670
56.72000 158.609
56.89000 151.234
57.06000 148.119
57.23000 145.614
57.40000 151.403
57.57000 160.165
57.74000 138.792
57.91000 138.988
58.08000 132.151
58.25000 133.944
58.42000 141.957
58.59000 139.541
58.76000 137.899
58.93000 141.148
59.10000 138.609
59.27000 128.180
59.44000 132.651
59.61000 134.146
59.78000 129.789
59.95000 137.282
60.12000 131.448
60.29000 127.751
60.46000 134.136
60.63000 131.776
60.80000 137.902
60.97000 136.473
61.14000 138.740
61.31000 136.281
61.48000 152.268
61.65000 289.441
61.82000 210.182
61.99000 141.009
62.16000 145.401
62.33000 144.773
62.50000 142.201
62.67000 148.473
62.84000 138.815
63.01000 143.165
63.18000 150.147
63.35000 139.415
63.52000 147.968
63.69000 143.510
63.86000 164.567
64.03000 145.889
64.20000 160.922
64.37000 159.432
64.54000 175.776
64.71000 178.000
64.88000 176.100
65.05000 204.851
65.22000 277.802
65.39000 337.919
65.56000 419.631
65.73000 810.057
65.90000 1327.535
66.07000 422.320
66.24000 344.692
66.41000 516.528
66.58000 362.703
66.75000 307.263
66.92000 338.390
67.09000 370.937
67.26000 393.097
67.43000 424.118
67.60000 437.732
67.77000 485.324
67.94000 520.409
68.11000 570.179
68.28000 670.769
68.45000 741.678
68.62000 1082.712
68.79000 2134.927
68.96000 16519.486
69.13000 66847.992
69.30000 38754.215
69.47000 8742.400
69.64000 1253.624
69.81000 857.048
69.98000 723.332
70.00000 699.083