File: XRD/XRD/24-09-2025 Dep 3/XY Data/BTO_Mapping_Theta2Theta_24-09-2025_001_03_20-000_0-000.xy
20.00000 560.178
20.17000 559.341
20.34000 570.932
20.51000 547.213
20.68000 561.665
20.85000 561.198
21.02000 566.906
21.19000 549.755
21.36000 537.769
21.53000 553.736
21.70000 553.277
21.87000 578.051
22.04000 615.272
22.21000 586.563
22.38000 561.084
22.55000 528.207
22.72000 520.676
22.89000 510.352
23.06000 500.269
23.23000 510.723
23.40000 525.334
23.57000 518.343
23.74000 505.988
23.91000 505.941
24.08000 500.437
24.25000 490.488
24.42000 512.837
24.59000 475.449
24.76000 475.942
24.93000 470.470
25.10000 487.459
25.27000 476.152
25.44000 468.856
25.61000 470.576
25.78000 469.681
25.95000 453.476
26.12000 456.179
26.29000 478.101
26.46000 455.026
26.63000 451.682
26.80000 467.773
26.97000 455.497
27.14000 455.253
27.31000 455.585
27.48000 446.008
27.65000 454.221
27.82000 419.935
27.99000 401.029
28.16000 430.792
28.33000 421.097
28.50000 427.511
28.67000 412.800
28.84000 411.253
29.01000 393.647
29.18000 423.934
29.35000 408.585
29.52000 409.725
29.69000 414.976
29.86000 413.930
30.03000 404.134
30.20000 433.359
30.37000 426.000
30.54000 424.870
30.71000 416.148
30.88000 448.497
31.05000 530.695
31.22000 955.319
31.39000 1547.247
31.56000 1154.545
31.73000 573.489
31.90000 430.766
32.07000 414.565
32.24000 402.165
32.41000 385.415
32.58000 395.152
32.75000 368.887
32.92000 431.585
33.09000 399.308
33.26000 340.436
33.43000 351.997
33.60000 331.016
33.77000 338.203
33.94000 336.033
34.11000 340.355
34.28000 330.230
34.45000 329.510
34.62000 306.184
34.79000 322.655
34.96000 322.621
35.13000 340.530
35.30000 312.738
35.47000 307.968
35.64000 303.153
35.81000 305.953
35.98000 300.010
36.15000 301.307
36.32000 305.620
36.49000 293.924
36.66000 296.205
36.83000 314.934
37.00000 305.883
37.17000 310.022
37.34000 297.738
37.51000 288.561
37.68000 301.565
37.85000 295.822
38.02000 304.119
38.19000 304.926
38.36000 329.283
38.53000 639.109
38.70000 1426.507
38.87000 1172.158
39.04000 441.466
39.21000 302.241
39.38000 281.159
39.55000 257.125
39.72000 289.088
39.89000 258.898
40.06000 251.000
40.23000 269.543
40.40000 258.762
40.57000 257.208
40.74000 252.539
40.91000 253.729
41.08000 246.828
41.25000 241.857
41.42000 238.520
41.59000 232.013
41.76000 238.147
41.93000 244.082
42.10000 235.788
42.27000 238.171
42.44000 234.791
42.61000 235.786
42.78000 240.143
42.95000 226.879
43.12000 223.650
43.29000 222.495
43.46000 234.473
43.63000 231.783
43.80000 211.947
43.97000 222.725
44.14000 215.086
44.31000 215.926
44.48000 237.624
44.65000 220.298
44.82000 232.470
44.99000 274.760
45.16000 282.995
45.33000 246.983
45.50000 236.273
45.67000 223.847
45.84000 213.895
46.01000 210.212
46.18000 196.279
46.35000 182.508
46.52000 211.968
46.69000 206.843
46.86000 198.494
47.03000 196.417
47.20000 191.479
47.37000 189.133
47.54000 194.453
47.71000 189.585
47.88000 184.449
48.05000 175.286
48.22000 191.674
48.39000 179.916
48.56000 170.654
48.73000 178.983
48.90000 174.760
49.07000 183.418
49.24000 185.186
49.41000 175.742
49.58000 168.670
49.75000 174.530
49.92000 177.448
50.09000 165.645
50.26000 184.058
50.43000 180.559
50.60000 186.831
50.77000 189.452
50.94000 185.648
51.11000 177.255
51.28000 185.558
51.45000 166.787
51.62000 180.226
51.79000 162.760
51.96000 158.786
52.13000 154.339
52.30000 164.835
52.47000 161.956
52.64000 159.542
52.81000 156.261
52.98000 137.557
53.15000 172.097
53.32000 173.479
53.49000 159.710
53.66000 168.923
53.83000 167.357
54.00000 156.312
54.17000 163.918
54.34000 158.609
54.51000 157.677
54.68000 165.104
54.85000 155.598
55.02000 163.641
55.19000 163.194
55.36000 185.451
55.53000 216.943
55.70000 372.244
55.87000 671.371
56.04000 822.395
56.21000 514.256
56.38000 267.509
56.55000 192.736
56.72000 158.550
56.89000 151.227
57.06000 148.213
57.23000 141.521
57.40000 138.065
57.57000 148.132
57.74000 140.271
57.91000 139.000
58.08000 137.641
58.25000 136.901
58.42000 148.421
58.59000 136.006
58.76000 131.824
58.93000 128.943
59.10000 140.132
59.27000 123.041
59.44000 126.032
59.61000 127.874
59.78000 136.042
59.95000 133.380
60.12000 132.550
60.29000 130.804
60.46000 127.013
60.63000 135.406
60.80000 139.479
60.97000 146.518
61.14000 128.623
61.31000 142.156
61.48000 151.826
61.65000 246.867
61.82000 185.928
61.99000 140.164
62.16000 136.397
62.33000 139.888
62.50000 141.510
62.67000 134.980
62.84000 146.758
63.01000 137.364
63.18000 143.685
63.35000 138.336
63.52000 145.284
63.69000 152.583
63.86000 146.949
64.03000 164.445
64.20000 165.185
64.37000 157.861
64.54000 162.402
64.71000 159.076
64.88000 173.820
65.05000 184.469
65.22000 195.052
65.39000 238.874
65.56000 283.569
65.73000 556.582
65.90000 1012.621
66.07000 351.795
66.24000 298.719
66.41000 415.716
66.58000 336.312
66.75000 303.912
66.92000 326.422
67.09000 329.167
67.26000 356.179
67.43000 387.994
67.60000 416.446
67.77000 410.914
67.94000 486.596
68.11000 502.325
68.28000 570.666
68.45000 665.407
68.62000 913.559
68.79000 1713.139
68.96000 10670.221
69.13000 49597.363
69.30000 29160.611
69.47000 6878.461
69.64000 1120.284
69.81000 747.496
69.98000 636.062
70.00000 627.218