File: XRD/XRD/24-09-2025 Dep 3/XY Data/BTO_Mapping_Theta2Theta_24-09-2025_001_51_6-180_-19-021.xy
20.00000 561.752
20.17000 539.720
20.34000 571.613
20.51000 554.712
20.68000 539.392
20.85000 546.932
21.02000 545.830
21.19000 558.738
21.36000 533.998
21.53000 552.391
21.70000 540.450
21.87000 596.942
22.04000 603.232
22.21000 578.837
22.38000 581.074
22.55000 561.531
22.72000 501.293
22.89000 514.758
23.06000 509.955
23.23000 488.944
23.40000 509.160
23.57000 490.865
23.74000 506.304
23.91000 490.317
24.08000 495.154
24.25000 495.305
24.42000 477.030
24.59000 502.441
24.76000 476.090
24.93000 480.323
25.10000 474.318
25.27000 457.233
25.44000 471.315
25.61000 465.116
25.78000 460.542
25.95000 465.186
26.12000 464.628
26.29000 458.971
26.46000 451.491
26.63000 429.062
26.80000 441.541
26.97000 436.720
27.14000 436.675
27.31000 455.162
27.48000 428.592
27.65000 438.154
27.82000 433.834
27.99000 440.303
28.16000 430.839
28.33000 421.884
28.50000 420.692
28.67000 397.087
28.84000 396.966
29.01000 413.120
29.18000 415.534
29.35000 425.169
29.52000 423.252
29.69000 401.767
29.86000 431.658
30.03000 450.602
30.20000 421.891
30.37000 412.555
30.54000 412.245
30.71000 418.975
30.88000 436.446
31.05000 565.370
31.22000 1199.076
31.39000 2043.688
31.56000 1328.969
31.73000 626.087
31.90000 449.308
32.07000 406.864
32.24000 405.303
32.41000 387.724
32.58000 372.878
32.75000 365.274
32.92000 443.721
33.09000 366.151
33.26000 345.661
33.43000 343.650
33.60000 334.792
33.77000 324.644
33.94000 328.535
34.11000 336.419
34.28000 318.008
34.45000 329.967
34.62000 321.353
34.79000 316.388
34.96000 333.674
35.13000 312.733
35.30000 304.520
35.47000 303.617
35.64000 306.153
35.81000 303.240
35.98000 304.826
36.15000 305.418
36.32000 323.861
36.49000 305.590
36.66000 306.362
36.83000 293.461
37.00000 299.474
37.17000 310.899
37.34000 295.291
37.51000 302.118
37.68000 296.628
37.85000 305.183
38.02000 292.069
38.19000 301.665
38.36000 353.709
38.53000 727.401
38.70000 1559.812
38.87000 1134.706
39.04000 417.505
39.21000 309.857
39.38000 281.668
39.55000 278.824
39.72000 264.761
39.89000 267.227
40.06000 245.469
40.23000 261.349
40.40000 247.721
40.57000 254.550
40.74000 245.956
40.91000 230.555
41.08000 251.026
41.25000 235.200
41.42000 233.072
41.59000 240.813
41.76000 235.875
41.93000 218.294
42.10000 244.561
42.27000 220.203
42.44000 223.232
42.61000 233.791
42.78000 231.552
42.95000 223.152
43.12000 200.932
43.29000 222.845
43.46000 214.557
43.63000 221.276
43.80000 226.222
43.97000 214.663
44.14000 209.501
44.31000 211.152
44.48000 222.535
44.65000 226.091
44.82000 230.904
44.99000 269.597
45.16000 277.130
45.33000 262.757
45.50000 241.605
45.67000 242.733
45.84000 218.335
46.01000 211.918
46.18000 209.905
46.35000 209.712
46.52000 199.285
46.69000 193.915
46.86000 199.220
47.03000 202.994
47.20000 189.761
47.37000 192.312
47.54000 199.484
47.71000 191.320
47.88000 187.241
48.05000 195.308
48.22000 177.146
48.39000 169.540
48.56000 191.328
48.73000 182.508
48.90000 178.632
49.07000 169.207
49.24000 180.842
49.41000 171.628
49.58000 169.418
49.75000 175.742
49.92000 185.438
50.09000 177.046
50.26000 178.333
50.43000 177.087
50.60000 204.331
50.77000 217.289
50.94000 200.988
51.11000 171.284
51.28000 187.226
51.45000 160.753
51.62000 162.640
51.79000 170.074
51.96000 159.021
52.13000 153.790
52.30000 152.845
52.47000 161.854
52.64000 162.882
52.81000 148.058
52.98000 157.842
53.15000 149.762
53.32000 173.609
53.49000 162.851
53.66000 161.535
53.83000 166.510
54.00000 163.314
54.17000 163.189
54.34000 154.598
54.51000 153.744
54.68000 158.692
54.85000 165.630
55.02000 162.438
55.19000 164.256
55.36000 181.204
55.53000 228.466
55.70000 419.657
55.87000 771.807
56.04000 880.033
56.21000 557.503
56.38000 279.111
56.55000 199.857
56.72000 164.124
56.89000 157.804
57.06000 147.008
57.23000 146.764
57.40000 145.818
57.57000 145.014
57.74000 145.928
57.91000 127.178
58.08000 149.450
58.25000 144.586
58.42000 140.403
58.59000 143.080
58.76000 135.270
58.93000 134.204
59.10000 123.100
59.27000 125.543
59.44000 131.421
59.61000 122.833
59.78000 143.258
59.95000 130.560
60.12000 131.004
60.29000 138.517
60.46000 133.137
60.63000 124.575
60.80000 132.680
60.97000 135.247
61.14000 129.622
61.31000 135.287
61.48000 138.151
61.65000 250.271
61.82000 179.842
61.99000 131.968
62.16000 133.605
62.33000 139.608
62.50000 147.001
62.67000 141.913
62.84000 141.129
63.01000 140.946
63.18000 146.257
63.35000 146.953
63.52000 147.946
63.69000 143.068
63.86000 144.857
64.03000 150.858
64.20000 161.936
64.37000 159.047
64.54000 173.600
64.71000 169.944
64.88000 171.775
65.05000 186.044
65.22000 219.339
65.39000 271.908
65.56000 321.572
65.73000 599.836
65.90000 1030.937
66.07000 388.765
66.24000 296.846
66.41000 424.720
66.58000 334.099
66.75000 290.618
66.92000 319.663
67.09000 341.690
67.26000 348.066
67.43000 392.336
67.60000 420.888
67.77000 444.123
67.94000 481.949
68.11000 524.029
68.28000 569.152
68.45000 666.669
68.62000 959.162
68.79000 1747.456
68.96000 11499.670
69.13000 50981.996
69.30000 29620.416
69.47000 6835.791
69.64000 1145.989
69.81000 761.006
69.98000 651.562
70.00000 647.043