File: XRD/XRD/24-09-2025 Dep 3/XY Data/BTO_Mapping_Theta2Theta_24-09-2025_001_45_-20-000_-34-641.xy
20.00000 591.637
20.17000 557.376
20.34000 559.090
20.51000 561.040
20.68000 550.311
20.85000 563.117
21.02000 559.415
21.19000 545.365
21.36000 544.287
21.53000 554.071
21.70000 565.978
21.87000 703.385
22.04000 833.902
22.21000 704.885
22.38000 568.962
22.55000 539.768
22.72000 515.601
22.89000 530.207
23.06000 504.935
23.23000 508.649
23.40000 507.293
23.57000 490.524
23.74000 482.591
23.91000 482.438
24.08000 508.338
24.25000 487.777
24.42000 484.407
24.59000 487.621
24.76000 480.684
24.93000 484.383
25.10000 474.721
25.27000 480.474
25.44000 462.850
25.61000 465.692
25.78000 444.858
25.95000 458.648
26.12000 458.179
26.29000 456.147
26.46000 446.202
26.63000 451.837
26.80000 436.639
26.97000 453.354
27.14000 437.036
27.31000 431.413
27.48000 432.305
27.65000 426.036
27.82000 437.874
27.99000 427.161
28.16000 449.547
28.33000 419.239
28.50000 423.486
28.67000 428.805
28.84000 427.758
29.01000 408.942
29.18000 415.073
29.35000 427.018
29.52000 405.338
29.69000 414.627
29.86000 453.176
30.03000 453.742
30.20000 464.299
30.37000 439.105
30.54000 431.343
30.71000 448.960
30.88000 523.121
31.05000 815.795
31.22000 2258.134
31.39000 3843.180
31.56000 2056.170
31.73000 742.488
31.90000 479.944
32.07000 441.495
32.24000 393.740
32.41000 384.982
32.58000 366.213
32.75000 403.416
32.92000 553.255
33.09000 417.872
33.26000 373.369
33.43000 331.852
33.60000 344.403
33.77000 343.270
33.94000 343.235
34.11000 338.223
34.28000 329.200
34.45000 328.670
34.62000 314.853
34.79000 340.675
34.96000 313.856
35.13000 305.427
35.30000 322.042
35.47000 298.571
35.64000 313.849
35.81000 306.675
35.98000 310.749
36.15000 299.748
36.32000 323.269
36.49000 299.717
36.66000 311.197
36.83000 311.510
37.00000 321.213
37.17000 293.624
37.34000 298.650
37.51000 300.182
37.68000 305.000
37.85000 296.935
38.02000 302.048
38.19000 300.382
38.36000 381.804
38.53000 833.606
38.70000 1339.902
38.87000 816.962
39.04000 370.909
39.21000 300.539
39.38000 275.418
39.55000 276.780
39.72000 277.276
39.89000 254.637
40.06000 260.303
40.23000 257.805
40.40000 250.574
40.57000 247.745
40.74000 246.604
40.91000 259.417
41.08000 253.136
41.25000 239.688
41.42000 250.921
41.59000 242.007
41.76000 246.096
41.93000 232.497
42.10000 236.226
42.27000 233.976
42.44000 230.659
42.61000 240.695
42.78000 236.806
42.95000 243.702
43.12000 229.465
43.29000 223.503
43.46000 222.361
43.63000 223.339
43.80000 228.616
43.97000 220.846
44.14000 226.388
44.31000 225.705
44.48000 233.145
44.65000 256.913
44.82000 322.613
44.99000 453.609
45.16000 416.735
45.33000 321.251
45.50000 274.503
45.67000 246.547
45.84000 242.888
46.01000 211.222
46.18000 198.415
46.35000 204.101
46.52000 211.501
46.69000 182.731
46.86000 189.905
47.03000 196.859
47.20000 193.796
47.37000 194.132
47.54000 190.746
47.71000 188.648
47.88000 183.235
48.05000 188.781
48.22000 179.841
48.39000 186.333
48.56000 183.742
48.73000 183.246
48.90000 183.510
49.07000 185.553
49.24000 178.999
49.41000 187.390
49.58000 175.159
49.75000 165.352
49.92000 176.014
50.09000 193.483
50.26000 195.497
50.43000 215.176
50.60000 274.896
50.77000 284.985
50.94000 221.901
51.11000 190.525
51.28000 186.122
51.45000 170.105
51.62000 164.104
51.79000 158.717
51.96000 163.612
52.13000 169.764
52.30000 169.959
52.47000 165.596
52.64000 164.671
52.81000 161.438
52.98000 160.298
53.15000 156.582
53.32000 158.382
53.49000 154.022
53.66000 160.693
53.83000 167.077
54.00000 158.120
54.17000 154.393
54.34000 153.153
54.51000 163.568
54.68000 162.442
54.85000 170.835
55.02000 168.298
55.19000 167.976
55.36000 191.503
55.53000 244.841
55.70000 452.021
55.87000 796.138
56.04000 717.693
56.21000 400.824
56.38000 225.642
56.55000 179.281
56.72000 169.275
56.89000 158.609
57.06000 152.595
57.23000 149.421
57.40000 146.987
57.57000 146.157
57.74000 142.613
57.91000 138.778
58.08000 135.800
58.25000 152.835
58.42000 142.515
58.59000 140.271
58.76000 131.456
58.93000 137.325
59.10000 133.167
59.27000 128.946
59.44000 133.908
59.61000 129.804
59.78000 129.630
59.95000 132.237
60.12000 128.632
60.29000 133.729
60.46000 132.894
60.63000 128.160
60.80000 122.075
60.97000 124.613
61.14000 128.055
61.31000 138.594
61.48000 141.560
61.65000 317.679
61.82000 208.658
61.99000 138.095
62.16000 149.377
62.33000 137.137
62.50000 142.018
62.67000 140.817
62.84000 145.751
63.01000 159.733
63.18000 153.737
63.35000 146.787
63.52000 149.442
63.69000 143.776
63.86000 150.904
64.03000 157.819
64.20000 153.203
64.37000 158.433
64.54000 169.105
64.71000 172.738
64.88000 195.943
65.05000 207.736
65.22000 275.068
65.39000 349.884
65.56000 425.204
65.73000 856.078
65.90000 1426.472
66.07000 445.638
66.24000 350.597
66.41000 524.108
66.58000 386.793
66.75000 320.172
66.92000 337.923
67.09000 377.376
67.26000 396.492
67.43000 442.242
67.60000 447.426
67.77000 487.545
67.94000 536.211
68.11000 599.549
68.28000 645.740
68.45000 761.583
68.62000 1153.783
68.79000 2235.247
68.96000 17143.279
69.13000 71960.453
69.30000 42070.148
69.47000 9832.582
69.64000 1383.958
69.81000 910.524
69.98000 714.239
70.00000 707.064