File: XRD/XRD/24-09-2025 Dep 3/XY Data/BTO_Mapping_Theta2Theta_24-09-2025_001_34_-9-781_-2-079.xy
20.00000 576.839
20.17000 587.333
20.34000 566.325
20.51000 565.414
20.68000 554.858
20.85000 549.959
21.02000 565.360
21.19000 539.206
21.36000 548.679
21.53000 546.138
21.70000 567.917
21.87000 665.643
22.04000 793.704
22.21000 669.006
22.38000 601.817
22.55000 548.301
22.72000 535.891
22.89000 520.706
23.06000 497.112
23.23000 530.155
23.40000 494.438
23.57000 496.300
23.74000 507.798
23.91000 502.653
24.08000 488.398
24.25000 488.201
24.42000 492.873
24.59000 468.683
24.76000 475.853
24.93000 474.764
25.10000 466.196
25.27000 462.883
25.44000 477.717
25.61000 467.783
25.78000 468.217
25.95000 452.948
26.12000 450.712
26.29000 453.056
26.46000 435.361
26.63000 454.843
26.80000 440.201
26.97000 432.654
27.14000 452.460
27.31000 447.163
27.48000 437.610
27.65000 427.103
27.82000 422.310
27.99000 443.689
28.16000 427.113
28.33000 439.138
28.50000 425.379
28.67000 419.607
28.84000 416.226
29.01000 410.532
29.18000 411.559
29.35000 405.246
29.52000 419.641
29.69000 439.120
29.86000 423.315
30.03000 445.262
30.20000 455.631
30.37000 420.810
30.54000 436.736
30.71000 442.949
30.88000 503.660
31.05000 786.280
31.22000 2176.758
31.39000 3697.289
31.56000 1934.114
31.73000 738.311
31.90000 470.610
32.07000 429.331
32.24000 420.050
32.41000 385.770
32.58000 390.247
32.75000 385.118
32.92000 522.963
33.09000 406.463
33.26000 359.382
33.43000 348.346
33.60000 343.432
33.77000 344.562
33.94000 339.534
34.11000 333.286
34.28000 336.750
34.45000 347.751
34.62000 326.416
34.79000 334.163
34.96000 305.611
35.13000 311.097
35.30000 316.126
35.47000 308.971
35.64000 314.470
35.81000 310.317
35.98000 292.950
36.15000 301.005
36.32000 306.629
36.49000 295.187
36.66000 292.202
36.83000 309.405
37.00000 314.492
37.17000 306.798
37.34000 309.036
37.51000 303.728
37.68000 289.896
37.85000 287.193
38.02000 297.123
38.19000 316.334
38.36000 392.956
38.53000 826.417
38.70000 1378.934
38.87000 835.728
39.04000 368.123
39.21000 302.140
39.38000 273.742
39.55000 281.365
39.72000 283.891
39.89000 278.622
40.06000 261.757
40.23000 260.499
40.40000 253.678
40.57000 245.251
40.74000 254.207
40.91000 255.798
41.08000 252.469
41.25000 232.199
41.42000 238.351
41.59000 237.738
41.76000 246.109
41.93000 237.422
42.10000 240.457
42.27000 242.183
42.44000 225.743
42.61000 229.529
42.78000 233.653
42.95000 237.143
43.12000 235.190
43.29000 224.370
43.46000 239.481
43.63000 212.744
43.80000 217.448
43.97000 228.851
44.14000 221.031
44.31000 213.579
44.48000 233.856
44.65000 249.039
44.82000 292.530
44.99000 430.243
45.16000 404.056
45.33000 321.569
45.50000 275.988
45.67000 247.046
45.84000 226.993
46.01000 221.541
46.18000 205.736
46.35000 214.198
46.52000 199.855
46.69000 196.162
46.86000 195.730
47.03000 199.040
47.20000 199.941
47.37000 194.273
47.54000 202.412
47.71000 188.320
47.88000 182.895
48.05000 194.958
48.22000 185.882
48.39000 181.663
48.56000 182.335
48.73000 171.767
48.90000 188.327
49.07000 180.155
49.24000 182.746
49.41000 183.539
49.58000 179.013
49.75000 171.006
49.92000 180.204
50.09000 185.595
50.26000 184.649
50.43000 201.792
50.60000 264.094
50.77000 270.285
50.94000 212.671
51.11000 184.714
51.28000 184.301
51.45000 170.067
51.62000 168.774
51.79000 169.862
51.96000 162.543
52.13000 164.904
52.30000 153.952
52.47000 164.905
52.64000 158.119
52.81000 155.940
52.98000 157.007
53.15000 170.293
53.32000 177.016
53.49000 165.417
53.66000 158.774
53.83000 157.196
54.00000 150.908
54.17000 154.871
54.34000 156.227
54.51000 162.417
54.68000 147.050
54.85000 161.605
55.02000 164.288
55.19000 163.048
55.36000 194.524
55.53000 228.480
55.70000 441.142
55.87000 784.758
56.04000 715.941
56.21000 379.325
56.38000 230.092
56.55000 188.541
56.72000 166.994
56.89000 152.400
57.06000 152.086
57.23000 150.567
57.40000 141.020
57.57000 148.692
57.74000 140.142
57.91000 138.997
58.08000 147.947
58.25000 148.290
58.42000 139.195
58.59000 147.978
58.76000 137.098
58.93000 126.586
59.10000 137.400
59.27000 143.260
59.44000 140.972
59.61000 134.145
59.78000 127.521
59.95000 138.395
60.12000 138.310
60.29000 132.119
60.46000 132.896
60.63000 129.050
60.80000 132.122
60.97000 133.380
61.14000 132.792
61.31000 129.957
61.48000 143.954
61.65000 286.165
61.82000 203.579
61.99000 142.751
62.16000 140.779
62.33000 138.032
62.50000 136.867
62.67000 146.304
62.84000 147.162
63.01000 154.842
63.18000 144.132
63.35000 138.995
63.52000 146.728
63.69000 156.299
63.86000 155.533
64.03000 158.184
64.20000 141.621
64.37000 148.427
64.54000 180.998
64.71000 177.368
64.88000 185.162
65.05000 212.519
65.22000 260.237
65.39000 340.371
65.56000 434.359
65.73000 791.620
65.90000 1245.112
66.07000 409.961
66.24000 329.202
66.41000 477.660
66.58000 348.376
66.75000 320.029
66.92000 334.702
67.09000 362.136
67.26000 377.719
67.43000 403.918
67.60000 449.357
67.77000 502.057
67.94000 525.753
68.11000 544.373
68.28000 628.627
68.45000 718.059
68.62000 1078.629
68.79000 2075.781
68.96000 15266.893
69.13000 64204.375
69.30000 37290.531
69.47000 8468.779
69.64000 1274.961
69.81000 860.627
69.98000 695.630
70.00000 682.603