File: XRD/XRD/24-09-2025 Dep 3/XY Data/BTO_Mapping_Theta2Theta_24-09-2025_001_36_-29-344_-6-237.xy
20.00000 590.219
20.17000 580.745
20.34000 554.760
20.51000 556.202
20.68000 574.859
20.85000 540.970
21.02000 557.080
21.19000 543.743
21.36000 564.744
21.53000 541.787
21.70000 609.216
21.87000 817.177
22.04000 1015.194
22.21000 702.165
22.38000 579.289
22.55000 540.641
22.72000 535.256
22.89000 518.102
23.06000 507.548
23.23000 478.246
23.40000 511.801
23.57000 505.890
23.74000 498.618
23.91000 494.305
24.08000 507.697
24.25000 483.783
24.42000 484.449
24.59000 502.146
24.76000 499.984
24.93000 460.956
25.10000 482.971
25.27000 457.192
25.44000 490.984
25.61000 469.048
25.78000 479.250
25.95000 464.308
26.12000 462.239
26.29000 476.751
26.46000 459.360
26.63000 466.350
26.80000 462.661
26.97000 463.439
27.14000 445.061
27.31000 436.505
27.48000 449.338
27.65000 454.425
27.82000 442.575
27.99000 440.586
28.16000 428.231
28.33000 442.174
28.50000 441.352
28.67000 424.440
28.84000 424.233
29.01000 417.516
29.18000 409.817
29.35000 431.762
29.52000 432.293
29.69000 414.399
29.86000 462.391
30.03000 475.700
30.20000 453.413
30.37000 446.424
30.54000 465.584
30.71000 455.116
30.88000 518.015
31.05000 957.623
31.22000 2817.931
31.39000 3732.414
31.56000 1617.473
31.73000 660.438
31.90000 475.709
32.07000 422.964
32.24000 396.640
32.41000 384.371
32.58000 387.193
32.75000 400.905
32.92000 613.768
33.09000 454.890
33.26000 379.439
33.43000 368.921
33.60000 341.996
33.77000 343.947
33.94000 348.803
34.11000 343.645
34.28000 339.306
34.45000 340.239
34.62000 316.704
34.79000 346.853
34.96000 315.943
35.13000 318.734
35.30000 308.960
35.47000 313.350
35.64000 318.525
35.81000 318.155
35.98000 314.100
36.15000 334.397
36.32000 309.332
36.49000 306.569
36.66000 313.409
36.83000 295.459
37.00000 324.305
37.17000 312.758
37.34000 303.937
37.51000 307.521
37.68000 292.629
37.85000 307.037
38.02000 304.742
38.19000 300.487
38.36000 396.041
38.53000 755.008
38.70000 884.147
38.87000 515.888
39.04000 322.670
39.21000 289.634
39.38000 276.660
39.55000 279.875
39.72000 282.133
39.89000 272.640
40.06000 251.339
40.23000 256.662
40.40000 254.101
40.57000 244.827
40.74000 244.765
40.91000 243.770
41.08000 249.205
41.25000 266.014
41.42000 237.489
41.59000 247.491
41.76000 239.594
41.93000 236.991
42.10000 247.361
42.27000 235.757
42.44000 232.558
42.61000 246.799
42.78000 236.084
42.95000 229.257
43.12000 241.116
43.29000 219.927
43.46000 222.747
43.63000 217.297
43.80000 232.259
43.97000 230.963
44.14000 236.698
44.31000 242.127
44.48000 272.133
44.65000 340.087
44.82000 567.795
44.99000 640.108
45.16000 465.185
45.33000 329.084
45.50000 273.140
45.67000 237.965
45.84000 211.681
46.01000 221.396
46.18000 195.897
46.35000 198.905
46.52000 200.624
46.69000 201.136
46.86000 190.050
47.03000 196.962
47.20000 201.556
47.37000 189.741
47.54000 195.719
47.71000 184.025
47.88000 184.878
48.05000 184.266
48.22000 192.889
48.39000 202.409
48.56000 177.727
48.73000 183.184
48.90000 184.248
49.07000 172.024
49.24000 189.583
49.41000 186.502
49.58000 180.004
49.75000 164.103
49.92000 179.001
50.09000 184.090
50.26000 202.659
50.43000 247.133
50.60000 279.892
50.77000 269.535
50.94000 210.143
51.11000 200.377
51.28000 188.643
51.45000 169.942
51.62000 171.386
51.79000 166.574
51.96000 168.799
52.13000 165.499
52.30000 158.823
52.47000 160.633
52.64000 161.830
52.81000 154.932
52.98000 152.046
53.15000 167.302
53.32000 172.450
53.49000 154.536
53.66000 166.395
53.83000 152.380
54.00000 161.017
54.17000 157.271
54.34000 155.754
54.51000 169.055
54.68000 157.026
54.85000 168.064
55.02000 165.566
55.19000 178.569
55.36000 206.103
55.53000 323.878
55.70000 639.825
55.87000 864.250
56.04000 638.904
56.21000 329.035
56.38000 196.881
56.55000 169.520
56.72000 168.997
56.89000 155.594
57.06000 155.650
57.23000 145.855
57.40000 147.161
57.57000 145.511
57.74000 147.356
57.91000 143.966
58.08000 145.690
58.25000 132.189
58.42000 141.337
58.59000 139.549
58.76000 135.954
58.93000 143.877
59.10000 142.454
59.27000 140.748
59.44000 119.629
59.61000 130.951
59.78000 122.941
59.95000 147.152
60.12000 144.327
60.29000 141.325
60.46000 131.720
60.63000 138.808
60.80000 136.546
60.97000 147.094
61.14000 131.547
61.31000 147.474
61.48000 147.647
61.65000 384.586
61.82000 241.253
61.99000 158.887
62.16000 146.654
62.33000 138.318
62.50000 146.164
62.67000 148.440
62.84000 138.601
63.01000 141.925
63.18000 151.209
63.35000 161.727
63.52000 150.818
63.69000 154.135
63.86000 150.544
64.03000 160.287
64.20000 166.852
64.37000 177.049
64.54000 186.800
64.71000 186.632
64.88000 193.698
65.05000 229.915
65.22000 305.535
65.39000 409.015
65.56000 457.401
65.73000 954.068
65.90000 1678.368
66.07000 508.257
66.24000 383.548
66.41000 597.418
66.58000 414.582
66.75000 372.856
66.92000 365.754
67.09000 418.382
67.26000 439.648
67.43000 470.339
67.60000 518.622
67.77000 540.069
67.94000 591.714
68.11000 666.864
68.28000 728.321
68.45000 882.845
68.62000 1360.790
68.79000 2720.660
68.96000 23431.162
69.13000 92019.094
69.30000 54199.215
69.47000 12734.002
69.64000 1591.464
69.81000 1030.694
69.98000 823.542
70.00000 802.458