File: XRD/XRD/24-09-2025 Dep 3/XY Data/BTO_Mapping_Theta2Theta_24-09-2025_001_52_9-271_-28-532.xy
20.00000 584.836
20.17000 566.735
20.34000 551.573
20.51000 555.614
20.68000 543.126
20.85000 556.057
21.02000 534.042
21.19000 542.124
21.36000 551.529
21.53000 518.431
21.70000 551.326
21.87000 578.957
22.04000 591.511
22.21000 608.984
22.38000 562.945
22.55000 537.458
22.72000 535.999
22.89000 521.668
23.06000 489.226
23.23000 525.148
23.40000 490.487
23.57000 511.298
23.74000 485.351
23.91000 483.258
24.08000 488.821
24.25000 485.353
24.42000 478.954
24.59000 483.003
24.76000 462.169
24.93000 466.091
25.10000 468.636
25.27000 453.273
25.44000 466.028
25.61000 460.963
25.78000 461.743
25.95000 454.757
26.12000 453.214
26.29000 447.367
26.46000 447.904
26.63000 451.099
26.80000 451.587
26.97000 434.346
27.14000 451.704
27.31000 435.456
27.48000 425.198
27.65000 429.884
27.82000 433.943
27.99000 429.776
28.16000 425.828
28.33000 418.669
28.50000 430.117
28.67000 409.651
28.84000 415.971
29.01000 404.714
29.18000 422.940
29.35000 400.973
29.52000 395.927
29.69000 411.651
29.86000 419.615
30.03000 436.280
30.20000 402.163
30.37000 397.715
30.54000 405.422
30.71000 420.371
30.88000 444.822
31.05000 532.951
31.22000 1032.973
31.39000 1669.997
31.56000 1158.486
31.73000 589.562
31.90000 428.860
32.07000 408.119
32.24000 398.237
32.41000 382.371
32.58000 370.611
32.75000 375.906
32.92000 437.256
33.09000 366.893
33.26000 339.087
33.43000 342.639
33.60000 331.167
33.77000 331.848
33.94000 321.750
34.11000 328.570
34.28000 319.643
34.45000 306.787
34.62000 324.113
34.79000 330.331
34.96000 323.404
35.13000 308.551
35.30000 326.561
35.47000 300.992
35.64000 318.936
35.81000 299.382
35.98000 311.043
36.15000 292.508
36.32000 290.067
36.49000 307.217
36.66000 296.878
36.83000 307.918
37.00000 326.671
37.17000 299.501
37.34000 293.132
37.51000 291.816
37.68000 299.190
37.85000 282.234
38.02000 294.238
38.19000 319.848
38.36000 356.265
38.53000 708.949
38.70000 1542.258
38.87000 1196.667
39.04000 425.341
39.21000 308.514
39.38000 286.265
39.55000 271.620
39.72000 289.362
39.89000 263.704
40.06000 257.075
40.23000 269.888
40.40000 259.918
40.57000 256.715
40.74000 262.140
40.91000 251.459
41.08000 240.176
41.25000 259.193
41.42000 258.379
41.59000 223.940
41.76000 248.843
41.93000 235.047
42.10000 235.463
42.27000 237.240
42.44000 235.351
42.61000 230.997
42.78000 223.663
42.95000 224.420
43.12000 211.542
43.29000 208.867
43.46000 217.979
43.63000 222.412
43.80000 225.519
43.97000 212.719
44.14000 226.297
44.31000 217.248
44.48000 217.575
44.65000 205.624
44.82000 220.902
44.99000 263.413
45.16000 265.596
45.33000 249.263
45.50000 232.533
45.67000 240.089
45.84000 221.943
46.01000 212.477
46.18000 210.522
46.35000 211.664
46.52000 213.066
46.69000 200.575
46.86000 192.177
47.03000 200.033
47.20000 188.450
47.37000 195.922
47.54000 183.565
47.71000 187.475
47.88000 184.829
48.05000 179.664
48.22000 180.710
48.39000 192.664
48.56000 175.367
48.73000 175.446
48.90000 175.237
49.07000 175.237
49.24000 175.793
49.41000 188.712
49.58000 180.964
49.75000 180.028
49.92000 178.286
50.09000 177.494
50.26000 173.788
50.43000 173.375
50.60000 189.120
50.77000 193.802
50.94000 195.949
51.11000 182.186
51.28000 187.243
51.45000 159.700
51.62000 163.846
51.79000 164.405
51.96000 156.864
52.13000 154.226
52.30000 163.921
52.47000 156.382
52.64000 166.574
52.81000 160.581
52.98000 143.549
53.15000 159.267
53.32000 149.526
53.49000 169.023
53.66000 162.441
53.83000 162.473
54.00000 163.648
54.17000 158.915
54.34000 164.602
54.51000 159.899
54.68000 159.940
54.85000 161.756
55.02000 164.327
55.19000 162.921
55.36000 181.111
55.53000 215.655
55.70000 381.007
55.87000 766.137
56.04000 894.292
56.21000 568.571
56.38000 291.605
56.55000 185.680
56.72000 173.499
56.89000 157.655
57.06000 146.698
57.23000 150.825
57.40000 140.049
57.57000 138.833
57.74000 135.519
57.91000 147.942
58.08000 139.319
58.25000 145.098
58.42000 141.662
58.59000 139.552
58.76000 129.203
58.93000 139.527
59.10000 126.381
59.27000 140.749
59.44000 133.564
59.61000 130.846
59.78000 145.662
59.95000 131.047
60.12000 141.012
60.29000 132.447
60.46000 135.734
60.63000 128.020
60.80000 130.834
60.97000 137.204
61.14000 152.092
61.31000 126.583
61.48000 126.758
61.65000 254.829
61.82000 190.827
61.99000 140.435
62.16000 136.559
62.33000 142.136
62.50000 135.127
62.67000 141.890
62.84000 128.896
63.01000 134.297
63.18000 153.515
63.35000 138.334
63.52000 144.520
63.69000 151.118
63.86000 148.394
64.03000 156.279
64.20000 152.640
64.37000 149.021
64.54000 166.217
64.71000 163.801
64.88000 185.973
65.05000 187.029
65.22000 197.206
65.39000 245.922
65.56000 293.059
65.73000 593.435
65.90000 1017.372
66.07000 367.510
66.24000 299.395
66.41000 424.696
66.58000 327.763
66.75000 310.480
66.92000 315.202
67.09000 329.665
67.26000 349.607
67.43000 388.412
67.60000 415.494
67.77000 427.504
67.94000 497.800
68.11000 540.131
68.28000 573.009
68.45000 667.092
68.62000 927.161
68.79000 1710.473
68.96000 11289.922
69.13000 49933.840
69.30000 28921.973
69.47000 6530.860
69.64000 1092.139
69.81000 753.230
69.98000 649.804
70.00000 644.385