File: XRD/XRD/24-09-2025 Dep 3/XY Data/BTO_Mapping_Theta2Theta_24-09-2025_001_32_-29-344_6-237.xy
20.00000 554.316
20.17000 597.295
20.34000 565.586
20.51000 540.953
20.68000 553.768
20.85000 561.150
21.02000 558.889
21.19000 556.458
21.36000 550.597
21.53000 579.263
21.70000 613.981
21.87000 834.966
22.04000 1021.829
22.21000 722.885
22.38000 588.708
22.55000 531.202
22.72000 530.242
22.89000 526.664
23.06000 536.225
23.23000 498.743
23.40000 499.347
23.57000 512.845
23.74000 482.099
23.91000 510.694
24.08000 508.141
24.25000 493.457
24.42000 477.125
24.59000 484.922
24.76000 493.567
24.93000 472.276
25.10000 475.431
25.27000 484.282
25.44000 476.430
25.61000 489.506
25.78000 451.798
25.95000 460.195
26.12000 445.453
26.29000 472.251
26.46000 441.986
26.63000 448.610
26.80000 437.029
26.97000 456.480
27.14000 440.390
27.31000 442.992
27.48000 427.974
27.65000 421.643
27.82000 434.981
27.99000 433.064
28.16000 448.534
28.33000 439.475
28.50000 426.812
28.67000 432.394
28.84000 415.603
29.01000 431.038
29.18000 433.280
29.35000 414.337
29.52000 413.818
29.69000 414.782
29.86000 447.369
30.03000 479.383
30.20000 444.874
30.37000 445.375
30.54000 439.404
30.71000 485.890
30.88000 541.408
31.05000 913.184
31.22000 2679.624
31.39000 3839.704
31.56000 1669.706
31.73000 662.020
31.90000 462.595
32.07000 430.805
32.24000 421.856
32.41000 395.170
32.58000 388.927
32.75000 401.134
32.92000 622.126
33.09000 481.149
33.26000 368.108
33.43000 366.840
33.60000 352.920
33.77000 354.987
33.94000 344.284
34.11000 346.726
34.28000 337.505
34.45000 343.284
34.62000 325.636
34.79000 323.668
34.96000 336.111
35.13000 315.048
35.30000 322.012
35.47000 310.745
35.64000 313.065
35.81000 306.558
35.98000 304.815
36.15000 307.134
36.32000 300.415
36.49000 308.781
36.66000 298.556
36.83000 307.846
37.00000 305.532
37.17000 301.285
37.34000 287.254
37.51000 298.490
37.68000 295.941
37.85000 305.284
38.02000 291.258
38.19000 321.892
38.36000 392.230
38.53000 712.369
38.70000 882.192
38.87000 526.225
39.04000 318.729
39.21000 284.790
39.38000 294.874
39.55000 263.578
39.72000 268.799
39.89000 263.871
40.06000 257.993
40.23000 257.049
40.40000 256.000
40.57000 248.948
40.74000 241.449
40.91000 243.897
41.08000 254.877
41.25000 231.127
41.42000 234.379
41.59000 241.140
41.76000 237.149
41.93000 235.931
42.10000 234.524
42.27000 244.222
42.44000 231.951
42.61000 241.741
42.78000 244.741
42.95000 234.535
43.12000 244.856
43.29000 221.455
43.46000 219.030
43.63000 226.876
43.80000 239.165
43.97000 221.708
44.14000 234.503
44.31000 235.113
44.48000 266.278
44.65000 325.849
44.82000 500.613
44.99000 653.618
45.16000 461.150
45.33000 324.905
45.50000 269.113
45.67000 232.340
45.84000 235.284
46.01000 219.103
46.18000 216.246
46.35000 204.768
46.52000 203.280
46.69000 209.526
46.86000 205.926
47.03000 204.738
47.20000 189.412
47.37000 185.434
47.54000 194.733
47.71000 187.557
47.88000 183.068
48.05000 186.781
48.22000 197.159
48.39000 185.450
48.56000 184.561
48.73000 195.499
48.90000 183.751
49.07000 192.348
49.24000 174.606
49.41000 174.147
49.58000 169.578
49.75000 171.078
49.92000 166.604
50.09000 195.952
50.26000 190.071
50.43000 238.946
50.60000 297.827
50.77000 269.284
50.94000 221.087
51.11000 196.184
51.28000 169.711
51.45000 177.457
51.62000 169.908
51.79000 157.046
51.96000 173.321
52.13000 167.787
52.30000 165.866
52.47000 164.208
52.64000 161.535
52.81000 155.982
52.98000 155.272
53.15000 166.803
53.32000 167.175
53.49000 170.127
53.66000 164.040
53.83000 155.938
54.00000 162.645
54.17000 163.681
54.34000 158.626
54.51000 150.118
54.68000 157.698
54.85000 149.981
55.02000 169.142
55.19000 172.635
55.36000 195.723
55.53000 293.364
55.70000 624.831
55.87000 870.649
56.04000 676.512
56.21000 352.782
56.38000 224.400
56.55000 176.655
56.72000 169.213
56.89000 155.105
57.06000 156.067
57.23000 149.922
57.40000 145.875
57.57000 148.012
57.74000 144.286
57.91000 152.396
58.08000 158.367
58.25000 147.398
58.42000 141.314
58.59000 132.018
58.76000 145.870
58.93000 134.988
59.10000 133.628
59.27000 139.937
59.44000 130.937
59.61000 141.341
59.78000 136.597
59.95000 139.347
60.12000 136.656
60.29000 135.331
60.46000 143.354
60.63000 134.755
60.80000 129.571
60.97000 132.478
61.14000 133.546
61.31000 138.702
61.48000 161.265
61.65000 357.212
61.82000 251.614
61.99000 155.083
62.16000 145.983
62.33000 147.452
62.50000 138.426
62.67000 139.196
62.84000 155.417
63.01000 146.189
63.18000 162.197
63.35000 152.627
63.52000 147.906
63.69000 154.578
63.86000 155.479
64.03000 162.316
64.20000 163.575
64.37000 169.260
64.54000 184.627
64.71000 187.027
64.88000 202.692
65.05000 223.992
65.22000 314.016
65.39000 400.128
65.56000 471.824
65.73000 965.430
65.90000 1660.795
66.07000 486.888
66.24000 373.220
66.41000 588.967
66.58000 400.906
66.75000 382.057
66.92000 372.483
67.09000 398.861
67.26000 438.463
67.43000 469.366
67.60000 519.565
67.77000 559.722
67.94000 600.617
68.11000 646.638
68.28000 750.465
68.45000 880.660
68.62000 1347.641
68.79000 2691.907
68.96000 22839.393
69.13000 91073.070
69.30000 53584.621
69.47000 12831.786
69.64000 1607.365
69.81000 1023.788
69.98000 778.399
70.00000 764.329