File: XRD/XRD/24-09-2025 Dep 3/XY Data/BTO_fwhm_results.csv
X Coordinates,Y Coordinates,FWHM
-39.126,-8.316,0.321252
-39.126,8.316,0.332785
-32.361,-23.511,0.33037
-32.361,23.511,0.328558
-29.344,-6.237,0.336826
-29.344,6.237,0.334927
-24.271,-17.634,0.348348
-24.271,17.634,0.335448
-20.0,-34.641,0.342899
-20.0,34.641,0.342703
-19.563,-4.158,0.339861
-19.563,4.158,0.348192
-16.18,-11.756,0.340158
-16.18,11.756,0.342359
-15.0,-25.981,0.344312
-15.0,25.981,0.339728
-10.0,-17.321,0.339208
-10.0,17.321,0.336575
-9.781,-2.079,0.341061
-9.781,2.079,0.338824
-8.09,-5.878,0.344753
-8.09,5.878,0.341224
-5.0,-8.66,0.34703
-5.0,8.66,0.341724
-4.181,-39.781,0.361764
-4.181,39.781,0.34894
-3.136,-29.836,0.360038
-3.136,29.836,0.347073
-2.091,-19.89,0.352235
-2.091,19.89,0.342981
-1.045,-9.945,0.348547
-1.045,9.945,0.348451
0.0,0.0,0.347061
3.09,-9.511,0.351761
3.09,9.511,0.351155
6.18,-19.021,0.355907
6.18,19.021,0.353876
6.691,-7.431,0.35203
6.691,7.431,0.34666
9.135,-4.067,0.362651
9.135,4.067,0.357733
9.271,-28.532,0.362142
9.271,28.532,0.343859
10.0,0.0,0.355275
12.361,-38.042,0.376604
12.361,38.042,0.363526
13.383,-14.863,0.370607
13.383,14.863,0.355356
18.271,-8.135,0.373616
18.271,8.135,0.368792
20.0,0.0,0.376677
20.074,-22.294,0.37772
20.074,22.294,0.37235
26.765,-29.726,0.40457
26.765,29.726,0.379659
27.406,-12.202,0.381269
27.406,12.202,0.386952
30.0,0.0,0.391021
36.542,-16.269,0.419498
36.542,16.269,0.393045
40.0,0.0,0.425722