File: XRD/XRD/24-09-2025 Dep 3/XY Data/BTO_Mapping_Theta2Theta_24-09-2025_001_47_-2-091_-19-890.xy
20.00000 552.682
20.17000 547.233
20.34000 557.051
20.51000 544.147
20.68000 541.757
20.85000 546.353
21.02000 540.737
21.19000 543.374
21.36000 556.422
21.53000 543.130
21.70000 530.280
21.87000 592.167
22.04000 676.435
22.21000 661.489
22.38000 569.820
22.55000 549.322
22.72000 547.382
22.89000 530.224
23.06000 523.399
23.23000 510.669
23.40000 503.484
23.57000 473.356
23.74000 512.852
23.91000 473.013
24.08000 485.806
24.25000 481.320
24.42000 492.517
24.59000 476.553
24.76000 480.444
24.93000 466.314
25.10000 461.514
25.27000 467.956
25.44000 455.815
25.61000 471.609
25.78000 469.277
25.95000 452.070
26.12000 449.968
26.29000 446.732
26.46000 426.323
26.63000 462.743
26.80000 442.740
26.97000 447.010
27.14000 441.927
27.31000 434.117
27.48000 440.306
27.65000 441.867
27.82000 432.261
27.99000 431.543
28.16000 432.895
28.33000 415.320
28.50000 411.884
28.67000 422.150
28.84000 427.741
29.01000 408.872
29.18000 404.924
29.35000 412.304
29.52000 409.493
29.69000 432.018
29.86000 429.382
30.03000 441.517
30.20000 429.613
30.37000 419.998
30.54000 429.355
30.71000 447.644
30.88000 475.295
31.05000 663.808
31.22000 1688.410
31.39000 2939.605
31.56000 1775.032
31.73000 709.933
31.90000 457.965
32.07000 425.621
32.24000 397.276
32.41000 382.557
32.58000 383.541
32.75000 377.709
32.92000 472.813
33.09000 398.015
33.26000 354.451
33.43000 347.178
33.60000 342.594
33.77000 324.523
33.94000 337.823
34.11000 334.255
34.28000 337.481
34.45000 330.837
34.62000 313.036
34.79000 328.057
34.96000 313.359
35.13000 310.459
35.30000 313.033
35.47000 312.646
35.64000 306.343
35.81000 308.577
35.98000 304.284
36.15000 300.915
36.32000 298.028
36.49000 310.350
36.66000 314.913
36.83000 307.433
37.00000 300.782
37.17000 309.535
37.34000 301.667
37.51000 296.498
37.68000 292.046
37.85000 290.521
38.02000 308.569
38.19000 326.704
38.36000 379.211
38.53000 810.901
38.70000 1587.372
38.87000 1074.100
39.04000 411.521
39.21000 309.671
39.38000 272.138
39.55000 271.008
39.72000 276.558
39.89000 271.082
40.06000 265.817
40.23000 244.399
40.40000 258.194
40.57000 237.957
40.74000 241.540
40.91000 241.988
41.08000 245.309
41.25000 237.575
41.42000 245.590
41.59000 250.887
41.76000 233.358
41.93000 249.454
42.10000 225.476
42.27000 235.964
42.44000 235.144
42.61000 238.713
42.78000 229.601
42.95000 232.474
43.12000 227.252
43.29000 229.748
43.46000 222.297
43.63000 227.723
43.80000 213.005
43.97000 213.682
44.14000 215.376
44.31000 220.584
44.48000 212.626
44.65000 235.477
44.82000 258.335
44.99000 310.627
45.16000 312.287
45.33000 296.656
45.50000 262.533
45.67000 242.195
45.84000 233.829
46.01000 224.220
46.18000 205.350
46.35000 194.439
46.52000 203.013
46.69000 205.112
46.86000 201.899
47.03000 187.724
47.20000 189.563
47.37000 185.476
47.54000 186.429
47.71000 189.069
47.88000 181.768
48.05000 178.026
48.22000 176.598
48.39000 185.466
48.56000 192.768
48.73000 175.394
48.90000 187.854
49.07000 167.707
49.24000 181.480
49.41000 174.024
49.58000 172.818
49.75000 175.993
49.92000 173.801
50.09000 176.288
50.26000 186.107
50.43000 189.313
50.60000 223.752
50.77000 224.924
50.94000 218.525
51.11000 190.046
51.28000 174.813
51.45000 171.033
51.62000 173.084
51.79000 161.023
51.96000 162.432
52.13000 159.178
52.30000 153.717
52.47000 160.962
52.64000 157.267
52.81000 160.218
52.98000 167.531
53.15000 160.192
53.32000 174.242
53.49000 156.400
53.66000 169.366
53.83000 163.888
54.00000 152.623
54.17000 153.055
54.34000 156.159
54.51000 174.624
54.68000 164.367
54.85000 167.615
55.02000 148.917
55.19000 162.510
55.36000 170.211
55.53000 236.093
55.70000 416.728
55.87000 809.239
56.04000 814.930
56.21000 464.958
56.38000 236.563
56.55000 180.197
56.72000 159.294
56.89000 156.363
57.06000 150.693
57.23000 152.859
57.40000 150.762
57.57000 145.292
57.74000 147.757
57.91000 140.824
58.08000 146.731
58.25000 137.182
58.42000 129.153
58.59000 133.119
58.76000 135.017
58.93000 132.644
59.10000 135.355
59.27000 128.570
59.44000 126.912
59.61000 134.204
59.78000 136.563
59.95000 132.256
60.12000 142.189
60.29000 138.805
60.46000 138.290
60.63000 127.212
60.80000 131.292
60.97000 128.104
61.14000 144.311
61.31000 143.295
61.48000 143.780
61.65000 271.132
61.82000 191.165
61.99000 148.890
62.16000 136.202
62.33000 147.470
62.50000 140.673
62.67000 138.478
62.84000 149.011
63.01000 142.692
63.18000 142.529
63.35000 142.200
63.52000 145.999
63.69000 144.445
63.86000 144.829
64.03000 140.083
64.20000 159.828
64.37000 158.758
64.54000 160.207
64.71000 177.764
64.88000 177.709
65.05000 199.010
65.22000 226.051
65.39000 295.301
65.56000 381.769
65.73000 692.784
65.90000 1126.260
66.07000 391.931
66.24000 317.949
66.41000 452.165
66.58000 324.612
66.75000 322.115
66.92000 330.552
67.09000 352.659
67.26000 368.030
67.43000 392.579
67.60000 428.842
67.77000 462.965
67.94000 497.565
68.11000 534.407
68.28000 590.257
68.45000 694.786
68.62000 1000.199
68.79000 1862.665
68.96000 12887.571
69.13000 55442.238
69.30000 31999.723
69.47000 7363.646
69.64000 1204.637
69.81000 774.405
69.98000 663.847
70.00000 657.373