File: XRD/XRD/24-09-2025 Dep 3/XY Data/BTO_Mapping_Theta2Theta_24-09-2025_001_35_-19-563_-4-158.xy
20.00000 548.755
20.17000 553.472
20.34000 552.495
20.51000 563.889
20.68000 556.108
20.85000 555.381
21.02000 554.115
21.19000 552.620
21.36000 525.643
21.53000 548.887
21.70000 597.964
21.87000 766.390
22.04000 966.073
22.21000 750.329
22.38000 603.306
22.55000 544.320
22.72000 526.281
22.89000 514.108
23.06000 519.744
23.23000 523.027
23.40000 518.015
23.57000 492.452
23.74000 493.452
23.91000 501.664
24.08000 503.469
24.25000 485.359
24.42000 474.184
24.59000 493.345
24.76000 469.681
24.93000 472.454
25.10000 477.989
25.27000 476.524
25.44000 468.282
25.61000 468.751
25.78000 460.173
25.95000 470.192
26.12000 444.745
26.29000 448.971
26.46000 434.424
26.63000 468.859
26.80000 450.870
26.97000 431.462
27.14000 438.905
27.31000 452.034
27.48000 433.609
27.65000 423.347
27.82000 433.953
27.99000 453.457
28.16000 443.171
28.33000 442.615
28.50000 426.908
28.67000 426.373
28.84000 432.041
29.01000 419.652
29.18000 413.577
29.35000 402.431
29.52000 416.064
29.69000 421.816
29.86000 446.371
30.03000 472.822
30.20000 440.229
30.37000 424.432
30.54000 431.783
30.71000 445.298
30.88000 519.558
31.05000 802.318
31.22000 2212.256
31.39000 3476.702
31.56000 1749.557
31.73000 680.390
31.90000 452.340
32.07000 421.970
32.24000 399.021
32.41000 407.322
32.58000 382.444
32.75000 402.180
32.92000 569.321
33.09000 456.685
33.26000 365.909
33.43000 359.944
33.60000 334.385
33.77000 332.585
33.94000 333.113
34.11000 335.489
34.28000 321.588
34.45000 322.396
34.62000 331.623
34.79000 314.475
34.96000 328.333
35.13000 318.821
35.30000 309.612
35.47000 304.291
35.64000 311.851
35.81000 306.280
35.98000 309.551
36.15000 282.006
36.32000 308.849
36.49000 303.471
36.66000 300.228
36.83000 298.402
37.00000 315.261
37.17000 307.912
37.34000 295.386
37.51000 294.861
37.68000 312.431
37.85000 289.281
38.02000 292.132
38.19000 306.250
38.36000 395.955
38.53000 800.064
38.70000 1112.169
38.87000 653.422
39.04000 343.974
39.21000 300.560
39.38000 286.117
39.55000 270.344
39.72000 271.370
39.89000 273.441
40.06000 279.962
40.23000 272.181
40.40000 274.184
40.57000 242.146
40.74000 260.624
40.91000 253.976
41.08000 248.870
41.25000 243.815
41.42000 239.287
41.59000 238.130
41.76000 252.286
41.93000 242.561
42.10000 232.054
42.27000 248.732
42.44000 240.078
42.61000 230.965
42.78000 238.124
42.95000 221.667
43.12000 230.441
43.29000 214.494
43.46000 235.816
43.63000 215.033
43.80000 211.476
43.97000 225.540
44.14000 226.238
44.31000 224.455
44.48000 228.839
44.65000 269.266
44.82000 440.180
44.99000 590.323
45.16000 483.239
45.33000 338.611
45.50000 283.291
45.67000 243.705
45.84000 229.053
46.01000 222.168
46.18000 208.743
46.35000 204.560
46.52000 202.163
46.69000 211.567
46.86000 207.224
47.03000 186.320
47.20000 190.065
47.37000 184.587
47.54000 183.716
47.71000 199.023
47.88000 177.610
48.05000 190.925
48.22000 182.856
48.39000 201.683
48.56000 191.190
48.73000 173.103
48.90000 182.760
49.07000 180.721
49.24000 193.261
49.41000 180.898
49.58000 173.075
49.75000 175.248
49.92000 169.101
50.09000 191.811
50.26000 187.049
50.43000 224.362
50.60000 285.928
50.77000 266.529
50.94000 225.964
51.11000 183.986
51.28000 170.014
51.45000 181.226
51.62000 167.847
51.79000 164.783
51.96000 169.510
52.13000 175.044
52.30000 158.161
52.47000 158.208
52.64000 158.436
52.81000 164.560
52.98000 164.443
53.15000 167.230
53.32000 174.067
53.49000 149.637
53.66000 161.256
53.83000 153.411
54.00000 158.812
54.17000 165.171
54.34000 156.310
54.51000 158.632
54.68000 158.693
54.85000 166.312
55.02000 166.420
55.19000 172.435
55.36000 190.286
55.53000 251.195
55.70000 534.625
55.87000 844.538
56.04000 733.820
56.21000 365.857
56.38000 237.392
56.55000 186.539
56.72000 160.524
56.89000 151.692
57.06000 141.699
57.23000 149.889
57.40000 147.146
57.57000 138.656
57.74000 144.067
57.91000 146.235
58.08000 152.017
58.25000 140.912
58.42000 134.906
58.59000 146.962
58.76000 138.724
58.93000 132.397
59.10000 142.899
59.27000 141.134
59.44000 137.354
59.61000 133.107
59.78000 146.465
59.95000 122.110
60.12000 131.242
60.29000 138.978
60.46000 129.180
60.63000 133.613
60.80000 130.678
60.97000 134.586
61.14000 144.072
61.31000 129.593
61.48000 159.705
61.65000 319.568
61.82000 221.218
61.99000 150.736
62.16000 139.290
62.33000 148.167
62.50000 144.424
62.67000 136.309
62.84000 148.149
63.01000 138.352
63.18000 144.769
63.35000 150.216
63.52000 149.132
63.69000 166.375
63.86000 139.654
64.03000 157.092
64.20000 155.743
64.37000 152.482
64.54000 169.845
64.71000 167.984
64.88000 204.910
65.05000 215.270
65.22000 264.160
65.39000 365.140
65.56000 436.162
65.73000 863.214
65.90000 1427.072
66.07000 458.155
66.24000 363.945
66.41000 559.095
66.58000 394.398
66.75000 343.180
66.92000 364.422
67.09000 380.674
67.26000 426.044
67.43000 437.870
67.60000 480.197
67.77000 507.096
67.94000 557.114
68.11000 599.728
68.28000 671.397
68.45000 788.767
68.62000 1198.932
68.79000 2464.333
68.96000 19422.563
69.13000 77543.914
69.30000 45413.215
69.47000 10461.484
69.64000 1446.126
69.81000 942.014
69.98000 755.217
70.00000 744.804