File: XRD/XRD/24-09-2025 Dep 3/XY Data/BTO_Mapping_Theta2Theta_24-09-2025_001_53_12-361_-38-042.xy
20.00000 554.856
20.17000 558.688
20.34000 562.254
20.51000 536.625
20.68000 559.803
20.85000 545.684
21.02000 557.130
21.19000 544.625
21.36000 557.623
21.53000 546.589
21.70000 538.970
21.87000 557.141
22.04000 626.020
22.21000 623.122
22.38000 556.644
22.55000 535.101
22.72000 535.640
22.89000 518.720
23.06000 505.376
23.23000 528.188
23.40000 510.531
23.57000 501.050
23.74000 513.573
23.91000 493.669
24.08000 495.303
24.25000 494.513
24.42000 508.786
24.59000 490.373
24.76000 460.870
24.93000 475.804
25.10000 488.480
25.27000 460.623
25.44000 472.096
25.61000 463.098
25.78000 450.159
25.95000 459.971
26.12000 447.475
26.29000 445.349
26.46000 470.794
26.63000 464.587
26.80000 438.091
26.97000 428.233
27.14000 438.290
27.31000 438.790
27.48000 434.571
27.65000 437.544
27.82000 425.454
27.99000 439.997
28.16000 412.077
28.33000 437.834
28.50000 405.777
28.67000 412.343
28.84000 408.488
29.01000 417.900
29.18000 404.824
29.35000 417.870
29.52000 400.734
29.69000 401.026
29.86000 412.749
30.03000 414.216
30.20000 425.906
30.37000 422.358
30.54000 412.388
30.71000 414.643
30.88000 438.206
31.05000 528.224
31.22000 955.498
31.39000 1549.372
31.56000 1112.765
31.73000 593.021
31.90000 461.728
32.07000 402.460
32.24000 401.052
32.41000 369.264
32.58000 385.348
32.75000 377.354
32.92000 457.533
33.09000 380.703
33.26000 332.130
33.43000 336.266
33.60000 340.347
33.77000 331.921
33.94000 337.173
34.11000 326.149
34.28000 323.097
34.45000 322.478
34.62000 314.502
34.79000 333.877
34.96000 334.446
35.13000 306.523
35.30000 326.019
35.47000 312.657
35.64000 325.640
35.81000 300.312
35.98000 310.307
36.15000 308.429
36.32000 296.563
36.49000 312.615
36.66000 286.460
36.83000 290.457
37.00000 311.722
37.17000 309.123
37.34000 299.981
37.51000 298.585
37.68000 274.696
37.85000 300.325
38.02000 293.024
38.19000 285.510
38.36000 362.801
38.53000 680.724
38.70000 1539.781
38.87000 1227.610
39.04000 465.428
39.21000 287.985
39.38000 285.741
39.55000 288.562
39.72000 281.828
39.89000 259.426
40.06000 261.377
40.23000 254.475
40.40000 255.182
40.57000 259.573
40.74000 252.430
40.91000 256.941
41.08000 237.740
41.25000 242.786
41.42000 242.588
41.59000 237.001
41.76000 249.073
41.93000 232.393
42.10000 228.296
42.27000 233.756
42.44000 224.343
42.61000 238.057
42.78000 235.738
42.95000 222.277
43.12000 225.814
43.29000 226.295
43.46000 219.815
43.63000 223.262
43.80000 209.556
43.97000 228.863
44.14000 212.062
44.31000 220.691
44.48000 225.102
44.65000 236.176
44.82000 251.533
44.99000 268.244
45.16000 298.639
45.33000 261.711
45.50000 244.294
45.67000 237.866
45.84000 227.876
46.01000 227.003
46.18000 213.999
46.35000 200.655
46.52000 196.857
46.69000 190.794
46.86000 202.271
47.03000 203.929
47.20000 206.200
47.37000 183.987
47.54000 186.435
47.71000 184.553
47.88000 185.228
48.05000 185.997
48.22000 186.890
48.39000 183.420
48.56000 173.444
48.73000 185.514
48.90000 181.052
49.07000 174.696
49.24000 170.607
49.41000 176.424
49.58000 170.036
49.75000 173.456
49.92000 168.130
50.09000 173.597
50.26000 176.800
50.43000 178.292
50.60000 181.943
50.77000 179.955
50.94000 183.879
51.11000 191.438
51.28000 171.004
51.45000 155.952
51.62000 168.093
51.79000 166.843
51.96000 161.581
52.13000 153.113
52.30000 170.889
52.47000 164.512
52.64000 165.199
52.81000 145.757
52.98000 163.998
53.15000 159.133
53.32000 169.173
53.49000 168.935
53.66000 159.855
53.83000 162.323
54.00000 146.000
54.17000 157.154
54.34000 153.362
54.51000 156.135
54.68000 154.030
54.85000 170.756
55.02000 163.400
55.19000 168.869
55.36000 167.948
55.53000 215.834
55.70000 386.212
55.87000 728.403
56.04000 869.096
56.21000 560.087
56.38000 276.306
56.55000 187.775
56.72000 164.415
56.89000 159.445
57.06000 152.263
57.23000 145.522
57.40000 157.232
57.57000 143.989
57.74000 134.860
57.91000 146.970
58.08000 152.541
58.25000 145.436
58.42000 145.479
58.59000 140.218
58.76000 129.613
58.93000 136.610
59.10000 136.970
59.27000 137.507
59.44000 135.516
59.61000 124.356
59.78000 126.764
59.95000 125.468
60.12000 136.338
60.29000 140.078
60.46000 127.195
60.63000 125.520
60.80000 132.486
60.97000 133.458
61.14000 136.731
61.31000 136.709
61.48000 146.312
61.65000 253.845
61.82000 182.158
61.99000 134.872
62.16000 139.898
62.33000 141.423
62.50000 139.451
62.67000 139.202
62.84000 138.403
63.01000 137.060
63.18000 126.460
63.35000 144.615
63.52000 151.480
63.69000 150.516
63.86000 142.112
64.03000 158.617
64.20000 156.438
64.37000 162.583
64.54000 168.892
64.71000 171.742
64.88000 175.585
65.05000 180.063
65.22000 209.406
65.39000 237.353
65.56000 297.299
65.73000 563.041
65.90000 1019.008
66.07000 331.958
66.24000 311.387
66.41000 425.241
66.58000 318.956
66.75000 308.746
66.92000 322.790
67.09000 326.660
67.26000 352.675
67.43000 386.132
67.60000 414.638
67.77000 452.170
67.94000 482.520
68.11000 522.872
68.28000 593.914
68.45000 692.900
68.62000 916.627
68.79000 1685.246
68.96000 11359.599
69.13000 50312.039
69.30000 29132.145
69.47000 6700.290
69.64000 1135.888
69.81000 751.189
69.98000 642.752
70.00000 629.380