File: XRD/XRD/24-09-2025 Dep 3/XY Data/BTO_Mapping_Theta2Theta_24-09-2025_001_56_20-074_-22-294.xy
20.00000 533.083
20.17000 567.814
20.34000 548.133
20.51000 557.421
20.68000 544.511
20.85000 537.808
21.02000 545.474
21.19000 527.839
21.36000 564.442
21.53000 531.004
21.70000 547.350
21.87000 560.391
22.04000 616.566
22.21000 592.112
22.38000 549.581
22.55000 538.622
22.72000 520.192
22.89000 512.408
23.06000 501.930
23.23000 497.162
23.40000 489.481
23.57000 504.187
23.74000 500.301
23.91000 497.788
24.08000 479.930
24.25000 472.810
24.42000 486.067
24.59000 491.889
24.76000 473.815
24.93000 464.535
25.10000 489.160
25.27000 467.430
25.44000 469.665
25.61000 466.206
25.78000 474.935
25.95000 451.965
26.12000 449.518
26.29000 462.443
26.46000 457.937
26.63000 485.777
26.80000 455.180
26.97000 446.526
27.14000 432.093
27.31000 432.526
27.48000 434.806
27.65000 438.105
27.82000 442.648
27.99000 421.641
28.16000 442.183
28.33000 437.738
28.50000 404.305
28.67000 420.644
28.84000 413.103
29.01000 416.851
29.18000 424.715
29.35000 414.742
29.52000 409.370
29.69000 407.060
29.86000 420.349
30.03000 428.982
30.20000 434.930
30.37000 426.779
30.54000 423.634
30.71000 434.246
30.88000 448.702
31.05000 530.686
31.22000 939.220
31.39000 1488.893
31.56000 1084.178
31.73000 575.144
31.90000 436.943
32.07000 415.042
32.24000 421.719
32.41000 389.649
32.58000 365.757
32.75000 362.771
32.92000 470.025
33.09000 396.470
33.26000 346.592
33.43000 356.639
33.60000 334.569
33.77000 324.186
33.94000 341.151
34.11000 333.240
34.28000 316.685
34.45000 326.396
34.62000 309.739
34.79000 355.691
34.96000 325.716
35.13000 326.754
35.30000 307.068
35.47000 307.361
35.64000 295.296
35.81000 292.573
35.98000 321.731
36.15000 310.085
36.32000 309.262
36.49000 296.050
36.66000 291.449
36.83000 300.714
37.00000 309.483
37.17000 305.738
37.34000 303.993
37.51000 279.493
37.68000 291.203
37.85000 299.149
38.02000 307.327
38.19000 320.032
38.36000 343.961
38.53000 661.870
38.70000 1412.497
38.87000 1169.750
39.04000 436.823
39.21000 290.427
39.38000 284.006
39.55000 270.631
39.72000 264.550
39.89000 273.517
40.06000 265.114
40.23000 248.794
40.40000 262.249
40.57000 236.780
40.74000 254.680
40.91000 248.336
41.08000 240.861
41.25000 242.505
41.42000 244.071
41.59000 232.898
41.76000 256.305
41.93000 249.134
42.10000 224.171
42.27000 229.795
42.44000 239.600
42.61000 242.658
42.78000 218.023
42.95000 228.619
43.12000 232.985
43.29000 222.195
43.46000 226.533
43.63000 208.099
43.80000 234.282
43.97000 218.361
44.14000 219.134
44.31000 217.140
44.48000 227.324
44.65000 229.073
44.82000 229.053
44.99000 267.427
45.16000 272.149
45.33000 252.023
45.50000 234.331
45.67000 216.062
45.84000 217.575
46.01000 209.468
46.18000 200.403
46.35000 199.432
46.52000 213.522
46.69000 192.321
46.86000 201.812
47.03000 199.086
47.20000 193.338
47.37000 189.314
47.54000 182.115
47.71000 184.965
47.88000 184.508
48.05000 192.407
48.22000 170.411
48.39000 183.922
48.56000 175.189
48.73000 166.651
48.90000 166.774
49.07000 185.497
49.24000 179.771
49.41000 174.480
49.58000 176.936
49.75000 175.876
49.92000 180.978
50.09000 172.056
50.26000 174.120
50.43000 183.697
50.60000 191.897
50.77000 195.079
50.94000 182.996
51.11000 161.899
51.28000 169.376
51.45000 177.167
51.62000 135.538
51.79000 172.332
51.96000 163.402
52.13000 164.669
52.30000 162.134
52.47000 153.846
52.64000 150.648
52.81000 149.111
52.98000 157.282
53.15000 167.834
53.32000 163.104
53.49000 169.374
53.66000 157.183
53.83000 155.285
54.00000 155.614
54.17000 160.647
54.34000 159.909
54.51000 156.078
54.68000 150.286
54.85000 155.181
55.02000 159.452
55.19000 173.613
55.36000 179.351
55.53000 229.109
55.70000 379.528
55.87000 677.196
56.04000 784.278
56.21000 493.417
56.38000 264.390
56.55000 194.220
56.72000 167.912
56.89000 151.319
57.06000 157.977
57.23000 154.635
57.40000 140.774
57.57000 146.317
57.74000 147.563
57.91000 143.280
58.08000 148.114
58.25000 150.719
58.42000 143.176
58.59000 140.975
58.76000 131.583
58.93000 135.878
59.10000 132.695
59.27000 132.219
59.44000 137.089
59.61000 129.982
59.78000 119.954
59.95000 143.635
60.12000 132.027
60.29000 127.356
60.46000 125.396
60.63000 135.549
60.80000 125.710
60.97000 132.934
61.14000 126.519
61.31000 145.723
61.48000 135.024
61.65000 254.554
61.82000 188.870
61.99000 137.668
62.16000 137.755
62.33000 142.233
62.50000 142.910
62.67000 145.161
62.84000 142.017
63.01000 142.634
63.18000 143.604
63.35000 138.658
63.52000 147.750
63.69000 151.220
63.86000 154.006
64.03000 159.383
64.20000 153.572
64.37000 155.028
64.54000 171.646
64.71000 173.638
64.88000 179.838
65.05000 188.750
65.22000 212.700
65.39000 245.431
65.56000 289.284
65.73000 560.476
65.90000 1023.685
66.07000 350.634
66.24000 294.581
66.41000 406.961
66.58000 321.670
66.75000 299.284
66.92000 331.351
67.09000 333.932
67.26000 366.295
67.43000 369.588
67.60000 419.315
67.77000 444.427
67.94000 480.226
68.11000 537.598
68.28000 599.297
68.45000 683.104
68.62000 942.956
68.79000 1691.014
68.96000 10934.015
69.13000 50466.781
69.30000 29269.826
69.47000 6810.549
69.64000 1114.381
69.81000 765.239
69.98000 665.052
70.00000 651.501