File: XRD/XRD/24-09-2025 Dep 3/XY Data/BTO_Mapping_Theta2Theta_24-09-2025_001_37_-39-126_-8-316.xy
20.00000 551.860
20.17000 580.279
20.34000 562.453
20.51000 575.636
20.68000 559.184
20.85000 564.877
21.02000 571.177
21.19000 555.609
21.36000 550.714
21.53000 555.153
21.70000 690.905
21.87000 982.128
22.04000 898.163
22.21000 652.393
22.38000 589.024
22.55000 546.869
22.72000 530.975
22.89000 529.068
23.06000 514.789
23.23000 493.001
23.40000 501.231
23.57000 511.445
23.74000 498.040
23.91000 496.458
24.08000 499.296
24.25000 501.065
24.42000 486.306
24.59000 476.734
24.76000 503.155
24.93000 485.022
25.10000 481.371
25.27000 482.861
25.44000 473.775
25.61000 458.215
25.78000 476.126
25.95000 458.747
26.12000 468.442
26.29000 456.740
26.46000 455.989
26.63000 464.614
26.80000 472.895
26.97000 459.250
27.14000 452.776
27.31000 437.965
27.48000 453.504
27.65000 442.079
27.82000 437.989
27.99000 459.353
28.16000 461.589
28.33000 443.162
28.50000 440.186
28.67000 417.245
28.84000 436.115
29.01000 429.660
29.18000 413.178
29.35000 435.995
29.52000 438.409
29.69000 446.341
29.86000 471.759
30.03000 498.969
30.20000 479.075
30.37000 442.741
30.54000 480.547
30.71000 483.567
30.88000 680.914
31.05000 2112.915
31.22000 4838.839
31.39000 2964.538
31.56000 880.266
31.73000 532.395
31.90000 445.649
32.07000 404.730
32.24000 408.508
32.41000 397.578
32.58000 389.264
32.75000 393.201
32.92000 584.485
33.09000 454.872
33.26000 369.449
33.43000 357.220
33.60000 357.700
33.77000 351.292
33.94000 336.592
34.11000 334.428
34.28000 341.275
34.45000 330.266
34.62000 336.418
34.79000 313.074
34.96000 344.871
35.13000 335.707
35.30000 313.309
35.47000 317.574
35.64000 308.114
35.81000 295.225
35.98000 316.919
36.15000 297.387
36.32000 310.140
36.49000 307.293
36.66000 296.972
36.83000 312.920
37.00000 299.298
37.17000 293.664
37.34000 305.846
37.51000 311.292
37.68000 295.994
37.85000 291.971
38.02000 307.275
38.19000 341.202
38.36000 484.601
38.53000 675.088
38.70000 547.125
38.87000 363.711
39.04000 302.180
39.21000 274.168
39.38000 288.152
39.55000 267.655
39.72000 268.187
39.89000 260.091
40.06000 266.270
40.23000 263.522
40.40000 258.024
40.57000 246.640
40.74000 246.148
40.91000 255.653
41.08000 245.449
41.25000 237.041
41.42000 227.392
41.59000 234.989
41.76000 241.198
41.93000 233.383
42.10000 241.627
42.27000 232.478
42.44000 237.964
42.61000 240.429
42.78000 241.143
42.95000 244.428
43.12000 239.246
43.29000 239.046
43.46000 239.676
43.63000 241.517
43.80000 234.248
43.97000 243.970
44.14000 248.762
44.31000 279.090
44.48000 371.442
44.65000 531.510
44.82000 655.310
44.99000 484.867
45.16000 338.234
45.33000 285.766
45.50000 249.519
45.67000 223.982
45.84000 214.579
46.01000 209.028
46.18000 221.240
46.35000 210.086
46.52000 220.491
46.69000 199.858
46.86000 196.421
47.03000 197.394
47.20000 192.410
47.37000 205.729
47.54000 189.845
47.71000 184.120
47.88000 200.663
48.05000 200.587
48.22000 179.145
48.39000 196.474
48.56000 180.821
48.73000 180.045
48.90000 180.967
49.07000 179.767
49.24000 176.865
49.41000 171.187
49.58000 178.835
49.75000 192.280
49.92000 183.027
50.09000 201.167
50.26000 261.270
50.43000 296.999
50.60000 277.437
50.77000 224.980
50.94000 191.981
51.11000 179.755
51.28000 176.587
51.45000 184.359
51.62000 172.272
51.79000 177.771
51.96000 169.437
52.13000 162.290
52.30000 166.267
52.47000 169.093
52.64000 166.084
52.81000 160.987
52.98000 163.106
53.15000 158.527
53.32000 159.336
53.49000 186.567
53.66000 166.037
53.83000 157.740
54.00000 158.621
54.17000 158.802
54.34000 156.102
54.51000 168.683
54.68000 154.575
54.85000 164.074
55.02000 173.921
55.19000 208.816
55.36000 318.484
55.53000 584.153
55.70000 798.757
55.87000 585.884
56.04000 321.521
56.21000 215.549
56.38000 168.848
56.55000 168.079
56.72000 162.960
56.89000 153.466
57.06000 153.915
57.23000 147.031
57.40000 153.999
57.57000 154.571
57.74000 143.597
57.91000 145.984
58.08000 140.115
58.25000 144.283
58.42000 146.430
58.59000 150.861
58.76000 134.919
58.93000 134.696
59.10000 133.286
59.27000 144.114
59.44000 139.237
59.61000 141.411
59.78000 134.474
59.95000 137.971
60.12000 133.126
60.29000 138.153
60.46000 125.374
60.63000 132.787
60.80000 140.032
60.97000 135.408
61.14000 134.684
61.31000 137.058
61.48000 159.868
61.65000 365.548
61.82000 246.771
61.99000 154.405
62.16000 154.939
62.33000 145.815
62.50000 145.675
62.67000 153.152
62.84000 160.419
63.01000 141.386
63.18000 141.752
63.35000 150.197
63.52000 155.463
63.69000 154.990
63.86000 164.025
64.03000 160.153
64.20000 156.732
64.37000 159.383
64.54000 174.549
64.71000 206.245
64.88000 270.208
65.05000 402.087
65.22000 465.207
65.39000 418.960
65.56000 364.626
65.73000 849.662
65.90000 1650.922
66.07000 472.444
66.24000 376.617
66.41000 573.192
66.58000 410.379
66.75000 355.258
66.92000 390.752
67.09000 400.375
67.26000 425.491
67.43000 473.288
67.60000 475.418
67.77000 550.022
67.94000 580.820
68.11000 653.924
68.28000 678.982
68.45000 854.910
68.62000 1239.363
68.79000 2482.064
68.96000 18915.088
69.13000 86305.852
69.30000 49960.055
69.47000 11722.895
69.64000 1532.033
69.81000 992.582
69.98000 768.204
70.00000 735.003