File: XRD/XRD/24-09-2025 Dep 3/XY Data/BTO_Mapping_Theta2Theta_24-09-2025_001_16_9-271_28-532.xy
20.00000 541.758
20.17000 565.186
20.34000 531.133
20.51000 550.849
20.68000 563.947
20.85000 535.748
21.02000 549.865
21.19000 539.625
21.36000 541.549
21.53000 514.968
21.70000 530.134
21.87000 576.525
22.04000 580.731
22.21000 599.776
22.38000 584.184
22.55000 539.747
22.72000 527.984
22.89000 510.424
23.06000 522.129
23.23000 506.742
23.40000 514.513
23.57000 497.045
23.74000 484.842
23.91000 500.727
24.08000 486.136
24.25000 497.837
24.42000 491.463
24.59000 480.650
24.76000 473.280
24.93000 459.746
25.10000 461.980
25.27000 465.184
25.44000 456.041
25.61000 468.338
25.78000 465.493
25.95000 451.121
26.12000 448.118
26.29000 454.900
26.46000 441.351
26.63000 456.411
26.80000 432.811
26.97000 446.230
27.14000 427.941
27.31000 428.786
27.48000 433.235
27.65000 434.798
27.82000 430.813
27.99000 421.718
28.16000 412.013
28.33000 410.450
28.50000 421.087
28.67000 397.358
28.84000 414.743
29.01000 419.466
29.18000 394.166
29.35000 414.913
29.52000 416.364
29.69000 394.075
29.86000 391.071
30.03000 439.187
30.20000 411.165
30.37000 409.178
30.54000 413.984
30.71000 432.725
30.88000 436.319
31.05000 500.948
31.22000 913.340
31.39000 1703.497
31.56000 1328.045
31.73000 636.821
31.90000 458.936
32.07000 414.745
32.24000 403.101
32.41000 377.962
32.58000 383.017
32.75000 352.647
32.92000 437.308
33.09000 399.523
33.26000 346.740
33.43000 335.933
33.60000 331.617
33.77000 341.219
33.94000 326.684
34.11000 318.367
34.28000 326.354
34.45000 317.110
34.62000 320.312
34.79000 323.098
34.96000 317.699
35.13000 308.562
35.30000 314.397
35.47000 315.639
35.64000 309.576
35.81000 303.103
35.98000 304.887
36.15000 292.113
36.32000 305.549
36.49000 301.534
36.66000 290.742
36.83000 305.696
37.00000 304.874
37.17000 309.678
37.34000 299.369
37.51000 293.810
37.68000 295.877
37.85000 288.193
38.02000 294.366
38.19000 307.025
38.36000 326.850
38.53000 586.474
38.70000 1430.490
38.87000 1189.752
39.04000 459.364
39.21000 306.124
39.38000 278.284
39.55000 273.349
39.72000 273.761
39.89000 270.675
40.06000 261.104
40.23000 258.926
40.40000 254.657
40.57000 235.000
40.74000 239.876
40.91000 237.975
41.08000 238.179
41.25000 234.852
41.42000 227.314
41.59000 227.186
41.76000 247.606
41.93000 236.142
42.10000 227.681
42.27000 225.978
42.44000 224.797
42.61000 226.171
42.78000 212.952
42.95000 225.092
43.12000 223.338
43.29000 229.173
43.46000 214.651
43.63000 230.380
43.80000 217.202
43.97000 215.758
44.14000 222.048
44.31000 218.825
44.48000 222.376
44.65000 220.309
44.82000 230.559
44.99000 236.032
45.16000 280.963
45.33000 267.931
45.50000 235.434
45.67000 228.824
45.84000 236.223
46.01000 225.134
46.18000 207.062
46.35000 209.886
46.52000 188.460
46.69000 196.192
46.86000 198.353
47.03000 200.959
47.20000 185.611
47.37000 192.456
47.54000 188.855
47.71000 186.728
47.88000 184.849
48.05000 193.276
48.22000 185.490
48.39000 178.662
48.56000 167.775
48.73000 183.285
48.90000 177.929
49.07000 173.862
49.24000 174.470
49.41000 171.255
49.58000 168.260
49.75000 173.958
49.92000 170.858
50.09000 174.860
50.26000 187.332
50.43000 180.983
50.60000 184.722
50.77000 200.056
50.94000 188.036
51.11000 177.599
51.28000 170.306
51.45000 167.207
51.62000 155.421
51.79000 153.929
51.96000 156.204
52.13000 161.567
52.30000 160.275
52.47000 142.113
52.64000 158.794
52.81000 159.225
52.98000 150.957
53.15000 164.152
53.32000 164.553
53.49000 160.830
53.66000 164.399
53.83000 152.063
54.00000 153.081
54.17000 152.830
54.34000 158.879
54.51000 148.406
54.68000 151.824
54.85000 154.963
55.02000 154.538
55.19000 159.249
55.36000 171.532
55.53000 200.441
55.70000 351.181
55.87000 695.548
56.04000 901.191
56.21000 617.925
56.38000 291.843
56.55000 182.050
56.72000 159.162
56.89000 152.413
57.06000 151.743
57.23000 143.246
57.40000 153.296
57.57000 147.934
57.74000 145.637
57.91000 140.292
58.08000 140.173
58.25000 130.932
58.42000 137.953
58.59000 143.893
58.76000 137.535
58.93000 138.794
59.10000 137.871
59.27000 141.694
59.44000 138.087
59.61000 131.460
59.78000 130.172
59.95000 125.816
60.12000 128.853
60.29000 128.289
60.46000 133.007
60.63000 122.249
60.80000 134.122
60.97000 138.108
61.14000 129.488
61.31000 131.584
61.48000 143.262
61.65000 249.677
61.82000 192.987
61.99000 126.113
62.16000 133.426
62.33000 146.220
62.50000 138.622
62.67000 134.433
62.84000 144.120
63.01000 145.511
63.18000 137.811
63.35000 137.660
63.52000 139.438
63.69000 144.558
63.86000 147.784
64.03000 161.607
64.20000 154.431
64.37000 158.695
64.54000 155.110
64.71000 162.511
64.88000 182.613
65.05000 186.726
65.22000 204.301
65.39000 232.555
65.56000 296.944
65.73000 586.333
65.90000 1073.280
66.07000 375.318
66.24000 313.278
66.41000 421.940
66.58000 362.109
66.75000 302.883
66.92000 316.128
67.09000 343.082
67.26000 359.489
67.43000 384.142
67.60000 411.986
67.77000 443.448
67.94000 502.238
68.11000 545.721
68.28000 564.306
68.45000 683.543
68.62000 938.248
68.79000 1689.356
68.96000 9684.091
69.13000 50412.285
69.30000 30172.957
69.47000 7700.820
69.64000 1168.309
69.81000 755.586
69.98000 654.414
70.00000 624.720