File: XRD/XRD/24-09-2025 Dep 3/XY Data/BTO_Mapping_Theta2Theta_24-09-2025_001_46_-1-045_-9-945.xy
20.00000 556.795
20.17000 564.766
20.34000 569.558
20.51000 562.658
20.68000 564.572
20.85000 552.936
21.02000 542.360
21.19000 560.600
21.36000 548.652
21.53000 538.582
21.70000 555.096
21.87000 596.081
22.04000 671.702
22.21000 651.713
22.38000 586.142
22.55000 529.795
22.72000 521.739
22.89000 505.949
23.06000 517.893
23.23000 504.664
23.40000 508.743
23.57000 506.748
23.74000 484.407
23.91000 499.874
24.08000 477.386
24.25000 480.813
24.42000 482.719
24.59000 481.311
24.76000 464.762
24.93000 460.185
25.10000 481.401
25.27000 471.645
25.44000 467.878
25.61000 467.135
25.78000 470.978
25.95000 464.931
26.12000 461.073
26.29000 453.716
26.46000 444.334
26.63000 451.244
26.80000 461.899
26.97000 452.443
27.14000 444.926
27.31000 424.248
27.48000 435.785
27.65000 439.957
27.82000 435.361
27.99000 427.497
28.16000 424.785
28.33000 433.006
28.50000 429.583
28.67000 424.720
28.84000 420.048
29.01000 402.193
29.18000 415.912
29.35000 401.745
29.52000 421.772
29.69000 424.501
29.86000 418.403
30.03000 453.930
30.20000 445.465
30.37000 416.306
30.54000 426.354
30.71000 436.629
30.88000 483.338
31.05000 679.447
31.22000 1787.116
31.39000 3146.380
31.56000 1873.416
31.73000 725.929
31.90000 469.891
32.07000 416.017
32.24000 404.693
32.41000 388.536
32.58000 388.499
32.75000 369.933
32.92000 487.050
33.09000 400.819
33.26000 344.733
33.43000 333.462
33.60000 340.091
33.77000 334.207
33.94000 331.487
34.11000 336.515
34.28000 332.187
34.45000 319.046
34.62000 334.210
34.79000 323.902
34.96000 318.506
35.13000 311.124
35.30000 329.864
35.47000 316.140
35.64000 309.525
35.81000 308.162
35.98000 289.378
36.15000 303.901
36.32000 295.785
36.49000 291.839
36.66000 307.477
36.83000 302.441
37.00000 307.310
37.17000 298.581
37.34000 303.962
37.51000 301.496
37.68000 302.704
37.85000 307.052
38.02000 291.118
38.19000 305.896
38.36000 381.839
38.53000 809.957
38.70000 1548.592
38.87000 1040.715
39.04000 400.645
39.21000 316.511
39.38000 275.264
39.55000 279.949
39.72000 289.429
39.89000 271.590
40.06000 266.058
40.23000 255.817
40.40000 257.536
40.57000 254.223
40.74000 246.013
40.91000 256.832
41.08000 244.599
41.25000 240.259
41.42000 249.793
41.59000 245.716
41.76000 225.644
41.93000 249.733
42.10000 229.651
42.27000 238.577
42.44000 228.914
42.61000 232.877
42.78000 233.419
42.95000 230.595
43.12000 242.787
43.29000 237.245
43.46000 223.169
43.63000 222.214
43.80000 221.684
43.97000 206.598
44.14000 228.404
44.31000 225.860
44.48000 219.842
44.65000 222.124
44.82000 252.646
44.99000 319.319
45.16000 336.673
45.33000 292.270
45.50000 258.310
45.67000 234.615
45.84000 231.577
46.01000 211.770
46.18000 224.171
46.35000 205.985
46.52000 198.586
46.69000 197.433
46.86000 189.331
47.03000 207.873
47.20000 198.328
47.37000 173.950
47.54000 190.865
47.71000 188.771
47.88000 192.074
48.05000 188.023
48.22000 193.702
48.39000 183.724
48.56000 176.794
48.73000 180.749
48.90000 179.822
49.07000 181.067
49.24000 176.393
49.41000 169.095
49.58000 181.161
49.75000 166.756
49.92000 178.398
50.09000 178.176
50.26000 170.947
50.43000 188.911
50.60000 227.212
50.77000 241.773
50.94000 209.711
51.11000 187.518
51.28000 177.728
51.45000 176.050
51.62000 157.062
51.79000 166.327
51.96000 162.118
52.13000 159.310
52.30000 174.402
52.47000 168.269
52.64000 155.470
52.81000 164.447
52.98000 150.130
53.15000 170.510
53.32000 163.608
53.49000 159.030
53.66000 163.985
53.83000 155.264
54.00000 159.637
54.17000 160.062
54.34000 167.495
54.51000 161.754
54.68000 152.623
54.85000 171.789
55.02000 160.948
55.19000 168.354
55.36000 176.010
55.53000 224.164
55.70000 424.548
55.87000 808.885
56.04000 777.602
56.21000 469.132
56.38000 238.284
56.55000 183.848
56.72000 169.614
56.89000 162.787
57.06000 154.936
57.23000 153.970
57.40000 148.113
57.57000 145.101
57.74000 139.876
57.91000 139.091
58.08000 133.273
58.25000 141.031
58.42000 143.350
58.59000 147.025
58.76000 130.278
58.93000 134.038
59.10000 132.078
59.27000 133.429
59.44000 138.566
59.61000 115.063
59.78000 143.085
59.95000 129.119
60.12000 130.334
60.29000 137.637
60.46000 125.135
60.63000 135.593
60.80000 140.871
60.97000 133.322
61.14000 139.542
61.31000 136.036
61.48000 147.876
61.65000 270.248
61.82000 183.521
61.99000 136.357
62.16000 137.407
62.33000 145.716
62.50000 137.889
62.67000 151.917
62.84000 142.793
63.01000 136.291
63.18000 145.822
63.35000 156.404
63.52000 139.927
63.69000 137.092
63.86000 158.787
64.03000 150.408
64.20000 152.068
64.37000 162.916
64.54000 173.282
64.71000 167.691
64.88000 183.553
65.05000 188.762
65.22000 239.897
65.39000 302.408
65.56000 371.307
65.73000 708.316
65.90000 1130.964
66.07000 386.441
66.24000 311.446
66.41000 438.136
66.58000 348.327
66.75000 303.120
66.92000 321.756
67.09000 353.418
67.26000 359.309
67.43000 403.546
67.60000 407.760
67.77000 471.378
67.94000 510.797
68.11000 512.042
68.28000 585.024
68.45000 688.393
68.62000 982.855
68.79000 1868.504
68.96000 12846.894
69.13000 55601.703
69.30000 32408.686
69.47000 7344.772
69.64000 1162.704
69.81000 797.495
69.98000 672.232
70.00000 663.860