File: XRD/XRD/24-09-2025 Dep 3/XY Data/BTO_Mapping_Theta2Theta_24-09-2025_001_17_12-361_38-042.xy
20.00000 554.333
20.17000 551.223
20.34000 544.116
20.51000 534.633
20.68000 541.119
20.85000 558.885
21.02000 542.726
21.19000 561.151
21.36000 543.798
21.53000 546.450
21.70000 534.837
21.87000 561.489
22.04000 599.718
22.21000 593.531
22.38000 566.482
22.55000 527.961
22.72000 512.784
22.89000 518.943
23.06000 499.411
23.23000 499.798
23.40000 504.851
23.57000 488.976
23.74000 495.972
23.91000 504.204
24.08000 492.086
24.25000 491.744
24.42000 472.987
24.59000 476.525
24.76000 470.624
24.93000 474.469
25.10000 453.919
25.27000 459.854
25.44000 477.173
25.61000 459.590
25.78000 460.290
25.95000 461.686
26.12000 459.256
26.29000 481.356
26.46000 431.098
26.63000 410.607
26.80000 424.132
26.97000 434.320
27.14000 448.316
27.31000 418.943
27.48000 426.227
27.65000 423.385
27.82000 418.428
27.99000 433.264
28.16000 421.088
28.33000 421.558
28.50000 434.610
28.67000 400.928
28.84000 403.551
29.01000 396.148
29.18000 413.310
29.35000 413.619
29.52000 391.325
29.69000 402.910
29.86000 399.810
30.03000 416.038
30.20000 414.678
30.37000 425.214
30.54000 407.978
30.71000 382.640
30.88000 423.264
31.05000 503.653
31.22000 849.034
31.39000 1547.431
31.56000 1149.276
31.73000 652.151
31.90000 457.896
32.07000 404.904
32.24000 402.492
32.41000 371.558
32.58000 381.043
32.75000 367.297
32.92000 460.823
33.09000 392.175
33.26000 340.573
33.43000 340.578
33.60000 337.533
33.77000 340.149
33.94000 331.663
34.11000 324.454
34.28000 310.984
34.45000 330.988
34.62000 326.634
34.79000 323.846
34.96000 310.696
35.13000 324.084
35.30000 316.733
35.47000 306.139
35.64000 306.780
35.81000 299.495
35.98000 289.607
36.15000 295.706
36.32000 321.212
36.49000 290.874
36.66000 302.321
36.83000 290.568
37.00000 295.097
37.17000 298.956
37.34000 295.274
37.51000 289.274
37.68000 287.032
37.85000 297.582
38.02000 304.752
38.19000 295.589
38.36000 326.501
38.53000 546.725
38.70000 1341.674
38.87000 1243.857
39.04000 478.986
39.21000 301.085
39.38000 270.894
39.55000 271.407
39.72000 267.640
39.89000 262.238
40.06000 264.646
40.23000 258.775
40.40000 261.093
40.57000 251.132
40.74000 252.432
40.91000 240.146
41.08000 251.912
41.25000 228.189
41.42000 247.242
41.59000 245.176
41.76000 242.130
41.93000 244.174
42.10000 241.242
42.27000 236.599
42.44000 232.099
42.61000 231.304
42.78000 236.032
42.95000 216.064
43.12000 226.448
43.29000 226.019
43.46000 225.263
43.63000 223.089
43.80000 208.086
43.97000 225.839
44.14000 214.132
44.31000 220.455
44.48000 216.661
44.65000 224.867
44.82000 241.827
44.99000 257.791
45.16000 282.306
45.33000 258.949
45.50000 235.232
45.67000 238.613
45.84000 229.815
46.01000 217.347
46.18000 203.066
46.35000 206.282
46.52000 209.636
46.69000 201.262
46.86000 194.045
47.03000 193.207
47.20000 185.352
47.37000 190.957
47.54000 197.842
47.71000 191.587
47.88000 191.507
48.05000 187.689
48.22000 186.188
48.39000 186.276
48.56000 186.961
48.73000 183.243
48.90000 173.964
49.07000 190.393
49.24000 178.967
49.41000 173.445
49.58000 180.244
49.75000 175.266
49.92000 179.996
50.09000 183.097
50.26000 177.170
50.43000 178.738
50.60000 171.717
50.77000 190.286
50.94000 194.299
51.11000 171.033
51.28000 177.977
51.45000 166.885
51.62000 174.489
51.79000 141.805
51.96000 167.635
52.13000 151.093
52.30000 167.545
52.47000 169.733
52.64000 161.954
52.81000 171.342
52.98000 155.504
53.15000 157.495
53.32000 170.149
53.49000 158.388
53.66000 153.091
53.83000 165.209
54.00000 164.728
54.17000 151.001
54.34000 159.168
54.51000 156.116
54.68000 156.462
54.85000 169.867
55.02000 158.066
55.19000 150.529
55.36000 173.410
55.53000 194.920
55.70000 310.226
55.87000 647.228
56.04000 835.382
56.21000 598.572
56.38000 311.374
56.55000 186.943
56.72000 167.503
56.89000 148.392
57.06000 141.963
57.23000 146.149
57.40000 143.806
57.57000 150.645
57.74000 146.001
57.91000 140.455
58.08000 143.379
58.25000 132.669
58.42000 129.440
58.59000 135.648
58.76000 132.662
58.93000 138.588
59.10000 135.400
59.27000 136.652
59.44000 134.395
59.61000 145.146
59.78000 128.911
59.95000 126.865
60.12000 129.404
60.29000 143.484
60.46000 135.312
60.63000 128.121
60.80000 137.183
60.97000 133.040
61.14000 140.585
61.31000 131.846
61.48000 142.319
61.65000 248.337
61.82000 203.538
61.99000 142.955
62.16000 138.485
62.33000 130.927
62.50000 140.856
62.67000 144.062
62.84000 149.728
63.01000 149.009
63.18000 147.305
63.35000 139.334
63.52000 142.291
63.69000 153.434
63.86000 156.029
64.03000 146.464
64.20000 144.838
64.37000 151.218
64.54000 161.320
64.71000 168.124
64.88000 185.041
65.05000 187.184
65.22000 206.001
65.39000 235.954
65.56000 275.971
65.73000 544.924
65.90000 1023.989
66.07000 382.140
66.24000 284.442
66.41000 428.710
66.58000 351.230
66.75000 317.509
66.92000 310.181
67.09000 335.860
67.26000 364.076
67.43000 381.888
67.60000 411.258
67.77000 444.869
67.94000 486.501
68.11000 521.914
68.28000 582.694
68.45000 694.292
68.62000 924.634
68.79000 1651.982
68.96000 8887.521
69.13000 49994.285
69.30000 30541.242
69.47000 8262.871
69.64000 1136.643
69.81000 741.314
69.98000 623.338
70.00000 627.999