File: XRD/XRD/24-09-2025 Dep 3/XY Data/BTO_Mapping_Theta2Theta_24-09-2025_001_04_30-000_0-000.xy
20.00000 552.304
20.17000 552.204
20.34000 563.606
20.51000 572.347
20.68000 561.923
20.85000 556.994
21.02000 554.174
21.19000 538.474
21.36000 571.803
21.53000 543.723
21.70000 564.701
21.87000 590.708
22.04000 602.900
22.21000 600.566
22.38000 546.201
22.55000 539.808
22.72000 535.344
22.89000 512.291
23.06000 523.907
23.23000 513.637
23.40000 515.701
23.57000 514.156
23.74000 517.532
23.91000 537.914
24.08000 520.428
24.25000 515.274
24.42000 505.995
24.59000 494.075
24.76000 483.081
24.93000 469.699
25.10000 467.514
25.27000 474.709
25.44000 482.037
25.61000 466.636
25.78000 463.449
25.95000 479.832
26.12000 458.912
26.29000 464.911
26.46000 458.312
26.63000 452.706
26.80000 469.884
26.97000 433.661
27.14000 425.808
27.31000 452.633
27.48000 448.910
27.65000 454.033
27.82000 447.323
27.99000 444.031
28.16000 413.300
28.33000 434.094
28.50000 427.659
28.67000 412.111
28.84000 425.660
29.01000 427.472
29.18000 412.661
29.35000 408.719
29.52000 417.601
29.69000 416.701
29.86000 398.044
30.03000 447.553
30.20000 449.459
30.37000 408.882
30.54000 424.605
30.71000 432.921
30.88000 470.881
31.05000 553.293
31.22000 947.597
31.39000 1319.343
31.56000 957.283
31.73000 586.172
31.90000 448.333
32.07000 414.209
32.24000 424.871
32.41000 395.571
32.58000 379.309
32.75000 363.840
32.92000 458.190
33.09000 384.480
33.26000 338.555
33.43000 340.096
33.60000 329.977
33.77000 345.576
33.94000 334.791
34.11000 341.204
34.28000 358.547
34.45000 334.629
34.62000 351.593
34.79000 319.546
34.96000 318.932
35.13000 335.702
35.30000 316.163
35.47000 311.629
35.64000 314.390
35.81000 312.540
35.98000 308.962
36.15000 295.628
36.32000 306.492
36.49000 297.865
36.66000 316.017
36.83000 307.255
37.00000 305.481
37.17000 312.133
37.34000 301.529
37.51000 301.496
37.68000 286.003
37.85000 305.523
38.02000 302.448
38.19000 327.983
38.36000 351.801
38.53000 624.558
38.70000 1207.186
38.87000 922.578
39.04000 413.845
39.21000 306.105
39.38000 274.933
39.55000 265.629
39.72000 269.994
39.89000 256.804
40.06000 272.168
40.23000 257.251
40.40000 250.462
40.57000 250.108
40.74000 249.670
40.91000 246.834
41.08000 233.991
41.25000 250.770
41.42000 250.230
41.59000 241.514
41.76000 259.054
41.93000 237.881
42.10000 242.341
42.27000 246.364
42.44000 248.287
42.61000 238.640
42.78000 234.830
42.95000 240.440
43.12000 231.617
43.29000 236.197
43.46000 217.720
43.63000 227.852
43.80000 225.100
43.97000 220.309
44.14000 223.615
44.31000 214.219
44.48000 235.770
44.65000 236.641
44.82000 259.184
44.99000 268.819
45.16000 276.442
45.33000 258.432
45.50000 230.093
45.67000 226.402
45.84000 229.519
46.01000 210.017
46.18000 207.394
46.35000 205.331
46.52000 207.320
46.69000 209.614
46.86000 195.100
47.03000 191.221
47.20000 189.285
47.37000 192.347
47.54000 191.169
47.71000 188.889
47.88000 192.498
48.05000 190.291
48.22000 185.139
48.39000 184.835
48.56000 179.513
48.73000 192.353
48.90000 173.858
49.07000 182.341
49.24000 178.657
49.41000 181.660
49.58000 173.285
49.75000 181.196
49.92000 172.039
50.09000 180.628
50.26000 181.540
50.43000 185.916
50.60000 192.629
50.77000 190.582
50.94000 185.832
51.11000 170.939
51.28000 163.354
51.45000 189.243
51.62000 161.230
51.79000 164.877
51.96000 168.509
52.13000 156.629
52.30000 160.625
52.47000 176.189
52.64000 167.202
52.81000 162.005
52.98000 164.110
53.15000 160.613
53.32000 167.036
53.49000 166.304
53.66000 163.284
53.83000 160.269
54.00000 161.257
54.17000 160.240
54.34000 158.345
54.51000 157.533
54.68000 154.240
54.85000 167.370
55.02000 162.463
55.19000 166.080
55.36000 183.592
55.53000 225.823
55.70000 353.066
55.87000 578.704
56.04000 616.515
56.21000 403.531
56.38000 225.027
56.55000 194.407
56.72000 167.449
56.89000 166.272
57.06000 158.603
57.23000 151.842
57.40000 154.798
57.57000 151.943
57.74000 133.718
57.91000 152.712
58.08000 155.739
58.25000 131.557
58.42000 139.020
58.59000 136.710
58.76000 130.959
58.93000 136.642
59.10000 144.883
59.27000 127.497
59.44000 134.276
59.61000 135.494
59.78000 133.287
59.95000 135.130
60.12000 128.486
60.29000 138.020
60.46000 131.207
60.63000 134.045
60.80000 133.870
60.97000 137.997
61.14000 125.479
61.31000 140.151
61.48000 132.284
61.65000 274.309
61.82000 207.445
61.99000 143.040
62.16000 145.202
62.33000 145.473
62.50000 138.378
62.67000 149.767
62.84000 132.627
63.01000 146.436
63.18000 148.525
63.35000 141.141
63.52000 151.671
63.69000 158.253
63.86000 162.039
64.03000 165.227
64.20000 161.426
64.37000 156.908
64.54000 172.266
64.71000 173.769
64.88000 191.237
65.05000 184.233
65.22000 214.983
65.39000 236.653
65.56000 275.612
65.73000 564.750
65.90000 1084.647
66.07000 397.096
66.24000 308.437
66.41000 434.893
66.58000 331.094
66.75000 304.152
66.92000 324.372
67.09000 357.584
67.26000 380.812
67.43000 398.740
67.60000 416.555
67.77000 481.721
67.94000 488.546
68.11000 556.576
68.28000 614.642
68.45000 732.738
68.62000 967.947
68.79000 1829.532
68.96000 11257.387
69.13000 54792.961
69.30000 32215.342
69.47000 7804.591
69.64000 1205.968
69.81000 817.251
69.98000 661.247
70.00000 652.626