File: XRD/XRD/24-09-2025 Dep 3/XY Data/BTO_Mapping_Theta2Theta_24-09-2025_001_08_27-406_12-202.xy
20.00000 551.113
20.17000 564.198
20.34000 566.272
20.51000 554.728
20.68000 552.534
20.85000 546.919
21.02000 554.979
21.19000 559.817
21.36000 539.423
21.53000 535.664
21.70000 544.976
21.87000 585.993
22.04000 593.287
22.21000 597.878
22.38000 577.442
22.55000 546.579
22.72000 524.502
22.89000 519.233
23.06000 507.363
23.23000 503.686
23.40000 518.218
23.57000 520.012
23.74000 520.309
23.91000 493.902
24.08000 488.691
24.25000 497.174
24.42000 503.814
24.59000 469.100
24.76000 511.065
24.93000 468.079
25.10000 473.959
25.27000 475.372
25.44000 457.422
25.61000 445.182
25.78000 476.622
25.95000 459.554
26.12000 451.352
26.29000 452.361
26.46000 444.849
26.63000 441.125
26.80000 459.763
26.97000 430.881
27.14000 432.906
27.31000 449.490
27.48000 424.979
27.65000 443.338
27.82000 424.181
27.99000 442.103
28.16000 444.067
28.33000 435.554
28.50000 412.540
28.67000 413.540
28.84000 427.019
29.01000 431.688
29.18000 402.474
29.35000 416.020
29.52000 415.331
29.69000 416.691
29.86000 408.986
30.03000 412.135
30.20000 443.439
30.37000 416.874
30.54000 413.152
30.71000 421.892
30.88000 471.186
31.05000 566.357
31.22000 933.231
31.39000 1357.674
31.56000 1030.290
31.73000 586.765
31.90000 440.683
32.07000 416.932
32.24000 418.325
32.41000 392.400
32.58000 373.211
32.75000 379.533
32.92000 448.404
33.09000 407.179
33.26000 365.664
33.43000 370.981
33.60000 347.348
33.77000 345.425
33.94000 334.198
34.11000 346.840
34.28000 332.050
34.45000 335.310
34.62000 318.016
34.79000 328.030
34.96000 308.633
35.13000 325.406
35.30000 303.796
35.47000 316.784
35.64000 316.390
35.81000 300.673
35.98000 313.807
36.15000 306.411
36.32000 306.967
36.49000 288.291
36.66000 294.690
36.83000 297.591
37.00000 316.014
37.17000 306.693
37.34000 300.885
37.51000 307.038
37.68000 300.963
37.85000 299.547
38.02000 311.209
38.19000 311.281
38.36000 320.674
38.53000 592.854
38.70000 1265.781
38.87000 1022.420
39.04000 408.655
39.21000 294.339
39.38000 300.052
39.55000 278.546
39.72000 275.708
39.89000 262.636
40.06000 260.459
40.23000 265.445
40.40000 253.991
40.57000 261.884
40.74000 258.034
40.91000 242.623
41.08000 247.154
41.25000 239.826
41.42000 240.310
41.59000 236.112
41.76000 232.895
41.93000 236.834
42.10000 235.385
42.27000 238.279
42.44000 234.162
42.61000 231.144
42.78000 233.266
42.95000 220.854
43.12000 214.039
43.29000 221.881
43.46000 229.010
43.63000 225.590
43.80000 220.025
43.97000 220.407
44.14000 225.088
44.31000 225.001
44.48000 223.064
44.65000 240.953
44.82000 249.611
44.99000 259.216
45.16000 287.818
45.33000 258.426
45.50000 240.351
45.67000 229.561
45.84000 212.055
46.01000 201.863
46.18000 193.936
46.35000 221.266
46.52000 198.870
46.69000 208.830
46.86000 191.609
47.03000 192.416
47.20000 190.645
47.37000 198.781
47.54000 183.726
47.71000 190.426
47.88000 192.149
48.05000 194.923
48.22000 175.822
48.39000 179.634
48.56000 181.112
48.73000 181.342
48.90000 183.367
49.07000 169.677
49.24000 176.868
49.41000 182.400
49.58000 176.113
49.75000 191.505
49.92000 172.092
50.09000 170.521
50.26000 168.038
50.43000 189.728
50.60000 185.929
50.77000 193.566
50.94000 172.744
51.11000 177.676
51.28000 149.487
51.45000 152.287
51.62000 163.863
51.79000 164.927
51.96000 164.537
52.13000 161.545
52.30000 157.652
52.47000 169.383
52.64000 158.437
52.81000 154.095
52.98000 165.660
53.15000 160.410
53.32000 162.186
53.49000 163.269
53.66000 166.153
53.83000 151.128
54.00000 164.204
54.17000 156.173
54.34000 153.255
54.51000 157.587
54.68000 165.588
54.85000 154.850
55.02000 162.207
55.19000 167.637
55.36000 180.342
55.53000 215.796
55.70000 354.805
55.87000 632.092
56.04000 653.569
56.21000 447.662
56.38000 242.665
56.55000 191.058
56.72000 165.992
56.89000 163.947
57.06000 147.982
57.23000 147.605
57.40000 153.082
57.57000 151.748
57.74000 147.921
57.91000 141.150
58.08000 139.907
58.25000 155.201
58.42000 137.625
58.59000 137.494
58.76000 140.097
58.93000 126.610
59.10000 136.862
59.27000 139.516
59.44000 136.770
59.61000 136.332
59.78000 134.020
59.95000 123.321
60.12000 125.203
60.29000 137.457
60.46000 137.436
60.63000 137.643
60.80000 127.590
60.97000 125.648
61.14000 134.883
61.31000 131.738
61.48000 140.652
61.65000 250.547
61.82000 193.899
61.99000 138.282
62.16000 134.609
62.33000 144.405
62.50000 144.594
62.67000 149.478
62.84000 133.158
63.01000 147.724
63.18000 148.492
63.35000 148.286
63.52000 145.926
63.69000 146.530
63.86000 148.601
64.03000 163.085
64.20000 158.966
64.37000 153.394
64.54000 170.198
64.71000 181.226
64.88000 170.414
65.05000 191.697
65.22000 199.032
65.39000 233.244
65.56000 262.790
65.73000 545.525
65.90000 1061.501
66.07000 388.121
66.24000 319.191
66.41000 433.771
66.58000 332.456
66.75000 315.816
66.92000 322.912
67.09000 352.897
67.26000 373.245
67.43000 376.808
67.60000 427.149
67.77000 472.672
67.94000 510.714
68.11000 541.334
68.28000 582.151
68.45000 702.538
68.62000 990.863
68.79000 1730.159
68.96000 10279.989
69.13000 53295.781
69.30000 31600.014
69.47000 8067.210
69.64000 1171.067
69.81000 821.905
69.98000 662.905
70.00000 650.219