File: XRD/XRD/24-09-2025 Dep 3/XY Data/BTO_Mapping_Theta2Theta_24-09-2025_001_12_20-074_22-294.xy
20.00000 571.493
20.17000 550.673
20.34000 588.228
20.51000 561.411
20.68000 552.205
20.85000 543.818
21.02000 548.623
21.19000 549.839
21.36000 525.477
21.53000 527.620
21.70000 547.895
21.87000 549.318
22.04000 614.627
22.21000 602.755
22.38000 576.333
22.55000 518.741
22.72000 525.380
22.89000 521.668
23.06000 509.271
23.23000 485.181
23.40000 525.474
23.57000 498.770
23.74000 501.055
23.91000 502.651
24.08000 508.253
24.25000 490.964
24.42000 492.950
24.59000 483.968
24.76000 489.019
24.93000 478.517
25.10000 488.851
25.27000 461.758
25.44000 467.846
25.61000 453.277
25.78000 464.249
25.95000 457.565
26.12000 445.783
26.29000 471.598
26.46000 446.729
26.63000 468.382
26.80000 426.171
26.97000 428.372
27.14000 448.726
27.31000 453.466
27.48000 414.420
27.65000 421.772
27.82000 412.448
27.99000 434.004
28.16000 431.177
28.33000 427.013
28.50000 421.901
28.67000 401.827
28.84000 428.497
29.01000 424.615
29.18000 426.259
29.35000 412.823
29.52000 410.774
29.69000 407.495
29.86000 397.724
30.03000 420.983
30.20000 416.547
30.37000 410.305
30.54000 401.142
30.71000 419.600
30.88000 422.111
31.05000 513.182
31.22000 919.076
31.39000 1510.789
31.56000 1110.738
31.73000 630.020
31.90000 450.294
32.07000 419.205
32.24000 383.834
32.41000 393.671
32.58000 391.227
32.75000 369.150
32.92000 430.414
33.09000 397.567
33.26000 330.374
33.43000 357.752
33.60000 320.475
33.77000 343.428
33.94000 337.102
34.11000 329.580
34.28000 323.459
34.45000 325.788
34.62000 352.251
34.79000 326.978
34.96000 321.193
35.13000 304.512
35.30000 311.551
35.47000 300.934
35.64000 312.880
35.81000 313.244
35.98000 302.904
36.15000 302.817
36.32000 291.614
36.49000 294.284
36.66000 279.167
36.83000 304.993
37.00000 306.509
37.17000 306.745
37.34000 291.476
37.51000 301.011
37.68000 298.523
37.85000 297.779
38.02000 308.336
38.19000 305.062
38.36000 326.652
38.53000 577.778
38.70000 1300.557
38.87000 1158.406
39.04000 452.842
39.21000 298.364
39.38000 275.715
39.55000 286.719
39.72000 271.250
39.89000 275.936
40.06000 268.500
40.23000 248.927
40.40000 249.957
40.57000 260.144
40.74000 250.186
40.91000 260.506
41.08000 246.008
41.25000 247.589
41.42000 259.766
41.59000 231.175
41.76000 238.144
41.93000 227.559
42.10000 221.362
42.27000 240.407
42.44000 224.795
42.61000 228.969
42.78000 249.152
42.95000 234.583
43.12000 235.158
43.29000 220.863
43.46000 223.939
43.63000 220.974
43.80000 210.958
43.97000 221.429
44.14000 221.051
44.31000 221.960
44.48000 219.241
44.65000 222.516
44.82000 236.389
44.99000 263.415
45.16000 283.118
45.33000 256.910
45.50000 244.897
45.67000 227.489
45.84000 208.518
46.01000 212.145
46.18000 210.733
46.35000 220.786
46.52000 213.557
46.69000 189.346
46.86000 201.170
47.03000 202.331
47.20000 191.540
47.37000 187.428
47.54000 200.404
47.71000 192.164
47.88000 193.596
48.05000 182.665
48.22000 187.340
48.39000 191.306
48.56000 175.089
48.73000 170.487
48.90000 175.493
49.07000 187.271
49.24000 183.065
49.41000 173.230
49.58000 177.242
49.75000 179.454
49.92000 165.488
50.09000 183.540
50.26000 172.776
50.43000 181.516
50.60000 184.466
50.77000 187.245
50.94000 191.324
51.11000 180.937
51.28000 194.250
51.45000 168.178
51.62000 159.770
51.79000 172.190
51.96000 165.621
52.13000 159.049
52.30000 158.901
52.47000 156.198
52.64000 163.732
52.81000 157.234
52.98000 153.430
53.15000 170.764
53.32000 158.300
53.49000 170.518
53.66000 153.828
53.83000 159.769
54.00000 149.524
54.17000 154.411
54.34000 168.576
54.51000 159.953
54.68000 151.674
54.85000 155.379
55.02000 159.535
55.19000 164.043
55.36000 181.102
55.53000 208.620
55.70000 333.921
55.87000 621.378
56.04000 803.791
56.21000 522.439
56.38000 294.476
56.55000 180.352
56.72000 166.546
56.89000 148.721
57.06000 144.037
57.23000 142.004
57.40000 143.239
57.57000 149.738
57.74000 139.696
57.91000 147.844
58.08000 140.842
58.25000 135.960
58.42000 138.978
58.59000 142.547
58.76000 133.544
58.93000 137.717
59.10000 127.511
59.27000 125.791
59.44000 142.057
59.61000 126.546
59.78000 128.694
59.95000 148.113
60.12000 132.552
60.29000 131.702
60.46000 136.595
60.63000 130.956
60.80000 136.547
60.97000 128.695
61.14000 142.689
61.31000 127.461
61.48000 134.370
61.65000 263.199
61.82000 194.699
61.99000 145.912
62.16000 144.559
62.33000 135.275
62.50000 142.734
62.67000 146.715
62.84000 142.642
63.01000 147.064
63.18000 137.104
63.35000 148.915
63.52000 151.133
63.69000 148.136
63.86000 146.655
64.03000 161.528
64.20000 162.448
64.37000 155.420
64.54000 166.539
64.71000 166.322
64.88000 170.338
65.05000 187.065
65.22000 207.092
65.39000 240.864
65.56000 286.793
65.73000 566.896
65.90000 1030.854
66.07000 376.877
66.24000 301.135
66.41000 423.370
66.58000 331.192
66.75000 314.721
66.92000 319.421
67.09000 336.489
67.26000 376.340
67.43000 391.305
67.60000 408.859
67.77000 440.087
67.94000 496.859
68.11000 549.125
68.28000 575.232
68.45000 666.174
68.62000 938.180
68.79000 1703.466
68.96000 9667.711
69.13000 50165.430
69.30000 30020.605
69.47000 7673.775
69.64000 1174.364
69.81000 781.079
69.98000 625.185
70.00000 630.320