File: XRD/XRD/24-09-2025 Dep 3/XY Data/BTO_Mapping_Theta2Theta_24-09-2025_001_57_26-765_-29-726.xy
20.00000 578.397
20.17000 592.070
20.34000 577.032
20.51000 539.980
20.68000 554.644
20.85000 551.208
21.02000 543.026
21.19000 550.668
21.36000 558.626
21.53000 532.977
21.70000 552.842
21.87000 595.142
22.04000 611.606
22.21000 600.992
22.38000 559.693
22.55000 525.906
22.72000 508.786
22.89000 517.191
23.06000 519.228
23.23000 513.340
23.40000 517.225
23.57000 522.525
23.74000 539.273
23.91000 527.894
24.08000 553.822
24.25000 511.447
24.42000 491.702
24.59000 496.093
24.76000 479.691
24.93000 492.197
25.10000 472.450
25.27000 489.454
25.44000 473.043
25.61000 454.104
25.78000 465.952
25.95000 477.897
26.12000 463.523
26.29000 465.065
26.46000 453.351
26.63000 448.054
26.80000 437.423
26.97000 453.481
27.14000 448.896
27.31000 430.344
27.48000 432.913
27.65000 435.878
27.82000 451.914
27.99000 415.988
28.16000 439.158
28.33000 422.123
28.50000 421.279
28.67000 397.097
28.84000 416.806
29.01000 419.406
29.18000 414.306
29.35000 410.219
29.52000 423.352
29.69000 413.719
29.86000 407.416
30.03000 408.936
30.20000 442.065
30.37000 431.232
30.54000 418.796
30.71000 419.290
30.88000 460.509
31.05000 561.061
31.22000 938.961
31.39000 1292.189
31.56000 937.015
31.73000 578.953
31.90000 450.252
32.07000 419.456
32.24000 406.019
32.41000 397.974
32.58000 368.390
32.75000 362.052
32.92000 461.522
33.09000 381.994
33.26000 361.995
33.43000 359.531
33.60000 356.380
33.77000 344.944
33.94000 357.964
34.11000 355.823
34.28000 354.168
34.45000 359.219
34.62000 331.461
34.79000 324.345
34.96000 331.120
35.13000 318.147
35.30000 302.974
35.47000 312.911
35.64000 322.741
35.81000 290.172
35.98000 304.178
36.15000 295.218
36.32000 288.609
36.49000 320.395
36.66000 293.002
36.83000 283.494
37.00000 304.330
37.17000 304.063
37.34000 288.439
37.51000 297.722
37.68000 308.239
37.85000 302.454
38.02000 293.489
38.19000 321.749
38.36000 364.917
38.53000 628.036
38.70000 1265.249
38.87000 954.415
39.04000 399.672
39.21000 306.620
39.38000 298.156
39.55000 280.415
39.72000 278.627
39.89000 272.820
40.06000 259.618
40.23000 264.071
40.40000 261.973
40.57000 252.486
40.74000 245.978
40.91000 251.414
41.08000 236.251
41.25000 242.284
41.42000 232.051
41.59000 249.722
41.76000 260.645
41.93000 246.004
42.10000 242.442
42.27000 247.382
42.44000 232.400
42.61000 243.163
42.78000 244.632
42.95000 232.038
43.12000 229.898
43.29000 228.099
43.46000 225.065
43.63000 222.761
43.80000 223.180
43.97000 220.159
44.14000 221.593
44.31000 217.630
44.48000 236.508
44.65000 239.615
44.82000 261.191
44.99000 260.633
45.16000 272.794
45.33000 247.403
45.50000 241.324
45.67000 220.888
45.84000 201.785
46.01000 230.306
46.18000 204.335
46.35000 206.040
46.52000 194.126
46.69000 213.483
46.86000 198.936
47.03000 198.691
47.20000 195.972
47.37000 192.823
47.54000 193.098
47.71000 197.262
47.88000 170.834
48.05000 176.423
48.22000 188.362
48.39000 181.581
48.56000 180.122
48.73000 180.827
48.90000 180.791
49.07000 182.481
49.24000 182.920
49.41000 175.279
49.58000 176.841
49.75000 190.078
49.92000 169.645
50.09000 187.240
50.26000 188.049
50.43000 168.870
50.60000 189.414
50.77000 200.879
50.94000 186.584
51.11000 177.161
51.28000 159.667
51.45000 171.936
51.62000 169.962
51.79000 167.687
51.96000 161.867
52.13000 160.717
52.30000 158.430
52.47000 153.078
52.64000 161.019
52.81000 157.603
52.98000 162.517
53.15000 178.914
53.32000 167.432
53.49000 167.267
53.66000 157.756
53.83000 154.332
54.00000 157.077
54.17000 161.444
54.34000 165.800
54.51000 150.141
54.68000 165.727
54.85000 153.122
55.02000 163.745
55.19000 174.656
55.36000 188.595
55.53000 234.859
55.70000 357.804
55.87000 579.217
56.04000 625.205
56.21000 410.521
56.38000 259.639
56.55000 188.052
56.72000 173.861
56.89000 160.650
57.06000 155.713
57.23000 146.913
57.40000 144.807
57.57000 143.037
57.74000 149.369
57.91000 151.165
58.08000 148.596
58.25000 141.360
58.42000 135.489
58.59000 143.634
58.76000 135.963
58.93000 140.264
59.10000 138.826
59.27000 137.171
59.44000 136.993
59.61000 128.958
59.78000 137.534
59.95000 139.171
60.12000 127.371
60.29000 134.668
60.46000 135.460
60.63000 138.319
60.80000 133.740
60.97000 127.846
61.14000 136.674
61.31000 132.158
61.48000 153.422
61.65000 257.857
61.82000 198.865
61.99000 143.157
62.16000 132.136
62.33000 153.135
62.50000 145.239
62.67000 142.217
62.84000 139.805
63.01000 144.523
63.18000 149.935
63.35000 144.264
63.52000 151.841
63.69000 153.896
63.86000 153.151
64.03000 158.874
64.20000 157.099
64.37000 158.471
64.54000 174.814
64.71000 169.621
64.88000 185.268
65.05000 193.515
65.22000 207.751
65.39000 227.368
65.56000 277.916
65.73000 580.853
65.90000 1094.451
66.07000 356.123
66.24000 316.322
66.41000 439.726
66.58000 359.699
66.75000 316.708
66.92000 331.369
67.09000 343.430
67.26000 372.011
67.43000 400.917
67.60000 441.214
67.77000 467.064
67.94000 526.540
68.11000 546.430
68.28000 621.143
68.45000 729.039
68.62000 965.309
68.79000 1755.710
68.96000 11907.104
69.13000 54584.953
69.30000 31513.850
69.47000 7268.696
69.64000 1159.500
69.81000 793.384
69.98000 657.558
70.00000 654.732