File: XRD/09-10-2025 Dep 8/XY Data/BTO_Mapping_Theta2Theta_09-10-2025_001_53_12-361_-38-042.xy
20.00000 480.497
20.17000 484.643
20.34000 474.115
20.51000 483.474
20.68000 490.924
20.85000 480.944
21.02000 484.221
21.19000 483.681
21.36000 485.744
21.53000 482.778
21.70000 475.947
21.87000 528.813
22.04000 602.594
22.21000 610.447
22.38000 522.131
22.55000 484.936
22.72000 456.465
22.89000 432.525
23.06000 437.342
23.23000 438.117
23.40000 450.809
23.57000 452.119
23.74000 419.129
23.91000 437.308
24.08000 444.363
24.25000 430.361
24.42000 425.144
24.59000 393.087
24.76000 417.133
24.93000 398.008
25.10000 424.014
25.27000 413.115
25.44000 410.373
25.61000 402.590
25.78000 415.917
25.95000 403.373
26.12000 391.964
26.29000 409.909
26.46000 378.906
26.63000 380.984
26.80000 391.943
26.97000 372.972
27.14000 395.131
27.31000 379.567
27.48000 373.219
27.65000 395.007
27.82000 369.557
27.99000 380.805
28.16000 375.603
28.33000 372.834
28.50000 395.168
28.67000 369.328
28.84000 342.275
29.01000 365.055
29.18000 356.784
29.35000 360.840
29.52000 368.266
29.69000 353.153
29.86000 381.590
30.03000 444.995
30.20000 437.835
30.37000 411.723
30.54000 431.832
30.71000 412.076
30.88000 427.384
31.05000 573.062
31.22000 1286.776
31.39000 2962.551
31.56000 2174.096
31.73000 841.761
31.90000 493.840
32.07000 383.782
32.24000 361.143
32.41000 343.487
32.58000 325.311
32.75000 324.218
32.92000 321.501
33.09000 319.449
33.26000 295.202
33.43000 284.907
33.60000 296.258
33.77000 283.805
33.94000 303.547
34.11000 276.608
34.28000 292.911
34.45000 291.084
34.62000 286.489
34.79000 282.351
34.96000 271.901
35.13000 276.228
35.30000 272.789
35.47000 266.428
35.64000 272.854
35.81000 270.566
35.98000 271.089
36.15000 266.134
36.32000 265.996
36.49000 276.931
36.66000 266.934
36.83000 268.140
37.00000 287.037
37.17000 286.252
37.34000 257.712
37.51000 259.762
37.68000 245.897
37.85000 251.344
38.02000 244.513
38.19000 279.976
38.36000 302.586
38.53000 480.667
38.70000 1012.264
38.87000 869.147
39.04000 377.126
39.21000 285.862
39.38000 248.800
39.55000 241.035
39.72000 233.663
39.89000 229.254
40.06000 237.305
40.23000 225.388
40.40000 225.906
40.57000 217.053
40.74000 243.045
40.91000 217.021
41.08000 204.245
41.25000 212.015
41.42000 210.818
41.59000 218.329
41.76000 223.158
41.93000 206.617
42.10000 206.828
42.27000 203.445
42.44000 206.689
42.61000 193.386
42.78000 198.090
42.95000 199.210
43.12000 202.505
43.29000 207.589
43.46000 206.948
43.63000 204.080
43.80000 194.947
43.97000 204.101
44.14000 206.616
44.31000 200.800
44.48000 196.542
44.65000 202.376
44.82000 222.750
44.99000 271.656
45.16000 322.976
45.33000 301.856
45.50000 253.659
45.67000 231.278
45.84000 208.868
46.01000 199.799
46.18000 183.616
46.35000 193.812
46.52000 183.389
46.69000 170.708
46.86000 166.999
47.03000 169.754
47.20000 170.142
47.37000 163.424
47.54000 158.448
47.71000 171.488
47.88000 169.996
48.05000 148.782
48.22000 159.199
48.39000 160.234
48.56000 153.399
48.73000 151.838
48.90000 157.230
49.07000 162.008
49.24000 154.360
49.41000 151.819
49.58000 170.662
49.75000 146.012
49.92000 160.002
50.09000 147.859
50.26000 154.846
50.43000 161.192
50.60000 195.345
50.77000 250.259
50.94000 224.105
51.11000 180.493
51.28000 157.630
51.45000 156.595
51.62000 148.223
51.79000 148.898
51.96000 143.223
52.13000 137.049
52.30000 149.670
52.47000 137.380
52.64000 134.050
52.81000 147.178
52.98000 130.982
53.15000 147.490
53.32000 150.789
53.49000 151.749
53.66000 141.173
53.83000 139.501
54.00000 144.159
54.17000 149.717
54.34000 135.844
54.51000 137.004
54.68000 145.954
54.85000 130.151
55.02000 137.027
55.19000 140.949
55.36000 156.515
55.53000 156.863
55.70000 241.896
55.87000 434.389
56.04000 559.173
56.21000 404.227
56.38000 244.852
56.55000 169.358
56.72000 150.865
56.89000 143.328
57.06000 133.846
57.23000 128.176
57.40000 125.815
57.57000 129.413
57.74000 122.619
57.91000 127.414
58.08000 124.831
58.25000 122.271
58.42000 117.482
58.59000 114.251
58.76000 123.677
58.93000 107.809
59.10000 115.898
59.27000 112.210
59.44000 123.250
59.61000 116.775
59.78000 126.757
59.95000 126.194
60.12000 114.136
60.29000 112.824
60.46000 127.092
60.63000 123.714
60.80000 120.813
60.97000 114.231
61.14000 119.323
61.31000 125.438
61.48000 127.630
61.65000 337.063
61.82000 229.133
61.99000 136.475
62.16000 131.401
62.33000 134.607
62.50000 132.961
62.67000 134.252
62.84000 121.614
63.01000 136.792
63.18000 140.766
63.35000 133.534
63.52000 138.822
63.69000 142.022
63.86000 150.359
64.03000 148.967
64.20000 157.505
64.37000 157.826
64.54000 177.594
64.71000 167.541
64.88000 179.747
65.05000 203.329
65.22000 242.483
65.39000 311.440
65.56000 466.399
65.73000 1357.971
65.90000 2610.465
66.07000 656.586
66.24000 456.414
66.41000 776.079
66.58000 500.495
66.75000 394.262
66.92000 409.362
67.09000 440.188
67.26000 428.702
67.43000 466.007
67.60000 496.778
67.77000 522.050
67.94000 561.203
68.11000 588.682
68.28000 637.370
68.45000 753.496
68.62000 1078.110
68.79000 2085.485
68.96000 12093.618
69.13000 61349.148
69.30000 34242.379
69.47000 8769.122
69.64000 1145.224
69.81000 712.295
69.98000 567.877
70.00000 562.201