File: XRD/09-10-2025 Dep 8/XY Data/BTO_Mapping_Theta2Theta_09-10-2025_001_21_-4-181_39-781.xy
20.00000 470.281
20.17000 482.454
20.34000 486.025
20.51000 476.480
20.68000 475.697
20.85000 472.034
21.02000 476.298
21.19000 489.517
21.36000 476.599
21.53000 471.410
21.70000 469.989
21.87000 511.706
22.04000 559.020
22.21000 594.781
22.38000 529.861
22.55000 462.702
22.72000 456.259
22.89000 447.284
23.06000 428.939
23.23000 457.289
23.40000 434.736
23.57000 429.171
23.74000 416.218
23.91000 440.728
24.08000 416.991
24.25000 430.610
24.42000 430.228
24.59000 385.413
24.76000 412.137
24.93000 385.300
25.10000 405.879
25.27000 407.804
25.44000 406.653
25.61000 402.125
25.78000 418.029
25.95000 398.564
26.12000 382.778
26.29000 387.389
26.46000 376.464
26.63000 394.573
26.80000 389.179
26.97000 368.541
27.14000 376.679
27.31000 390.888
27.48000 344.128
27.65000 382.227
27.82000 365.183
27.99000 362.782
28.16000 372.884
28.33000 366.901
28.50000 361.616
28.67000 362.522
28.84000 369.267
29.01000 370.314
29.18000 369.074
29.35000 356.562
29.52000 348.357
29.69000 374.298
29.86000 376.322
30.03000 427.493
30.20000 417.056
30.37000 412.557
30.54000 383.704
30.71000 403.049
30.88000 426.424
31.05000 489.315
31.22000 1006.045
31.39000 2397.968
31.56000 2071.917
31.73000 850.693
31.90000 500.515
32.07000 398.512
32.24000 349.633
32.41000 354.049
32.58000 338.252
32.75000 325.896
32.92000 302.428
33.09000 319.827
33.26000 290.350
33.43000 314.260
33.60000 289.366
33.77000 292.958
33.94000 289.378
34.11000 280.464
34.28000 289.712
34.45000 272.667
34.62000 287.356
34.79000 266.188
34.96000 273.758
35.13000 276.160
35.30000 269.704
35.47000 261.986
35.64000 268.193
35.81000 264.186
35.98000 269.343
36.15000 258.127
36.32000 270.096
36.49000 265.167
36.66000 259.856
36.83000 267.812
37.00000 275.496
37.17000 282.205
37.34000 251.022
37.51000 262.226
37.68000 266.618
37.85000 256.528
38.02000 252.663
38.19000 278.447
38.36000 295.999
38.53000 414.951
38.70000 970.903
38.87000 969.409
39.04000 402.595
39.21000 277.016
39.38000 243.044
39.55000 254.424
39.72000 244.259
39.89000 234.522
40.06000 220.986
40.23000 228.770
40.40000 226.096
40.57000 221.842
40.74000 222.477
40.91000 214.901
41.08000 220.011
41.25000 221.635
41.42000 208.883
41.59000 207.326
41.76000 201.548
41.93000 206.461
42.10000 202.113
42.27000 205.795
42.44000 201.483
42.61000 194.611
42.78000 203.062
42.95000 196.893
43.12000 202.024
43.29000 204.502
43.46000 189.171
43.63000 199.257
43.80000 193.746
43.97000 180.272
44.14000 190.709
44.31000 194.233
44.48000 192.151
44.65000 188.153
44.82000 203.084
44.99000 246.248
45.16000 283.668
45.33000 280.305
45.50000 254.345
45.67000 235.260
45.84000 196.806
46.01000 195.807
46.18000 191.198
46.35000 180.624
46.52000 161.290
46.69000 179.759
46.86000 174.542
47.03000 164.983
47.20000 171.167
47.37000 164.533
47.54000 174.543
47.71000 165.673
47.88000 162.284
48.05000 160.817
48.22000 173.428
48.39000 163.218
48.56000 163.060
48.73000 149.292
48.90000 161.047
49.07000 148.068
49.24000 156.808
49.41000 142.268
49.58000 160.605
49.75000 159.480
49.92000 154.847
50.09000 148.765
50.26000 159.635
50.43000 166.766
50.60000 190.993
50.77000 222.343
50.94000 210.065
51.11000 189.262
51.28000 154.929
51.45000 147.052
51.62000 157.172
51.79000 142.307
51.96000 138.246
52.13000 145.738
52.30000 142.734
52.47000 149.153
52.64000 139.987
52.81000 140.935
52.98000 146.400
53.15000 143.912
53.32000 149.464
53.49000 150.921
53.66000 145.241
53.83000 145.027
54.00000 138.492
54.17000 136.338
54.34000 137.302
54.51000 145.354
54.68000 137.444
54.85000 135.573
55.02000 144.165
55.19000 140.369
55.36000 142.564
55.53000 160.549
55.70000 192.776
55.87000 357.694
56.04000 549.017
56.21000 424.744
56.38000 257.550
56.55000 183.867
56.72000 167.340
56.89000 142.001
57.06000 138.809
57.23000 124.585
57.40000 122.657
57.57000 132.074
57.74000 123.299
57.91000 133.188
58.08000 127.330
58.25000 116.191
58.42000 123.382
58.59000 116.896
58.76000 126.603
58.93000 124.718
59.10000 120.496
59.27000 123.197
59.44000 117.764
59.61000 115.880
59.78000 119.109
59.95000 117.421
60.12000 118.337
60.29000 122.042
60.46000 109.598
60.63000 122.609
60.80000 118.486
60.97000 113.315
61.14000 121.537
61.31000 132.282
61.48000 135.943
61.65000 326.581
61.82000 228.008
61.99000 131.083
62.16000 126.322
62.33000 140.671
62.50000 136.764
62.67000 133.671
62.84000 128.131
63.01000 136.456
63.18000 134.656
63.35000 136.301
63.52000 147.608
63.69000 145.505
63.86000 146.313
64.03000 150.755
64.20000 154.120
64.37000 156.009
64.54000 158.672
64.71000 176.395
64.88000 179.763
65.05000 204.863
65.22000 220.171
65.39000 278.271
65.56000 414.722
65.73000 1275.169
65.90000 2490.940
66.07000 628.128
66.24000 462.177
66.41000 721.009
66.58000 486.362
66.75000 402.157
66.92000 399.150
67.09000 416.898
67.26000 447.161
67.43000 456.522
67.60000 483.890
67.77000 518.123
67.94000 531.997
68.11000 586.406
68.28000 656.167
68.45000 730.002
68.62000 1013.730
68.79000 1947.463
68.96000 11052.634
69.13000 57270.535
69.30000 32490.604
69.47000 8454.509
69.64000 1119.069
69.81000 709.670
69.98000 561.151
70.00000 545.691