File: XRD/09-10-2025 Dep 8/XY Data/BTO_Mapping_Theta2Theta_09-10-2025_001_25_-20-000_34-641.xy
20.00000 495.139
20.17000 482.105
20.34000 469.383
20.51000 472.806
20.68000 465.165
20.85000 489.784
21.02000 471.325
21.19000 487.551
21.36000 467.523
21.53000 468.521
21.70000 474.224
21.87000 529.129
22.04000 627.327
22.21000 600.264
22.38000 517.678
22.55000 480.668
22.72000 423.813
22.89000 446.008
23.06000 461.471
23.23000 426.946
23.40000 438.803
23.57000 428.760
23.74000 445.585
23.91000 439.713
24.08000 436.780
24.25000 446.266
24.42000 413.818
24.59000 414.543
24.76000 424.351
24.93000 411.596
25.10000 425.653
25.27000 409.453
25.44000 405.834
25.61000 395.886
25.78000 400.449
25.95000 409.379
26.12000 404.859
26.29000 396.719
26.46000 394.462
26.63000 391.439
26.80000 399.378
26.97000 391.166
27.14000 378.788
27.31000 374.999
27.48000 390.694
27.65000 367.183
27.82000 362.038
27.99000 370.067
28.16000 384.768
28.33000 385.524
28.50000 377.313
28.67000 373.180
28.84000 377.333
29.01000 361.416
29.18000 371.316
29.35000 353.752
29.52000 369.565
29.69000 370.954
29.86000 401.391
30.03000 454.438
30.20000 415.138
30.37000 397.317
30.54000 374.101
30.71000 401.964
30.88000 433.381
31.05000 526.521
31.22000 1092.394
31.39000 2680.719
31.56000 2261.516
31.73000 871.162
31.90000 491.680
32.07000 386.400
32.24000 350.366
32.41000 344.216
32.58000 331.427
32.75000 327.757
32.92000 324.737
33.09000 314.626
33.26000 302.595
33.43000 314.032
33.60000 298.520
33.77000 293.808
33.94000 292.176
34.11000 293.656
34.28000 292.889
34.45000 284.267
34.62000 272.489
34.79000 278.816
34.96000 280.937
35.13000 283.312
35.30000 266.218
35.47000 276.371
35.64000 271.195
35.81000 267.097
35.98000 264.311
36.15000 262.301
36.32000 262.106
36.49000 255.330
36.66000 258.290
36.83000 262.485
37.00000 283.576
37.17000 285.678
37.34000 261.869
37.51000 281.589
37.68000 266.348
37.85000 266.037
38.02000 252.345
38.19000 280.414
38.36000 313.732
38.53000 455.198
38.70000 970.047
38.87000 846.698
39.04000 380.540
39.21000 289.098
39.38000 254.242
39.55000 249.765
39.72000 244.606
39.89000 222.499
40.06000 232.015
40.23000 240.114
40.40000 224.445
40.57000 215.472
40.74000 222.436
40.91000 215.408
41.08000 208.761
41.25000 199.248
41.42000 212.385
41.59000 209.191
41.76000 209.025
41.93000 202.865
42.10000 194.851
42.27000 204.391
42.44000 201.432
42.61000 201.322
42.78000 213.997
42.95000 204.910
43.12000 201.931
43.29000 209.212
43.46000 191.821
43.63000 202.679
43.80000 197.940
43.97000 188.536
44.14000 185.588
44.31000 203.148
44.48000 207.409
44.65000 202.165
44.82000 217.792
44.99000 281.816
45.16000 324.138
45.33000 300.872
45.50000 239.577
45.67000 237.856
45.84000 198.487
46.01000 190.717
46.18000 188.749
46.35000 170.097
46.52000 178.562
46.69000 165.087
46.86000 165.454
47.03000 176.807
47.20000 170.714
47.37000 167.051
47.54000 163.226
47.71000 169.911
47.88000 165.906
48.05000 170.495
48.22000 154.573
48.39000 153.551
48.56000 163.472
48.73000 163.072
48.90000 156.394
49.07000 165.287
49.24000 153.080
49.41000 153.433
49.58000 148.299
49.75000 156.511
49.92000 155.187
50.09000 166.436
50.26000 164.118
50.43000 167.528
50.60000 204.640
50.77000 236.938
50.94000 230.667
51.11000 184.577
51.28000 171.281
51.45000 163.954
51.62000 148.623
51.79000 143.809
51.96000 138.762
52.13000 142.215
52.30000 144.404
52.47000 150.241
52.64000 138.562
52.81000 136.490
52.98000 144.668
53.15000 142.601
53.32000 150.231
53.49000 157.223
53.66000 148.084
53.83000 142.483
54.00000 143.238
54.17000 141.407
54.34000 132.384
54.51000 134.538
54.68000 149.129
54.85000 133.702
55.02000 141.121
55.19000 151.362
55.36000 139.971
55.53000 163.356
55.70000 234.788
55.87000 455.757
56.04000 618.891
56.21000 429.871
56.38000 250.620
56.55000 179.654
56.72000 155.960
56.89000 146.091
57.06000 141.917
57.23000 118.806
57.40000 132.815
57.57000 125.821
57.74000 134.001
57.91000 128.552
58.08000 128.628
58.25000 126.972
58.42000 128.781
58.59000 121.225
58.76000 133.517
58.93000 120.098
59.10000 121.501
59.27000 119.767
59.44000 119.802
59.61000 116.153
59.78000 116.255
59.95000 107.938
60.12000 117.987
60.29000 122.130
60.46000 117.572
60.63000 113.848
60.80000 115.796
60.97000 125.063
61.14000 124.492
61.31000 135.585
61.48000 131.978
61.65000 352.370
61.82000 248.127
61.99000 129.830
62.16000 138.851
62.33000 131.068
62.50000 140.849
62.67000 132.962
62.84000 130.780
63.01000 131.235
63.18000 138.807
63.35000 140.235
63.52000 141.483
63.69000 147.391
63.86000 140.957
64.03000 145.193
64.20000 157.305
64.37000 160.269
64.54000 170.431
64.71000 180.111
64.88000 193.881
65.05000 207.721
65.22000 236.561
65.39000 303.357
65.56000 445.620
65.73000 1408.245
65.90000 2897.277
66.07000 724.802
66.24000 503.579
66.41000 838.921
66.58000 529.119
66.75000 433.242
66.92000 432.079
67.09000 473.394
67.26000 484.643
67.43000 495.704
67.60000 496.977
67.77000 581.261
67.94000 581.065
68.11000 631.323
68.28000 692.460
68.45000 782.182
68.62000 1121.797
68.79000 2221.751
68.96000 12369.686
69.13000 67307.867
69.30000 39345.445
69.47000 10775.807
69.64000 1205.134
69.81000 749.765
69.98000 601.150
70.00000 587.655