File: XRD/09-10-2025 Dep 8/XY Data/BTO_Mapping_Theta2Theta_09-10-2025_001_56_20-074_-22-294.xy
20.00000 495.129
20.17000 472.276
20.34000 458.190
20.51000 483.337
20.68000 465.862
20.85000 473.051
21.02000 478.815
21.19000 472.530
21.36000 470.595
21.53000 490.839
21.70000 476.375
21.87000 521.018
22.04000 587.976
22.21000 583.335
22.38000 521.522
22.55000 498.247
22.72000 448.875
22.89000 454.714
23.06000 463.303
23.23000 440.605
23.40000 423.227
23.57000 431.938
23.74000 426.150
23.91000 435.301
24.08000 434.580
24.25000 419.035
24.42000 443.872
24.59000 402.307
24.76000 431.775
24.93000 423.468
25.10000 410.105
25.27000 399.233
25.44000 390.354
25.61000 405.905
25.78000 418.829
25.95000 420.639
26.12000 384.539
26.29000 395.733
26.46000 402.353
26.63000 384.952
26.80000 383.724
26.97000 384.587
27.14000 388.514
27.31000 383.259
27.48000 381.788
27.65000 380.522
27.82000 366.798
27.99000 368.142
28.16000 370.956
28.33000 394.550
28.50000 366.796
28.67000 371.893
28.84000 355.158
29.01000 350.195
29.18000 361.158
29.35000 364.148
29.52000 364.350
29.69000 362.672
29.86000 404.924
30.03000 448.957
30.20000 425.202
30.37000 413.057
30.54000 385.306
30.71000 393.900
30.88000 434.961
31.05000 545.152
31.22000 1260.291
31.39000 2754.295
31.56000 1926.291
31.73000 784.798
31.90000 441.209
32.07000 402.970
32.24000 349.205
32.41000 338.473
32.58000 328.874
32.75000 321.309
32.92000 322.954
33.09000 294.185
33.26000 306.406
33.43000 297.173
33.60000 313.687
33.77000 309.718
33.94000 304.407
34.11000 286.626
34.28000 292.721
34.45000 279.678
34.62000 290.665
34.79000 281.252
34.96000 269.941
35.13000 279.618
35.30000 272.074
35.47000 278.857
35.64000 277.068
35.81000 261.181
35.98000 256.866
36.15000 253.262
36.32000 254.686
36.49000 259.911
36.66000 261.710
36.83000 280.532
37.00000 295.193
37.17000 289.914
37.34000 273.970
37.51000 257.730
37.68000 259.864
37.85000 270.860
38.02000 275.775
38.19000 285.097
38.36000 315.330
38.53000 484.487
38.70000 1091.754
38.87000 941.920
39.04000 397.810
39.21000 257.794
39.38000 246.465
39.55000 246.157
39.72000 232.385
39.89000 221.772
40.06000 231.049
40.23000 228.416
40.40000 236.150
40.57000 220.578
40.74000 218.553
40.91000 223.906
41.08000 213.652
41.25000 207.863
41.42000 218.392
41.59000 205.708
41.76000 206.468
41.93000 209.546
42.10000 208.052
42.27000 222.686
42.44000 196.548
42.61000 210.233
42.78000 203.170
42.95000 199.476
43.12000 203.499
43.29000 203.931
43.46000 203.420
43.63000 196.893
43.80000 194.575
43.97000 187.895
44.14000 193.269
44.31000 188.038
44.48000 187.332
44.65000 197.833
44.82000 223.065
44.99000 268.910
45.16000 273.583
45.33000 279.308
45.50000 248.060
45.67000 234.376
45.84000 212.734
46.01000 190.631
46.18000 185.720
46.35000 184.515
46.52000 177.887
46.69000 174.329
46.86000 188.737
47.03000 177.297
47.20000 175.040
47.37000 174.202
47.54000 171.696
47.71000 170.094
47.88000 166.242
48.05000 169.377
48.22000 160.037
48.39000 174.478
48.56000 169.107
48.73000 169.255
48.90000 169.207
49.07000 158.204
49.24000 159.636
49.41000 146.429
49.58000 155.063
49.75000 158.733
49.92000 144.320
50.09000 160.886
50.26000 159.316
50.43000 157.634
50.60000 191.759
50.77000 216.075
50.94000 214.975
51.11000 173.525
51.28000 168.727
51.45000 157.216
51.62000 147.203
51.79000 149.690
51.96000 146.805
52.13000 139.210
52.30000 135.950
52.47000 145.419
52.64000 140.060
52.81000 142.465
52.98000 146.064
53.15000 150.310
53.32000 138.746
53.49000 142.999
53.66000 135.926
53.83000 141.231
54.00000 146.575
54.17000 135.297
54.34000 129.334
54.51000 136.021
54.68000 137.814
54.85000 138.173
55.02000 133.459
55.19000 149.636
55.36000 151.064
55.53000 163.237
55.70000 223.123
55.87000 409.832
56.04000 544.772
56.21000 394.350
56.38000 250.219
56.55000 170.049
56.72000 147.491
56.89000 141.204
57.06000 128.585
57.23000 125.951
57.40000 137.265
57.57000 115.404
57.74000 131.197
57.91000 127.171
58.08000 115.063
58.25000 118.443
58.42000 120.619
58.59000 115.701
58.76000 120.153
58.93000 115.367
59.10000 117.778
59.27000 118.354
59.44000 117.622
59.61000 126.704
59.78000 127.084
59.95000 107.556
60.12000 122.664
60.29000 117.225
60.46000 114.202
60.63000 114.510
60.80000 124.779
60.97000 117.447
61.14000 129.062
61.31000 126.985
61.48000 128.425
61.65000 312.458
61.82000 211.827
61.99000 130.638
62.16000 135.716
62.33000 133.883
62.50000 133.844
62.67000 133.368
62.84000 140.330
63.01000 146.605
63.18000 139.986
63.35000 131.096
63.52000 139.084
63.69000 139.308
63.86000 144.968
64.03000 147.411
64.20000 153.302
64.37000 159.181
64.54000 178.587
64.71000 159.279
64.88000 184.435
65.05000 200.983
65.22000 222.286
65.39000 302.024
65.56000 445.382
65.73000 1277.575
65.90000 2358.269
66.07000 602.728
66.24000 448.586
66.41000 732.419
66.58000 441.733
66.75000 394.449
66.92000 399.860
67.09000 429.158
67.26000 425.675
67.43000 459.813
67.60000 473.108
67.77000 493.816
67.94000 524.142
68.11000 565.383
68.28000 616.556
68.45000 714.974
68.62000 1050.523
68.79000 1920.135
68.96000 12065.951
69.13000 55293.863
69.30000 29898.457
69.47000 7105.428
69.64000 1084.135
69.81000 682.206
69.98000 547.014
70.00000 527.812