File: XRD/09-10-2025 Dep 8/XY Data/BTO_Mapping_Theta2Theta_09-10-2025_001_17_12-361_38-042.xy
20.00000 473.093
20.17000 505.057
20.34000 463.271
20.51000 472.214
20.68000 461.634
20.85000 451.565
21.02000 464.508
21.19000 464.787
21.36000 485.254
21.53000 479.215
21.70000 469.057
21.87000 511.337
22.04000 578.785
22.21000 578.977
22.38000 522.753
22.55000 483.632
22.72000 457.479
22.89000 431.762
23.06000 434.969
23.23000 440.988
23.40000 427.625
23.57000 420.677
23.74000 444.924
23.91000 470.927
24.08000 445.668
24.25000 433.388
24.42000 442.995
24.59000 431.231
24.76000 389.239
24.93000 413.328
25.10000 419.177
25.27000 399.313
25.44000 391.444
25.61000 402.333
25.78000 403.835
25.95000 388.276
26.12000 392.795
26.29000 388.331
26.46000 376.098
26.63000 384.372
26.80000 378.341
26.97000 390.231
27.14000 374.249
27.31000 382.422
27.48000 370.952
27.65000 366.075
27.82000 358.814
27.99000 372.551
28.16000 375.352
28.33000 357.122
28.50000 369.212
28.67000 348.929
28.84000 368.216
29.01000 355.753
29.18000 365.258
29.35000 347.046
29.52000 356.721
29.69000 358.210
29.86000 367.055
30.03000 397.445
30.20000 395.890
30.37000 383.409
30.54000 361.374
30.71000 370.253
30.88000 389.237
31.05000 459.891
31.22000 781.723
31.39000 1730.012
31.56000 1558.479
31.73000 718.543
31.90000 435.283
32.07000 371.347
32.24000 339.076
32.41000 349.396
32.58000 330.372
32.75000 319.282
32.92000 309.679
33.09000 300.393
33.26000 309.626
33.43000 308.169
33.60000 283.272
33.77000 287.725
33.94000 270.396
34.11000 284.211
34.28000 283.293
34.45000 297.896
34.62000 284.423
34.79000 290.319
34.96000 270.777
35.13000 270.284
35.30000 278.232
35.47000 259.280
35.64000 277.659
35.81000 266.585
35.98000 269.420
36.15000 267.467
36.32000 271.496
36.49000 241.580
36.66000 255.585
36.83000 261.004
37.00000 268.924
37.17000 280.370
37.34000 257.942
37.51000 263.488
37.68000 271.123
37.85000 248.695
38.02000 257.075
38.19000 272.302
38.36000 277.237
38.53000 398.370
38.70000 872.490
38.87000 967.700
39.04000 413.913
39.21000 288.171
39.38000 255.044
39.55000 233.552
39.72000 243.063
39.89000 216.837
40.06000 234.646
40.23000 225.254
40.40000 219.408
40.57000 214.315
40.74000 215.136
40.91000 216.339
41.08000 204.049
41.25000 210.645
41.42000 215.394
41.59000 197.639
41.76000 208.708
41.93000 210.912
42.10000 211.112
42.27000 201.105
42.44000 203.294
42.61000 213.033
42.78000 198.501
42.95000 204.873
43.12000 210.372
43.29000 196.538
43.46000 192.739
43.63000 175.670
43.80000 200.463
43.97000 194.366
44.14000 182.945
44.31000 185.039
44.48000 202.121
44.65000 200.803
44.82000 220.095
44.99000 243.683
45.16000 266.354
45.33000 263.828
45.50000 252.723
45.67000 228.526
45.84000 200.287
46.01000 187.882
46.18000 190.050
46.35000 178.146
46.52000 178.673
46.69000 171.830
46.86000 162.838
47.03000 179.607
47.20000 170.541
47.37000 160.374
47.54000 158.986
47.71000 163.211
47.88000 162.599
48.05000 159.124
48.22000 159.316
48.39000 157.227
48.56000 165.359
48.73000 161.436
48.90000 157.919
49.07000 153.041
49.24000 154.779
49.41000 155.627
49.58000 151.184
49.75000 148.386
49.92000 148.394
50.09000 150.824
50.26000 159.136
50.43000 162.936
50.60000 185.765
50.77000 211.183
50.94000 200.443
51.11000 174.313
51.28000 164.159
51.45000 152.973
51.62000 145.885
51.79000 144.597
51.96000 148.954
52.13000 143.912
52.30000 140.774
52.47000 148.101
52.64000 141.633
52.81000 148.611
52.98000 141.115
53.15000 140.900
53.32000 151.451
53.49000 148.604
53.66000 142.535
53.83000 138.478
54.00000 135.326
54.17000 144.914
54.34000 134.588
54.51000 143.760
54.68000 137.980
54.85000 146.130
55.02000 139.404
55.19000 135.426
55.36000 143.693
55.53000 156.379
55.70000 201.451
55.87000 362.668
56.04000 558.997
56.21000 452.278
56.38000 270.889
56.55000 189.797
56.72000 154.680
56.89000 130.895
57.06000 129.544
57.23000 127.936
57.40000 123.559
57.57000 126.868
57.74000 127.837
57.91000 120.908
58.08000 122.814
58.25000 118.288
58.42000 117.874
58.59000 118.845
58.76000 117.800
58.93000 120.665
59.10000 114.317
59.27000 113.215
59.44000 116.357
59.61000 114.428
59.78000 112.861
59.95000 121.463
60.12000 119.795
60.29000 122.004
60.46000 119.608
60.63000 124.541
60.80000 114.708
60.97000 122.822
61.14000 126.696
61.31000 117.190
61.48000 132.629
61.65000 303.204
61.82000 201.283
61.99000 124.978
62.16000 128.830
62.33000 134.966
62.50000 129.355
62.67000 131.685
62.84000 135.970
63.01000 129.060
63.18000 133.128
63.35000 142.594
63.52000 136.368
63.69000 139.984
63.86000 141.907
64.03000 155.847
64.20000 156.128
64.37000 159.228
64.54000 148.534
64.71000 165.282
64.88000 168.750
65.05000 196.995
65.22000 214.138
65.39000 263.470
65.56000 363.640
65.73000 1111.799
65.90000 2100.541
66.07000 586.996
66.24000 411.369
66.41000 692.827
66.58000 440.925
66.75000 368.927
66.92000 399.068
67.09000 407.938
67.26000 412.871
67.43000 438.591
67.60000 465.851
67.77000 498.940
67.94000 506.584
68.11000 567.241
68.28000 599.578
68.45000 712.171
68.62000 989.879
68.79000 1811.064
68.96000 10147.543
69.13000 50620.402
69.30000 28129.236
69.47000 7166.694
69.64000 1034.618
69.81000 676.929
69.98000 529.358
70.00000 501.324