File: XRD/09-10-2025 Dep 8/XY Data/BTO_Mapping_Theta2Theta_09-10-2025_001_27_-16-180_11-756.xy
20.00000 486.066
20.17000 465.747
20.34000 472.028
20.51000 479.189
20.68000 475.450
20.85000 481.476
21.02000 502.940
21.19000 492.734
21.36000 499.547
21.53000 483.493
21.70000 486.537
21.87000 577.136
22.04000 678.365
22.21000 598.245
22.38000 507.768
22.55000 468.951
22.72000 443.147
22.89000 442.503
23.06000 451.260
23.23000 435.348
23.40000 438.485
23.57000 439.908
23.74000 417.709
23.91000 425.201
24.08000 419.967
24.25000 429.786
24.42000 435.399
24.59000 434.364
24.76000 426.438
24.93000 421.915
25.10000 416.463
25.27000 403.607
25.44000 397.260
25.61000 404.755
25.78000 392.868
25.95000 408.197
26.12000 403.310
26.29000 394.910
26.46000 396.393
26.63000 386.939
26.80000 378.882
26.97000 400.632
27.14000 386.149
27.31000 387.619
27.48000 380.077
27.65000 373.587
27.82000 366.103
27.99000 362.264
28.16000 378.228
28.33000 382.216
28.50000 381.201
28.67000 365.156
28.84000 366.051
29.01000 360.232
29.18000 370.019
29.35000 363.291
29.52000 368.282
29.69000 361.464
29.86000 410.601
30.03000 462.161
30.20000 436.020
30.37000 412.308
30.54000 400.707
30.71000 401.580
30.88000 450.826
31.05000 619.355
31.22000 1519.967
31.39000 2935.824
31.56000 1789.173
31.73000 721.023
31.90000 450.257
32.07000 383.755
32.24000 348.030
32.41000 348.507
32.58000 339.850
32.75000 319.326
32.92000 316.694
33.09000 325.108
33.26000 304.567
33.43000 299.009
33.60000 297.176
33.77000 303.462
33.94000 304.727
34.11000 292.695
34.28000 290.863
34.45000 285.060
34.62000 283.159
34.79000 285.409
34.96000 263.986
35.13000 285.033
35.30000 272.811
35.47000 283.769
35.64000 262.404
35.81000 269.277
35.98000 257.790
36.15000 273.785
36.32000 254.273
36.49000 256.908
36.66000 264.250
36.83000 263.919
37.00000 287.137
37.17000 277.180
37.34000 274.709
37.51000 264.782
37.68000 270.996
37.85000 263.959
38.02000 255.111
38.19000 291.104
38.36000 328.960
38.53000 571.034
38.70000 967.354
38.87000 639.311
39.04000 320.492
39.21000 274.833
39.38000 263.962
39.55000 243.640
39.72000 244.200
39.89000 232.904
40.06000 239.143
40.23000 230.338
40.40000 234.998
40.57000 217.172
40.74000 225.685
40.91000 227.670
41.08000 219.851
41.25000 217.648
41.42000 215.908
41.59000 206.062
41.76000 227.055
41.93000 204.160
42.10000 213.476
42.27000 195.963
42.44000 192.040
42.61000 207.270
42.78000 218.293
42.95000 203.350
43.12000 203.916
43.29000 221.280
43.46000 196.721
43.63000 190.262
43.80000 191.129
43.97000 189.954
44.14000 208.416
44.31000 207.030
44.48000 209.616
44.65000 235.009
44.82000 269.438
44.99000 360.075
45.16000 392.830
45.33000 294.160
45.50000 246.449
45.67000 220.586
45.84000 212.858
46.01000 188.367
46.18000 179.617
46.35000 178.170
46.52000 180.326
46.69000 177.624
46.86000 167.323
47.03000 161.930
47.20000 163.634
47.37000 165.367
47.54000 176.747
47.71000 170.706
47.88000 175.748
48.05000 157.011
48.22000 165.656
48.39000 165.553
48.56000 158.232
48.73000 164.079
48.90000 161.441
49.07000 164.907
49.24000 153.728
49.41000 165.353
49.58000 158.673
49.75000 164.279
49.92000 144.027
50.09000 171.942
50.26000 155.881
50.43000 170.844
50.60000 222.327
50.77000 240.597
50.94000 202.172
51.11000 175.034
51.28000 153.401
51.45000 145.496
51.62000 148.737
51.79000 149.523
51.96000 136.929
52.13000 141.253
52.30000 147.949
52.47000 140.075
52.64000 126.523
52.81000 141.094
52.98000 140.722
53.15000 148.956
53.32000 150.976
53.49000 147.753
53.66000 150.082
53.83000 158.324
54.00000 151.177
54.17000 145.320
54.34000 133.079
54.51000 139.459
54.68000 145.827
54.85000 141.094
55.02000 144.586
55.19000 134.474
55.36000 162.835
55.53000 196.897
55.70000 305.205
55.87000 533.146
56.04000 562.960
56.21000 358.115
56.38000 211.369
56.55000 173.196
56.72000 148.267
56.89000 135.885
57.06000 145.081
57.23000 138.218
57.40000 136.896
57.57000 120.084
57.74000 117.959
57.91000 127.994
58.08000 117.503
58.25000 117.169
58.42000 125.021
58.59000 121.103
58.76000 119.163
58.93000 128.101
59.10000 121.402
59.27000 122.486
59.44000 117.405
59.61000 118.620
59.78000 123.649
59.95000 123.488
60.12000 132.011
60.29000 120.208
60.46000 112.349
60.63000 116.458
60.80000 116.718
60.97000 117.599
61.14000 119.793
61.31000 142.312
61.48000 153.448
61.65000 411.563
61.82000 243.221
61.99000 138.602
62.16000 127.259
62.33000 129.761
62.50000 134.417
62.67000 132.843
62.84000 136.674
63.01000 131.843
63.18000 137.669
63.35000 137.482
63.52000 153.480
63.69000 147.857
63.86000 145.827
64.03000 159.773
64.20000 159.021
64.37000 175.182
64.54000 171.509
64.71000 178.506
64.88000 192.602
65.05000 227.351
65.22000 263.066
65.39000 355.680
65.56000 521.165
65.73000 1765.794
65.90000 3152.035
66.07000 733.128
66.24000 531.318
66.41000 892.146
66.58000 558.978
66.75000 459.188
66.92000 449.687
67.09000 477.454
67.26000 489.385
67.43000 510.891
67.60000 525.853
67.77000 594.228
67.94000 622.043
68.11000 667.513
68.28000 720.403
68.45000 848.509
68.62000 1301.023
68.79000 2516.420
68.96000 18489.604
69.13000 78069.055
69.30000 42015.613
69.47000 9730.793
69.64000 1266.769
69.81000 782.087
69.98000 610.616
70.00000 611.899