File: XRD/09-10-2025 Dep 8/XY Data/BTO_Mapping_Theta2Theta_09-10-2025_001_33_-39-126_8-316.xy
20.00000 498.272
20.17000 494.137
20.34000 482.044
20.51000 466.391
20.68000 484.587
20.85000 480.598
21.02000 479.052
21.19000 484.171
21.36000 485.524
21.53000 492.696
21.70000 507.517
21.87000 608.155
22.04000 650.767
22.21000 589.720
22.38000 516.906
22.55000 472.866
22.72000 461.583
22.89000 448.709
23.06000 450.864
23.23000 442.240
23.40000 436.430
23.57000 443.730
23.74000 440.704
23.91000 440.764
24.08000 416.462
24.25000 427.455
24.42000 430.611
24.59000 427.149
24.76000 398.890
24.93000 420.274
25.10000 412.278
25.27000 404.910
25.44000 407.687
25.61000 395.881
25.78000 404.631
25.95000 404.332
26.12000 404.898
26.29000 396.958
26.46000 396.995
26.63000 402.537
26.80000 387.816
26.97000 381.230
27.14000 363.374
27.31000 389.343
27.48000 392.530
27.65000 375.457
27.82000 380.761
27.99000 381.569
28.16000 393.829
28.33000 387.149
28.50000 387.474
28.67000 389.133
28.84000 375.468
29.01000 363.364
29.18000 368.750
29.35000 372.740
29.52000 360.908
29.69000 400.082
29.86000 485.180
30.03000 573.995
30.20000 504.112
30.37000 420.519
30.54000 433.281
30.71000 435.921
30.88000 475.985
31.05000 894.068
31.22000 3745.577
31.39000 6066.605
31.56000 2583.100
31.73000 777.660
31.90000 449.503
32.07000 397.347
32.24000 364.069
32.41000 338.994
32.58000 363.927
32.75000 342.166
32.92000 321.410
33.09000 333.372
33.26000 314.006
33.43000 301.087
33.60000 301.649
33.77000 298.149
33.94000 292.352
34.11000 292.099
34.28000 293.208
34.45000 286.124
34.62000 295.466
34.79000 281.403
34.96000 291.048
35.13000 269.700
35.30000 276.862
35.47000 265.983
35.64000 272.370
35.81000 271.306
35.98000 276.575
36.15000 263.540
36.32000 261.237
36.49000 268.390
36.66000 263.321
36.83000 286.655
37.00000 285.781
37.17000 278.407
37.34000 265.942
37.51000 261.353
37.68000 269.226
37.85000 276.765
38.02000 257.234
38.19000 278.882
38.36000 343.519
38.53000 486.708
38.70000 573.979
38.87000 396.057
39.04000 299.697
39.21000 247.690
39.38000 242.828
39.55000 245.427
39.72000 257.185
39.89000 240.524
40.06000 230.149
40.23000 230.203
40.40000 225.635
40.57000 223.169
40.74000 237.679
40.91000 217.602
41.08000 214.695
41.25000 215.127
41.42000 215.973
41.59000 213.821
41.76000 210.218
41.93000 212.253
42.10000 201.159
42.27000 217.688
42.44000 193.117
42.61000 210.710
42.78000 199.055
42.95000 207.593
43.12000 210.192
43.29000 224.820
43.46000 197.077
43.63000 202.501
43.80000 207.665
43.97000 207.358
44.14000 193.811
44.31000 207.804
44.48000 224.946
44.65000 270.588
44.82000 349.254
44.99000 384.687
45.16000 338.630
45.33000 268.874
45.50000 243.050
45.67000 215.955
45.84000 203.618
46.01000 198.626
46.18000 192.721
46.35000 184.655
46.52000 177.134
46.69000 159.986
46.86000 188.321
47.03000 172.725
47.20000 174.647
47.37000 169.860
47.54000 168.856
47.71000 170.346
47.88000 169.457
48.05000 159.169
48.22000 165.326
48.39000 174.804
48.56000 166.335
48.73000 158.847
48.90000 165.175
49.07000 164.050
49.24000 158.549
49.41000 158.086
49.58000 158.240
49.75000 158.398
49.92000 160.206
50.09000 180.343
50.26000 173.654
50.43000 219.767
50.60000 254.395
50.77000 252.748
50.94000 188.420
51.11000 171.100
51.28000 152.656
51.45000 154.893
51.62000 157.915
51.79000 156.557
51.96000 147.616
52.13000 143.608
52.30000 143.067
52.47000 143.436
52.64000 156.699
52.81000 139.529
52.98000 155.719
53.15000 155.438
53.32000 149.998
53.49000 152.503
53.66000 147.379
53.83000 149.275
54.00000 140.117
54.17000 146.583
54.34000 145.106
54.51000 142.330
54.68000 142.233
54.85000 140.439
55.02000 150.634
55.19000 167.897
55.36000 169.871
55.53000 262.289
55.70000 425.889
55.87000 496.582
56.04000 386.064
56.21000 258.467
56.38000 198.749
56.55000 158.908
56.72000 139.863
56.89000 128.346
57.06000 130.962
57.23000 134.700
57.40000 122.706
57.57000 135.570
57.74000 124.439
57.91000 132.417
58.08000 126.149
58.25000 125.213
58.42000 130.517
58.59000 123.415
58.76000 136.193
58.93000 117.717
59.10000 116.491
59.27000 122.883
59.44000 120.337
59.61000 123.548
59.78000 123.141
59.95000 124.607
60.12000 117.192
60.29000 121.905
60.46000 114.869
60.63000 120.174
60.80000 126.278
60.97000 122.764
61.14000 128.437
61.31000 124.772
61.48000 152.858
61.65000 430.242
61.82000 296.893
61.99000 139.505
62.16000 138.535
62.33000 141.887
62.50000 139.573
62.67000 141.598
62.84000 148.414
63.01000 148.043
63.18000 148.723
63.35000 149.696
63.52000 141.889
63.69000 145.559
63.86000 156.842
64.03000 152.786
64.20000 155.608
64.37000 187.834
64.54000 179.688
64.71000 184.282
64.88000 210.997
65.05000 254.287
65.22000 389.621
65.39000 593.986
65.56000 726.637
65.73000 1731.249
65.90000 3560.847
66.07000 879.425
66.24000 557.420
66.41000 995.872
66.58000 614.558
66.75000 480.134
66.92000 491.577
67.09000 523.907
67.26000 537.529
67.43000 552.857
67.60000 584.947
67.77000 610.758
67.94000 656.214
68.11000 683.944
68.28000 764.151
68.45000 881.139
68.62000 1271.820
68.79000 2566.183
68.96000 15620.716
69.13000 83734.117
69.30000 48006.668
69.47000 13206.345
69.64000 1401.898
69.81000 852.109
69.98000 638.508
70.00000 649.889