File: XRD/09-10-2025 Dep 8/XY Data/BTO_Mapping_Theta2Theta_09-10-2025_001_06_9-135_4-067.xy
20.00000 497.464
20.17000 489.400
20.34000 464.631
20.51000 455.675
20.68000 474.955
20.85000 484.549
21.02000 476.304
21.19000 467.787
21.36000 484.776
21.53000 484.288
21.70000 484.890
21.87000 503.306
22.04000 582.506
22.21000 603.429
22.38000 525.790
22.55000 482.514
22.72000 466.052
22.89000 440.757
23.06000 449.909
23.23000 435.192
23.40000 427.104
23.57000 415.812
23.74000 442.644
23.91000 432.790
24.08000 426.279
24.25000 427.072
24.42000 429.265
24.59000 413.033
24.76000 411.176
24.93000 423.179
25.10000 408.107
25.27000 411.150
25.44000 402.743
25.61000 389.181
25.78000 395.275
25.95000 397.551
26.12000 394.360
26.29000 402.473
26.46000 385.647
26.63000 388.923
26.80000 393.963
26.97000 370.024
27.14000 383.455
27.31000 376.129
27.48000 385.549
27.65000 373.915
27.82000 383.432
27.99000 370.409
28.16000 373.253
28.33000 375.184
28.50000 382.759
28.67000 378.239
28.84000 365.534
29.01000 357.335
29.18000 362.232
29.35000 355.259
29.52000 356.148
29.69000 373.317
29.86000 408.464
30.03000 459.087
30.20000 450.725
30.37000 402.811
30.54000 403.780
30.71000 418.711
30.88000 441.617
31.05000 584.171
31.22000 1461.999
31.39000 3110.000
31.56000 1963.544
31.73000 726.327
31.90000 439.581
32.07000 374.693
32.24000 360.119
32.41000 345.867
32.58000 335.649
32.75000 319.856
32.92000 299.067
33.09000 309.452
33.26000 293.780
33.43000 298.034
33.60000 306.265
33.77000 295.991
33.94000 293.775
34.11000 294.485
34.28000 281.117
34.45000 291.177
34.62000 279.362
34.79000 282.561
34.96000 276.079
35.13000 276.928
35.30000 278.741
35.47000 268.842
35.64000 273.997
35.81000 268.786
35.98000 265.005
36.15000 255.243
36.32000 253.952
36.49000 257.564
36.66000 267.246
36.83000 273.163
37.00000 276.905
37.17000 273.739
37.34000 261.485
37.51000 267.163
37.68000 251.733
37.85000 265.201
38.02000 265.179
38.19000 276.578
38.36000 297.837
38.53000 509.454
38.70000 1022.457
38.87000 807.855
39.04000 357.132
39.21000 273.184
39.38000 243.517
39.55000 223.956
39.72000 234.871
39.89000 233.907
40.06000 223.654
40.23000 229.191
40.40000 232.047
40.57000 221.802
40.74000 213.675
40.91000 209.234
41.08000 227.742
41.25000 215.760
41.42000 219.469
41.59000 208.545
41.76000 204.524
41.93000 215.422
42.10000 204.650
42.27000 216.975
42.44000 204.500
42.61000 205.326
42.78000 205.200
42.95000 196.693
43.12000 203.352
43.29000 196.709
43.46000 206.272
43.63000 212.713
43.80000 204.060
43.97000 196.284
44.14000 198.947
44.31000 186.317
44.48000 195.891
44.65000 205.422
44.82000 224.600
44.99000 264.616
45.16000 303.304
45.33000 291.589
45.50000 265.259
45.67000 229.879
45.84000 210.532
46.01000 198.110
46.18000 185.389
46.35000 187.535
46.52000 193.435
46.69000 181.835
46.86000 173.000
47.03000 186.660
47.20000 173.907
47.37000 161.085
47.54000 168.565
47.71000 165.642
47.88000 156.548
48.05000 163.104
48.22000 159.637
48.39000 158.048
48.56000 160.370
48.73000 154.923
48.90000 155.949
49.07000 156.741
49.24000 169.603
49.41000 152.928
49.58000 159.845
49.75000 166.529
49.92000 142.228
50.09000 151.250
50.26000 148.223
50.43000 171.941
50.60000 198.508
50.77000 239.555
50.94000 205.552
51.11000 176.808
51.28000 166.194
51.45000 154.346
51.62000 146.524
51.79000 145.153
51.96000 148.583
52.13000 143.752
52.30000 137.600
52.47000 144.710
52.64000 137.069
52.81000 141.748
52.98000 140.370
53.15000 146.449
53.32000 142.376
53.49000 151.914
53.66000 152.547
53.83000 146.202
54.00000 131.156
54.17000 142.868
54.34000 140.855
54.51000 136.800
54.68000 137.352
54.85000 143.126
55.02000 147.284
55.19000 148.435
55.36000 148.894
55.53000 176.374
55.70000 235.900
55.87000 428.133
56.04000 544.465
56.21000 365.329
56.38000 220.439
56.55000 174.699
56.72000 145.197
56.89000 142.019
57.06000 132.908
57.23000 127.129
57.40000 129.667
57.57000 121.597
57.74000 126.767
57.91000 124.045
58.08000 125.533
58.25000 127.868
58.42000 116.322
58.59000 133.287
58.76000 128.816
58.93000 124.015
59.10000 114.724
59.27000 117.317
59.44000 126.137
59.61000 128.821
59.78000 107.329
59.95000 126.301
60.12000 110.339
60.29000 112.414
60.46000 114.086
60.63000 122.682
60.80000 123.181
60.97000 111.290
61.14000 117.089
61.31000 125.885
61.48000 140.903
61.65000 330.788
61.82000 194.027
61.99000 133.848
62.16000 126.639
62.33000 139.567
62.50000 133.839
62.67000 133.369
62.84000 125.259
63.01000 141.902
63.18000 132.354
63.35000 137.031
63.52000 137.372
63.69000 147.104
63.86000 144.849
64.03000 160.596
64.20000 156.826
64.37000 160.584
64.54000 174.687
64.71000 174.569
64.88000 174.956
65.05000 212.520
65.22000 234.558
65.39000 329.754
65.56000 476.965
65.73000 1364.865
65.90000 2336.729
66.07000 536.479
66.24000 456.642
66.41000 737.815
66.58000 452.406
66.75000 382.157
66.92000 388.228
67.09000 407.886
67.26000 414.772
67.43000 435.323
67.60000 477.724
67.77000 488.050
67.94000 512.778
68.11000 563.196
68.28000 627.471
68.45000 730.272
68.62000 1058.831
68.79000 1927.324
68.96000 13175.892
69.13000 55411.098
69.30000 29152.816
69.47000 6438.932
69.64000 1023.911
69.81000 658.845
69.98000 541.661
70.00000 549.586