File: XRD/09-10-2025 Dep 8/XY Data/BTO_Mapping_Theta2Theta_09-10-2025_001_58_9-135_-4-067.xy
20.00000 484.076
20.17000 498.018
20.34000 484.765
20.51000 479.117
20.68000 488.866
20.85000 464.320
21.02000 480.748
21.19000 464.568
21.36000 473.183
21.53000 476.368
21.70000 460.935
21.87000 538.574
22.04000 591.315
22.21000 601.916
22.38000 543.360
22.55000 480.145
22.72000 458.281
22.89000 442.487
23.06000 451.419
23.23000 460.656
23.40000 436.624
23.57000 444.314
23.74000 433.853
23.91000 422.550
24.08000 433.241
24.25000 429.524
24.42000 426.381
24.59000 404.912
24.76000 417.382
24.93000 424.758
25.10000 427.233
25.27000 412.056
25.44000 407.653
25.61000 403.866
25.78000 412.326
25.95000 417.845
26.12000 385.372
26.29000 397.902
26.46000 402.313
26.63000 391.234
26.80000 382.040
26.97000 395.565
27.14000 387.926
27.31000 394.420
27.48000 394.879
27.65000 375.544
27.82000 352.196
27.99000 381.807
28.16000 378.417
28.33000 379.913
28.50000 383.871
28.67000 365.436
28.84000 361.445
29.01000 362.901
29.18000 359.958
29.35000 385.294
29.52000 365.109
29.69000 367.689
29.86000 406.205
30.03000 463.682
30.20000 477.280
30.37000 395.595
30.54000 396.912
30.71000 414.448
30.88000 467.565
31.05000 621.856
31.22000 1532.749
31.39000 3132.366
31.56000 1986.675
31.73000 718.303
31.90000 445.430
32.07000 393.693
32.24000 341.391
32.41000 335.176
32.58000 341.859
32.75000 329.089
32.92000 320.612
33.09000 300.886
33.26000 298.608
33.43000 299.355
33.60000 306.447
33.77000 300.702
33.94000 293.048
34.11000 293.968
34.28000 280.183
34.45000 282.119
34.62000 283.434
34.79000 282.956
34.96000 270.034
35.13000 280.829
35.30000 280.961
35.47000 266.061
35.64000 260.218
35.81000 263.493
35.98000 263.084
36.15000 263.427
36.32000 269.820
36.49000 274.518
36.66000 268.413
36.83000 256.681
37.00000 286.679
37.17000 279.844
37.34000 258.680
37.51000 258.238
37.68000 263.904
37.85000 251.630
38.02000 275.827
38.19000 267.591
38.36000 319.552
38.53000 528.917
38.70000 1089.563
38.87000 817.951
39.04000 360.349
39.21000 271.603
39.38000 253.256
39.55000 242.802
39.72000 229.497
39.89000 241.305
40.06000 234.448
40.23000 220.771
40.40000 221.813
40.57000 231.876
40.74000 229.530
40.91000 229.932
41.08000 214.004
41.25000 215.582
41.42000 218.381
41.59000 206.111
41.76000 206.476
41.93000 213.626
42.10000 208.777
42.27000 215.131
42.44000 199.384
42.61000 198.603
42.78000 218.873
42.95000 203.434
43.12000 208.468
43.29000 211.712
43.46000 205.497
43.63000 207.162
43.80000 197.994
43.97000 201.857
44.14000 194.132
44.31000 195.243
44.48000 202.385
44.65000 193.693
44.82000 225.044
44.99000 269.370
45.16000 333.399
45.33000 299.873
45.50000 255.142
45.67000 220.950
45.84000 218.475
46.01000 190.635
46.18000 198.899
46.35000 175.483
46.52000 178.556
46.69000 168.008
46.86000 165.331
47.03000 182.010
47.20000 165.114
47.37000 167.264
47.54000 170.325
47.71000 165.768
47.88000 162.586
48.05000 166.079
48.22000 160.018
48.39000 167.002
48.56000 174.044
48.73000 153.317
48.90000 165.660
49.07000 159.304
49.24000 157.549
49.41000 162.186
49.58000 159.340
49.75000 163.452
49.92000 150.467
50.09000 154.028
50.26000 157.200
50.43000 164.786
50.60000 202.606
50.77000 236.210
50.94000 205.007
51.11000 179.144
51.28000 158.733
51.45000 161.571
51.62000 154.071
51.79000 150.093
51.96000 142.275
52.13000 140.733
52.30000 140.570
52.47000 137.729
52.64000 152.340
52.81000 153.247
52.98000 139.663
53.15000 136.744
53.32000 149.082
53.49000 149.191
53.66000 142.919
53.83000 142.782
54.00000 139.863
54.17000 130.881
54.34000 146.115
54.51000 135.530
54.68000 140.646
54.85000 138.097
55.02000 146.554
55.19000 152.882
55.36000 157.025
55.53000 180.043
55.70000 248.198
55.87000 443.397
56.04000 559.586
56.21000 354.566
56.38000 221.879
56.55000 170.293
56.72000 152.802
56.89000 140.556
57.06000 120.440
57.23000 134.134
57.40000 142.094
57.57000 117.353
57.74000 126.166
57.91000 131.312
58.08000 127.973
58.25000 124.984
58.42000 127.750
58.59000 129.816
58.76000 123.075
58.93000 127.676
59.10000 116.254
59.27000 125.686
59.44000 116.300
59.61000 119.994
59.78000 126.348
59.95000 115.158
60.12000 123.011
60.29000 119.978
60.46000 105.863
60.63000 116.209
60.80000 114.774
60.97000 119.314
61.14000 122.100
61.31000 124.771
61.48000 141.525
61.65000 313.237
61.82000 215.000
61.99000 139.383
62.16000 135.572
62.33000 130.208
62.50000 140.968
62.67000 133.246
62.84000 145.845
63.01000 139.915
63.18000 128.220
63.35000 136.754
63.52000 145.449
63.69000 141.687
63.86000 159.520
64.03000 150.138
64.20000 155.842
64.37000 159.835
64.54000 181.443
64.71000 169.263
64.88000 179.543
65.05000 206.773
65.22000 237.270
65.39000 331.229
65.56000 490.606
65.73000 1392.983
65.90000 2392.090
66.07000 584.563
66.24000 469.842
66.41000 739.693
66.58000 447.365
66.75000 399.800
66.92000 388.414
67.09000 416.171
67.26000 445.680
67.43000 479.804
67.60000 477.817
67.77000 505.385
67.94000 547.496
68.11000 594.666
68.28000 645.575
68.45000 736.053
68.62000 1060.185
68.79000 1990.769
68.96000 13245.793
69.13000 57336.465
69.30000 30753.766
69.47000 6935.125
69.64000 1068.962
69.81000 678.480
69.98000 557.264
70.00000 546.023