File: XRD/09-10-2025 Dep 8/XY Data/BTO_Mapping_Theta2Theta_09-10-2025_001_40_-24-271_-17-634.xy
20.00000 485.250
20.17000 474.633
20.34000 509.870
20.51000 491.497
20.68000 469.570
20.85000 487.369
21.02000 473.873
21.19000 490.841
21.36000 500.262
21.53000 476.473
21.70000 521.474
21.87000 643.359
22.04000 719.424
22.21000 591.175
22.38000 497.832
22.55000 477.382
22.72000 446.862
22.89000 467.173
23.06000 480.434
23.23000 408.549
23.40000 445.793
23.57000 430.615
23.74000 434.011
23.91000 436.437
24.08000 432.192
24.25000 431.992
24.42000 416.741
24.59000 415.081
24.76000 419.285
24.93000 425.786
25.10000 411.846
25.27000 418.655
25.44000 406.644
25.61000 391.605
25.78000 398.820
25.95000 416.171
26.12000 400.498
26.29000 397.209
26.46000 391.782
26.63000 399.046
26.80000 398.720
26.97000 393.705
27.14000 375.649
27.31000 371.050
27.48000 370.090
27.65000 378.648
27.82000 373.582
27.99000 381.322
28.16000 380.964
28.33000 386.598
28.50000 381.894
28.67000 387.811
28.84000 348.483
29.01000 389.379
29.18000 364.506
29.35000 355.735
29.52000 368.453
29.69000 361.195
29.86000 449.631
30.03000 506.214
30.20000 471.094
30.37000 435.130
30.54000 374.231
30.71000 436.764
30.88000 451.786
31.05000 774.496
31.22000 2687.484
31.39000 4249.463
31.56000 1891.482
31.73000 639.724
31.90000 407.152
32.07000 371.438
32.24000 341.520
32.41000 358.619
32.58000 320.953
32.75000 335.454
32.92000 333.611
33.09000 321.431
33.26000 313.119
33.43000 293.617
33.60000 292.646
33.77000 293.057
33.94000 280.711
34.11000 294.790
34.28000 301.511
34.45000 295.455
34.62000 284.292
34.79000 281.582
34.96000 269.417
35.13000 266.953
35.30000 280.124
35.47000 292.121
35.64000 285.732
35.81000 279.812
35.98000 276.925
36.15000 261.606
36.32000 264.637
36.49000 258.412
36.66000 258.244
36.83000 280.172
37.00000 287.360
37.17000 271.180
37.34000 260.344
37.51000 266.134
37.68000 271.949
37.85000 266.213
38.02000 278.284
38.19000 294.338
38.36000 379.039
38.53000 556.055
38.70000 662.678
38.87000 442.867
39.04000 290.341
39.21000 259.306
39.38000 236.344
39.55000 245.671
39.72000 237.583
39.89000 242.808
40.06000 242.640
40.23000 233.438
40.40000 242.332
40.57000 227.726
40.74000 232.587
40.91000 224.174
41.08000 228.176
41.25000 215.573
41.42000 222.947
41.59000 218.061
41.76000 224.449
41.93000 221.908
42.10000 211.911
42.27000 195.727
42.44000 215.723
42.61000 212.961
42.78000 215.186
42.95000 209.963
43.12000 206.983
43.29000 201.168
43.46000 208.268
43.63000 217.139
43.80000 199.685
43.97000 194.287
44.14000 211.165
44.31000 226.005
44.48000 238.121
44.65000 281.002
44.82000 374.163
44.99000 444.580
45.16000 370.713
45.33000 282.538
45.50000 238.754
45.67000 213.818
45.84000 207.409
46.01000 194.317
46.18000 177.017
46.35000 177.730
46.52000 182.339
46.69000 174.098
46.86000 184.962
47.03000 175.059
47.20000 176.790
47.37000 166.098
47.54000 167.921
47.71000 171.960
47.88000 165.878
48.05000 162.952
48.22000 167.300
48.39000 169.399
48.56000 165.344
48.73000 163.320
48.90000 159.456
49.07000 168.088
49.24000 154.802
49.41000 159.545
49.58000 149.035
49.75000 160.695
49.92000 156.366
50.09000 163.975
50.26000 185.919
50.43000 226.613
50.60000 244.710
50.77000 240.020
50.94000 192.106
51.11000 183.884
51.28000 165.634
51.45000 161.884
51.62000 142.219
51.79000 144.270
51.96000 145.739
52.13000 146.435
52.30000 153.309
52.47000 154.616
52.64000 141.674
52.81000 148.279
52.98000 143.867
53.15000 150.380
53.32000 161.353
53.49000 157.594
53.66000 145.676
53.83000 147.243
54.00000 146.414
54.17000 147.681
54.34000 145.026
54.51000 151.938
54.68000 143.036
54.85000 147.136
55.02000 151.264
55.19000 160.253
55.36000 187.256
55.53000 254.785
55.70000 412.918
55.87000 516.960
56.04000 404.143
56.21000 263.537
56.38000 192.686
56.55000 161.878
56.72000 143.820
56.89000 141.117
57.06000 140.456
57.23000 127.219
57.40000 139.553
57.57000 131.289
57.74000 125.416
57.91000 123.239
58.08000 118.872
58.25000 126.393
58.42000 141.092
58.59000 112.324
58.76000 122.684
58.93000 121.214
59.10000 118.588
59.27000 116.065
59.44000 122.975
59.61000 122.561
59.78000 114.163
59.95000 130.295
60.12000 122.902
60.29000 117.746
60.46000 116.571
60.63000 115.458
60.80000 115.813
60.97000 122.826
61.14000 123.430
61.31000 129.143
61.48000 148.163
61.65000 416.926
61.82000 266.453
61.99000 144.385
62.16000 145.376
62.33000 140.549
62.50000 141.058
62.67000 132.551
62.84000 140.712
63.01000 144.512
63.18000 141.153
63.35000 141.830
63.52000 144.451
63.69000 146.731
63.86000 141.630
64.03000 156.561
64.20000 166.596
64.37000 164.223
64.54000 171.515
64.71000 177.638
64.88000 203.736
65.05000 242.351
65.22000 326.688
65.39000 480.715
65.56000 593.476
65.73000 1716.106
65.90000 3331.276
66.07000 738.214
66.24000 542.093
66.41000 964.713
66.58000 578.784
66.75000 466.558
66.92000 468.756
67.09000 499.151
67.26000 504.734
67.43000 560.084
67.60000 576.410
67.77000 592.645
67.94000 613.079
68.11000 657.815
68.28000 726.817
68.45000 877.042
68.62000 1273.457
68.79000 2590.065
68.96000 17287.270
69.13000 80579.820
69.30000 44038.988
69.47000 10965.602
69.64000 1319.793
69.81000 804.174
69.98000 614.139
70.00000 583.864