File: XRD/09-10-2025 Dep 8/XY Data/BTO_Mapping_Theta2Theta_09-10-2025_001_42_-5-000_-8-660.xy
20.00000 503.017
20.17000 492.892
20.34000 495.925
20.51000 505.865
20.68000 486.380
20.85000 490.142
21.02000 489.172
21.19000 482.640
21.36000 481.304
21.53000 498.482
21.70000 485.957
21.87000 565.233
22.04000 691.878
22.21000 628.315
22.38000 524.431
22.55000 470.315
22.72000 452.410
22.89000 454.581
23.06000 446.599
23.23000 433.702
23.40000 423.719
23.57000 434.737
23.74000 443.754
23.91000 438.987
24.08000 425.344
24.25000 424.793
24.42000 407.437
24.59000 446.066
24.76000 411.832
24.93000 409.108
25.10000 418.725
25.27000 421.862
25.44000 397.138
25.61000 400.726
25.78000 390.590
25.95000 384.151
26.12000 391.599
26.29000 384.871
26.46000 394.857
26.63000 393.421
26.80000 379.575
26.97000 376.660
27.14000 360.777
27.31000 364.311
27.48000 386.650
27.65000 384.528
27.82000 377.040
27.99000 370.284
28.16000 386.304
28.33000 369.093
28.50000 380.849
28.67000 369.038
28.84000 386.246
29.01000 357.445
29.18000 370.200
29.35000 363.871
29.52000 369.438
29.69000 375.929
29.86000 408.396
30.03000 474.348
30.20000 431.022
30.37000 407.390
30.54000 395.501
30.71000 422.842
30.88000 472.318
31.05000 653.753
31.22000 1637.254
31.39000 3102.084
31.56000 1803.183
31.73000 698.897
31.90000 427.923
32.07000 377.699
32.24000 356.947
32.41000 336.514
32.58000 329.832
32.75000 345.802
32.92000 324.637
33.09000 306.956
33.26000 320.161
33.43000 304.919
33.60000 286.087
33.77000 310.862
33.94000 282.074
34.11000 291.683
34.28000 294.742
34.45000 278.653
34.62000 274.840
34.79000 291.010
34.96000 271.080
35.13000 274.745
35.30000 281.010
35.47000 276.149
35.64000 267.735
35.81000 265.335
35.98000 265.500
36.15000 257.162
36.32000 261.000
36.49000 250.735
36.66000 261.679
36.83000 290.259
37.00000 296.474
37.17000 266.595
37.34000 265.918
37.51000 243.910
37.68000 262.444
37.85000 269.496
38.02000 264.909
38.19000 292.918
38.36000 325.838
38.53000 596.776
38.70000 998.699
38.87000 675.773
39.04000 349.305
39.21000 260.130
39.38000 264.323
39.55000 245.005
39.72000 237.087
39.89000 236.177
40.06000 237.326
40.23000 234.218
40.40000 220.039
40.57000 231.372
40.74000 222.499
40.91000 228.205
41.08000 221.442
41.25000 228.151
41.42000 216.785
41.59000 219.014
41.76000 212.183
41.93000 218.286
42.10000 206.732
42.27000 205.205
42.44000 214.184
42.61000 205.001
42.78000 210.216
42.95000 198.737
43.12000 206.180
43.29000 202.197
43.46000 201.167
43.63000 192.232
43.80000 207.259
43.97000 200.629
44.14000 207.475
44.31000 209.177
44.48000 201.798
44.65000 221.434
44.82000 270.994
44.99000 351.645
45.16000 385.912
45.33000 301.692
45.50000 265.314
45.67000 226.201
45.84000 210.332
46.01000 186.641
46.18000 181.447
46.35000 173.262
46.52000 191.242
46.69000 176.186
46.86000 176.955
47.03000 173.401
47.20000 171.348
47.37000 173.039
47.54000 173.352
47.71000 167.636
47.88000 168.155
48.05000 166.459
48.22000 163.694
48.39000 155.807
48.56000 153.316
48.73000 167.789
48.90000 160.211
49.07000 156.296
49.24000 163.496
49.41000 153.893
49.58000 155.775
49.75000 149.682
49.92000 160.327
50.09000 168.564
50.26000 173.284
50.43000 182.225
50.60000 228.092
50.77000 237.867
50.94000 193.004
51.11000 160.490
51.28000 168.595
51.45000 160.689
51.62000 150.163
51.79000 157.735
51.96000 159.384
52.13000 138.329
52.30000 145.295
52.47000 138.784
52.64000 138.572
52.81000 140.941
52.98000 129.398
53.15000 140.937
53.32000 150.488
53.49000 163.924
53.66000 142.202
53.83000 135.757
54.00000 141.016
54.17000 145.028
54.34000 145.059
54.51000 145.878
54.68000 140.355
54.85000 144.643
55.02000 148.582
55.19000 157.088
55.36000 162.255
55.53000 182.023
55.70000 282.888
55.87000 491.314
56.04000 551.711
56.21000 352.144
56.38000 220.945
56.55000 170.874
56.72000 148.524
56.89000 137.315
57.06000 129.558
57.23000 142.822
57.40000 135.622
57.57000 136.114
57.74000 126.351
57.91000 129.882
58.08000 123.471
58.25000 124.346
58.42000 135.680
58.59000 130.634
58.76000 122.505
58.93000 130.177
59.10000 127.495
59.27000 121.398
59.44000 116.319
59.61000 123.431
59.78000 116.827
59.95000 115.135
60.12000 120.819
60.29000 117.540
60.46000 118.843
60.63000 123.641
60.80000 115.897
60.97000 120.609
61.14000 126.033
61.31000 127.804
61.48000 151.893
61.65000 404.848
61.82000 241.717
61.99000 144.186
62.16000 139.368
62.33000 134.713
62.50000 139.745
62.67000 141.982
62.84000 136.309
63.01000 155.516
63.18000 146.320
63.35000 145.999
63.52000 161.795
63.69000 149.527
63.86000 148.437
64.03000 145.297
64.20000 156.953
64.37000 166.991
64.54000 171.511
64.71000 193.040
64.88000 196.180
65.05000 212.458
65.22000 262.105
65.39000 356.532
65.56000 538.321
65.73000 1743.906
65.90000 2998.017
66.07000 703.319
66.24000 516.508
66.41000 878.812
66.58000 539.975
66.75000 442.902
66.92000 452.925
67.09000 471.725
67.26000 499.199
67.43000 503.193
67.60000 552.957
67.77000 583.086
67.94000 595.912
68.11000 648.215
68.28000 719.296
68.45000 830.053
68.62000 1245.365
68.79000 2425.491
68.96000 17929.420
69.13000 74424.258
69.30000 39431.031
69.47000 8806.921
69.64000 1229.198
69.81000 786.703
69.98000 599.742
70.00000 580.657