File: XRD/09-10-2025 Dep 8/XY Data/BTO_Mapping_Theta2Theta_09-10-2025_001_24_-15-000_25-981.xy
20.00000 477.174
20.17000 484.735
20.34000 462.569
20.51000 485.742
20.68000 487.631
20.85000 470.653
21.02000 466.452
21.19000 488.864
21.36000 483.322
21.53000 477.996
21.70000 497.079
21.87000 539.096
22.04000 632.216
22.21000 611.186
22.38000 547.329
22.55000 469.155
22.72000 450.779
22.89000 446.398
23.06000 426.694
23.23000 435.429
23.40000 442.396
23.57000 436.976
23.74000 426.195
23.91000 432.695
24.08000 423.241
24.25000 405.594
24.42000 400.060
24.59000 428.482
24.76000 406.239
24.93000 418.153
25.10000 408.583
25.27000 412.190
25.44000 413.800
25.61000 399.651
25.78000 398.401
25.95000 388.328
26.12000 403.689
26.29000 414.741
26.46000 400.339
26.63000 401.596
26.80000 389.458
26.97000 371.164
27.14000 375.169
27.31000 384.507
27.48000 373.822
27.65000 382.087
27.82000 380.539
27.99000 369.906
28.16000 383.156
28.33000 377.450
28.50000 375.804
28.67000 363.858
28.84000 381.028
29.01000 371.778
29.18000 364.785
29.35000 365.509
29.52000 369.418
29.69000 378.051
29.86000 401.413
30.03000 455.741
30.20000 460.497
30.37000 403.682
30.54000 413.417
30.71000 403.492
30.88000 442.456
31.05000 570.525
31.22000 1345.744
31.39000 2885.656
31.56000 1995.074
31.73000 810.753
31.90000 475.483
32.07000 379.376
32.24000 354.189
32.41000 349.747
32.58000 346.473
32.75000 328.220
32.92000 326.136
33.09000 305.387
33.26000 310.046
33.43000 306.554
33.60000 295.957
33.77000 296.134
33.94000 293.656
34.11000 313.145
34.28000 279.173
34.45000 287.088
34.62000 289.671
34.79000 291.019
34.96000 260.543
35.13000 273.118
35.30000 271.356
35.47000 263.106
35.64000 270.792
35.81000 266.913
35.98000 277.706
36.15000 268.666
36.32000 281.689
36.49000 264.160
36.66000 254.917
36.83000 273.046
37.00000 270.248
37.17000 278.486
37.34000 276.807
37.51000 260.529
37.68000 244.171
37.85000 266.843
38.02000 253.495
38.19000 290.643
38.36000 320.975
38.53000 512.920
38.70000 1039.916
38.87000 776.249
39.04000 372.252
39.21000 279.263
39.38000 246.592
39.55000 231.815
39.72000 243.277
39.89000 231.776
40.06000 221.972
40.23000 226.341
40.40000 217.509
40.57000 205.380
40.74000 217.489
40.91000 211.495
41.08000 216.257
41.25000 215.451
41.42000 200.443
41.59000 215.514
41.76000 217.491
41.93000 213.114
42.10000 207.200
42.27000 213.229
42.44000 201.351
42.61000 214.394
42.78000 207.214
42.95000 206.181
43.12000 200.883
43.29000 194.942
43.46000 207.556
43.63000 200.421
43.80000 195.766
43.97000 190.643
44.14000 189.344
44.31000 196.338
44.48000 194.997
44.65000 210.743
44.82000 243.140
44.99000 287.773
45.16000 339.725
45.33000 299.487
45.50000 248.703
45.67000 223.656
45.84000 206.778
46.01000 198.833
46.18000 181.623
46.35000 183.252
46.52000 166.709
46.69000 174.909
46.86000 157.501
47.03000 178.761
47.20000 177.288
47.37000 165.870
47.54000 177.871
47.71000 162.854
47.88000 172.728
48.05000 171.873
48.22000 153.416
48.39000 158.865
48.56000 158.949
48.73000 162.142
48.90000 167.456
49.07000 161.103
49.24000 157.861
49.41000 147.778
49.58000 149.361
49.75000 144.506
49.92000 155.844
50.09000 153.195
50.26000 160.487
50.43000 166.483
50.60000 216.191
50.77000 239.696
50.94000 203.257
51.11000 171.321
51.28000 163.807
51.45000 143.114
51.62000 150.898
51.79000 151.965
51.96000 151.721
52.13000 130.827
52.30000 143.299
52.47000 139.481
52.64000 146.129
52.81000 144.100
52.98000 147.917
53.15000 144.063
53.32000 151.443
53.49000 153.333
53.66000 153.858
53.83000 148.155
54.00000 140.366
54.17000 147.352
54.34000 140.695
54.51000 134.508
54.68000 140.973
54.85000 134.074
55.02000 136.560
55.19000 142.735
55.36000 162.426
55.53000 174.866
55.70000 250.715
55.87000 465.745
56.04000 566.456
56.21000 383.560
56.38000 229.918
56.55000 173.757
56.72000 155.174
56.89000 140.395
57.06000 129.962
57.23000 132.533
57.40000 128.796
57.57000 136.259
57.74000 133.031
57.91000 128.337
58.08000 134.256
58.25000 130.348
58.42000 121.140
58.59000 129.477
58.76000 125.697
58.93000 125.127
59.10000 124.674
59.27000 113.983
59.44000 121.967
59.61000 120.496
59.78000 112.986
59.95000 127.246
60.12000 104.290
60.29000 116.342
60.46000 124.130
60.63000 131.930
60.80000 114.190
60.97000 122.422
61.14000 115.078
61.31000 117.407
61.48000 135.480
61.65000 357.928
61.82000 240.316
61.99000 139.042
62.16000 129.473
62.33000 122.791
62.50000 128.930
62.67000 140.881
62.84000 137.966
63.01000 135.274
63.18000 151.061
63.35000 126.343
63.52000 144.099
63.69000 144.496
63.86000 153.388
64.03000 146.552
64.20000 152.732
64.37000 162.587
64.54000 165.548
64.71000 173.932
64.88000 190.347
65.05000 207.543
65.22000 251.062
65.39000 318.586
65.56000 500.472
65.73000 1556.507
65.90000 2758.250
66.07000 674.858
66.24000 498.376
66.41000 835.501
66.58000 529.165
66.75000 427.989
66.92000 434.622
67.09000 445.646
67.26000 474.611
67.43000 493.064
67.60000 519.054
67.77000 536.038
67.94000 583.556
68.11000 626.826
68.28000 703.285
68.45000 799.388
68.62000 1176.904
68.79000 2275.248
68.96000 15192.036
69.13000 68436.547
69.30000 37069.848
69.47000 8914.574
69.64000 1178.304
69.81000 755.105
69.98000 588.546
70.00000 597.663