File: XRD/09-10-2025 Dep 8/XY Data/BTO_Mapping_Theta2Theta_09-10-2025_001_50_3-090_-9-511.xy
20.00000 498.276
20.17000 475.332
20.34000 497.242
20.51000 475.719
20.68000 486.986
20.85000 478.726
21.02000 494.491
21.19000 467.147
21.36000 480.033
21.53000 498.784
21.70000 502.195
21.87000 551.470
22.04000 636.205
22.21000 619.351
22.38000 525.017
22.55000 466.642
22.72000 471.021
22.89000 453.534
23.06000 421.477
23.23000 439.706
23.40000 426.524
23.57000 432.669
23.74000 442.027
23.91000 441.847
24.08000 428.344
24.25000 432.078
24.42000 418.328
24.59000 418.032
24.76000 419.671
24.93000 437.805
25.10000 423.609
25.27000 410.815
25.44000 392.350
25.61000 410.165
25.78000 403.674
25.95000 395.116
26.12000 396.070
26.29000 394.211
26.46000 388.124
26.63000 393.185
26.80000 395.426
26.97000 386.575
27.14000 376.252
27.31000 357.132
27.48000 386.907
27.65000 361.573
27.82000 371.459
27.99000 367.919
28.16000 375.163
28.33000 380.943
28.50000 371.034
28.67000 366.215
28.84000 356.153
29.01000 351.936
29.18000 371.791
29.35000 366.958
29.52000 362.711
29.69000 370.272
29.86000 394.451
30.03000 462.684
30.20000 446.778
30.37000 395.964
30.54000 407.657
30.71000 433.521
30.88000 455.324
31.05000 642.776
31.22000 1622.893
31.39000 3208.280
31.56000 1931.682
31.73000 759.197
31.90000 444.780
32.07000 378.846
32.24000 350.920
32.41000 337.938
32.58000 341.622
32.75000 328.559
32.92000 323.729
33.09000 321.634
33.26000 302.128
33.43000 286.817
33.60000 293.021
33.77000 311.886
33.94000 293.097
34.11000 303.577
34.28000 300.670
34.45000 290.251
34.62000 288.133
34.79000 290.346
34.96000 308.120
35.13000 277.288
35.30000 255.720
35.47000 271.313
35.64000 259.683
35.81000 282.933
35.98000 265.531
36.15000 263.104
36.32000 265.616
36.49000 263.843
36.66000 265.191
36.83000 284.016
37.00000 285.113
37.17000 283.400
37.34000 278.254
37.51000 274.538
37.68000 258.767
37.85000 265.746
38.02000 261.746
38.19000 281.174
38.36000 319.988
38.53000 579.016
38.70000 1098.845
38.87000 760.373
39.04000 354.254
39.21000 259.006
39.38000 258.618
39.55000 242.961
39.72000 239.816
39.89000 234.473
40.06000 239.110
40.23000 236.305
40.40000 229.787
40.57000 220.200
40.74000 208.706
40.91000 223.514
41.08000 211.573
41.25000 220.157
41.42000 223.775
41.59000 210.291
41.76000 212.537
41.93000 219.226
42.10000 199.919
42.27000 195.351
42.44000 205.025
42.61000 206.532
42.78000 210.998
42.95000 190.448
43.12000 198.869
43.29000 209.108
43.46000 196.268
43.63000 211.414
43.80000 203.676
43.97000 195.110
44.14000 204.782
44.31000 208.254
44.48000 212.002
44.65000 211.444
44.82000 238.457
44.99000 292.174
45.16000 338.399
45.33000 299.484
45.50000 265.847
45.67000 225.587
45.84000 201.500
46.01000 195.937
46.18000 190.361
46.35000 184.830
46.52000 182.076
46.69000 187.729
46.86000 174.637
47.03000 163.897
47.20000 169.457
47.37000 159.593
47.54000 169.666
47.71000 179.156
47.88000 164.976
48.05000 169.076
48.22000 174.690
48.39000 172.510
48.56000 160.673
48.73000 166.978
48.90000 160.387
49.07000 159.478
49.24000 149.390
49.41000 148.627
49.58000 150.546
49.75000 153.228
49.92000 160.557
50.09000 159.809
50.26000 163.033
50.43000 182.181
50.60000 206.200
50.77000 225.846
50.94000 210.436
51.11000 184.587
51.28000 154.567
51.45000 155.588
51.62000 155.409
51.79000 146.415
51.96000 147.713
52.13000 144.231
52.30000 139.879
52.47000 137.248
52.64000 146.380
52.81000 150.239
52.98000 138.263
53.15000 140.946
53.32000 153.011
53.49000 158.924
53.66000 145.967
53.83000 148.475
54.00000 134.427
54.17000 139.024
54.34000 138.668
54.51000 143.444
54.68000 146.704
54.85000 145.601
55.02000 144.525
55.19000 146.996
55.36000 147.868
55.53000 174.072
55.70000 267.450
55.87000 475.524
56.04000 524.537
56.21000 362.795
56.38000 219.146
56.55000 154.543
56.72000 160.333
56.89000 142.546
57.06000 142.325
57.23000 137.424
57.40000 125.690
57.57000 125.085
57.74000 128.300
57.91000 124.635
58.08000 121.265
58.25000 122.091
58.42000 128.923
58.59000 119.726
58.76000 134.013
58.93000 120.237
59.10000 119.808
59.27000 115.272
59.44000 120.156
59.61000 121.925
59.78000 122.149
59.95000 124.889
60.12000 111.842
60.29000 120.721
60.46000 120.697
60.63000 115.980
60.80000 127.104
60.97000 118.621
61.14000 131.721
61.31000 114.155
61.48000 130.535
61.65000 361.385
61.82000 214.952
61.99000 141.785
62.16000 131.818
62.33000 133.397
62.50000 142.927
62.67000 135.935
62.84000 144.915
63.01000 139.090
63.18000 139.975
63.35000 142.441
63.52000 139.643
63.69000 139.638
63.86000 144.907
64.03000 150.939
64.20000 164.657
64.37000 163.602
64.54000 180.318
64.71000 179.467
64.88000 206.401
65.05000 224.359
65.22000 246.796
65.39000 344.187
65.56000 507.928
65.73000 1532.160
65.90000 2666.154
66.07000 610.096
66.24000 500.009
66.41000 787.082
66.58000 488.650
66.75000 416.174
66.92000 412.336
67.09000 434.050
67.26000 450.649
67.43000 482.480
67.60000 500.681
67.77000 518.253
67.94000 569.113
68.11000 601.114
68.28000 665.542
68.45000 758.314
68.62000 1146.011
68.79000 2142.745
68.96000 15260.932
69.13000 64387.727
69.30000 34099.781
69.47000 7630.140
69.64000 1132.085
69.81000 717.411
69.98000 568.887
70.00000 559.346