File: XRD/09-10-2025 Dep 8/XY Data/BTO_Mapping_Theta2Theta_09-10-2025_001_28_-24-271_17-634.xy
20.00000 486.465
20.17000 505.790
20.34000 495.878
20.51000 484.947
20.68000 472.628
20.85000 475.354
21.02000 500.916
21.19000 489.924
21.36000 464.569
21.53000 477.866
21.70000 514.507
21.87000 565.957
22.04000 693.028
22.21000 607.855
22.38000 512.167
22.55000 462.953
22.72000 470.835
22.89000 468.370
23.06000 460.394
23.23000 441.055
23.40000 449.758
23.57000 410.451
23.74000 413.723
23.91000 412.473
24.08000 435.753
24.25000 432.001
24.42000 417.854
24.59000 422.135
24.76000 414.575
24.93000 404.617
25.10000 402.484
25.27000 408.691
25.44000 406.943
25.61000 402.499
25.78000 410.729
25.95000 406.835
26.12000 399.658
26.29000 398.339
26.46000 376.541
26.63000 405.196
26.80000 396.369
26.97000 391.049
27.14000 386.325
27.31000 386.344
27.48000 378.173
27.65000 396.605
27.82000 383.667
27.99000 393.438
28.16000 363.191
28.33000 388.510
28.50000 368.729
28.67000 377.003
28.84000 357.652
29.01000 339.292
29.18000 368.179
29.35000 357.901
29.52000 375.941
29.69000 369.770
29.86000 402.028
30.03000 456.455
30.20000 419.842
30.37000 378.023
30.54000 392.012
30.71000 402.229
30.88000 428.903
31.05000 595.997
31.22000 1471.482
31.39000 2971.146
31.56000 1926.755
31.73000 709.033
31.90000 432.933
32.07000 379.018
32.24000 363.132
32.41000 348.043
32.58000 336.119
32.75000 340.463
32.92000 323.492
33.09000 331.934
33.26000 313.959
33.43000 298.405
33.60000 284.967
33.77000 288.448
33.94000 308.869
34.11000 300.236
34.28000 285.275
34.45000 270.413
34.62000 293.578
34.79000 290.761
34.96000 281.958
35.13000 271.044
35.30000 268.420
35.47000 277.795
35.64000 272.096
35.81000 262.952
35.98000 260.282
36.15000 268.156
36.32000 265.489
36.49000 280.748
36.66000 255.073
36.83000 271.353
37.00000 287.419
37.17000 262.395
37.34000 255.965
37.51000 268.349
37.68000 266.240
37.85000 278.256
38.02000 278.658
38.19000 283.619
38.36000 322.739
38.53000 557.304
38.70000 902.999
38.87000 644.767
39.04000 339.323
39.21000 270.529
39.38000 244.431
39.55000 254.531
39.72000 243.840
39.89000 225.875
40.06000 227.198
40.23000 233.609
40.40000 229.001
40.57000 214.029
40.74000 226.174
40.91000 221.692
41.08000 234.783
41.25000 212.191
41.42000 210.614
41.59000 203.835
41.76000 213.232
41.93000 195.151
42.10000 218.598
42.27000 216.584
42.44000 203.993
42.61000 208.310
42.78000 197.036
42.95000 206.420
43.12000 209.811
43.29000 201.238
43.46000 206.466
43.63000 202.700
43.80000 183.453
43.97000 199.307
44.14000 198.186
44.31000 210.525
44.48000 216.121
44.65000 233.167
44.82000 265.701
44.99000 378.155
45.16000 396.252
45.33000 319.048
45.50000 248.302
45.67000 222.058
45.84000 198.383
46.01000 191.873
46.18000 186.007
46.35000 169.178
46.52000 164.440
46.69000 184.187
46.86000 172.387
47.03000 159.427
47.20000 176.304
47.37000 171.376
47.54000 169.691
47.71000 157.428
47.88000 155.959
48.05000 164.976
48.22000 161.547
48.39000 171.650
48.56000 169.775
48.73000 169.501
48.90000 159.155
49.07000 159.659
49.24000 162.047
49.41000 163.661
49.58000 145.472
49.75000 159.832
49.92000 159.758
50.09000 152.891
50.26000 163.923
50.43000 179.394
50.60000 219.575
50.77000 250.936
50.94000 212.863
51.11000 164.145
51.28000 164.736
51.45000 172.194
51.62000 146.099
51.79000 148.850
51.96000 153.728
52.13000 134.186
52.30000 157.812
52.47000 151.974
52.64000 136.787
52.81000 148.107
52.98000 140.295
53.15000 152.348
53.32000 158.659
53.49000 153.938
53.66000 146.345
53.83000 141.805
54.00000 139.579
54.17000 141.503
54.34000 137.891
54.51000 144.313
54.68000 143.811
54.85000 148.344
55.02000 154.525
55.19000 147.962
55.36000 163.759
55.53000 200.288
55.70000 308.573
55.87000 559.731
56.04000 567.088
56.21000 376.425
56.38000 224.114
56.55000 177.826
56.72000 144.871
56.89000 136.509
57.06000 126.070
57.23000 135.997
57.40000 132.963
57.57000 124.914
57.74000 121.716
57.91000 133.659
58.08000 123.757
58.25000 125.549
58.42000 121.805
58.59000 124.394
58.76000 122.717
58.93000 123.650
59.10000 124.058
59.27000 122.394
59.44000 121.444
59.61000 109.967
59.78000 119.744
59.95000 116.490
60.12000 115.672
60.29000 124.280
60.46000 120.552
60.63000 113.944
60.80000 120.057
60.97000 124.943
61.14000 124.169
61.31000 121.282
61.48000 172.178
61.65000 404.779
61.82000 272.154
61.99000 144.831
62.16000 139.358
62.33000 143.280
62.50000 140.888
62.67000 142.727
62.84000 137.934
63.01000 134.943
63.18000 144.386
63.35000 139.656
63.52000 144.064
63.69000 148.936
63.86000 148.693
64.03000 156.007
64.20000 169.328
64.37000 180.056
64.54000 171.371
64.71000 191.250
64.88000 187.040
65.05000 223.229
65.22000 274.452
65.39000 360.246
65.56000 512.271
65.73000 1721.134
65.90000 3421.107
66.07000 782.641
66.24000 585.056
66.41000 963.952
66.58000 599.824
66.75000 444.925
66.92000 474.914
67.09000 496.509
67.26000 516.382
67.43000 555.313
67.60000 576.368
67.77000 591.580
67.94000 621.427
68.11000 698.033
68.28000 766.853
68.45000 886.077
68.62000 1302.729
68.79000 2681.978
68.96000 17384.529
69.13000 82445.242
69.30000 46302.996
69.47000 11886.584
69.64000 1359.627
69.81000 803.401
69.98000 630.697
70.00000 626.562