File: XRD/09-10-2025 Dep 8/XY Data/BTO_Mapping_Theta2Theta_09-10-2025_001_31_-19-563_4-158.xy
20.00000 502.138
20.17000 474.488
20.34000 487.913
20.51000 482.561
20.68000 479.719
20.85000 476.383
21.02000 496.316
21.19000 465.454
21.36000 443.531
21.53000 502.945
21.70000 505.562
21.87000 604.719
22.04000 703.106
22.21000 641.058
22.38000 529.185
22.55000 471.811
22.72000 439.668
22.89000 461.531
23.06000 452.916
23.23000 448.846
23.40000 447.166
23.57000 435.314
23.74000 434.909
23.91000 419.895
24.08000 415.027
24.25000 417.817
24.42000 433.710
24.59000 409.094
24.76000 408.081
24.93000 418.925
25.10000 415.824
25.27000 423.566
25.44000 405.335
25.61000 405.641
25.78000 394.397
25.95000 398.009
26.12000 387.189
26.29000 404.622
26.46000 407.816
26.63000 394.757
26.80000 388.636
26.97000 392.776
27.14000 383.861
27.31000 361.390
27.48000 378.194
27.65000 383.072
27.82000 370.448
27.99000 377.650
28.16000 376.875
28.33000 374.715
28.50000 368.721
28.67000 352.882
28.84000 376.334
29.01000 367.429
29.18000 364.475
29.35000 362.068
29.52000 359.625
29.69000 378.802
29.86000 402.610
30.03000 443.116
30.20000 439.851
30.37000 416.329
30.54000 414.090
30.71000 415.217
30.88000 451.685
31.05000 626.416
31.22000 1620.142
31.39000 2979.650
31.56000 1779.151
31.73000 663.495
31.90000 420.628
32.07000 364.817
32.24000 355.813
32.41000 344.047
32.58000 328.604
32.75000 334.717
32.92000 332.551
33.09000 311.582
33.26000 309.313
33.43000 303.161
33.60000 302.880
33.77000 292.399
33.94000 301.999
34.11000 297.164
34.28000 293.835
34.45000 276.084
34.62000 288.353
34.79000 284.156
34.96000 278.291
35.13000 279.969
35.30000 274.193
35.47000 273.836
35.64000 267.387
35.81000 274.861
35.98000 260.269
36.15000 277.617
36.32000 261.955
36.49000 264.357
36.66000 275.114
36.83000 264.163
37.00000 281.378
37.17000 283.534
37.34000 270.859
37.51000 263.355
37.68000 264.435
37.85000 272.325
38.02000 280.182
38.19000 284.998
38.36000 344.387
38.53000 586.178
38.70000 867.186
38.87000 596.308
39.04000 345.179
39.21000 285.245
39.38000 256.374
39.55000 249.486
39.72000 248.188
39.89000 227.474
40.06000 231.734
40.23000 223.498
40.40000 229.919
40.57000 237.027
40.74000 231.353
40.91000 218.639
41.08000 222.415
41.25000 221.253
41.42000 223.444
41.59000 213.163
41.76000 210.555
41.93000 213.164
42.10000 214.579
42.27000 211.126
42.44000 204.402
42.61000 201.933
42.78000 198.147
42.95000 216.388
43.12000 204.897
43.29000 204.178
43.46000 217.719
43.63000 200.691
43.80000 183.389
43.97000 201.989
44.14000 200.062
44.31000 210.507
44.48000 216.364
44.65000 226.540
44.82000 325.666
44.99000 415.297
45.16000 382.011
45.33000 310.680
45.50000 252.429
45.67000 234.082
45.84000 205.880
46.01000 199.775
46.18000 184.441
46.35000 184.600
46.52000 177.890
46.69000 190.182
46.86000 174.494
47.03000 181.104
47.20000 167.228
47.37000 165.986
47.54000 166.415
47.71000 165.728
47.88000 169.342
48.05000 164.409
48.22000 156.227
48.39000 170.620
48.56000 150.844
48.73000 171.529
48.90000 164.148
49.07000 158.300
49.24000 158.275
49.41000 166.986
49.58000 163.605
49.75000 157.814
49.92000 148.076
50.09000 161.532
50.26000 162.776
50.43000 189.733
50.60000 237.696
50.77000 229.706
50.94000 211.508
51.11000 175.018
51.28000 155.661
51.45000 161.864
51.62000 153.142
51.79000 153.156
51.96000 152.588
52.13000 145.854
52.30000 141.977
52.47000 135.601
52.64000 149.727
52.81000 144.349
52.98000 140.179
53.15000 143.569
53.32000 155.609
53.49000 160.063
53.66000 165.127
53.83000 148.885
54.00000 146.486
54.17000 146.025
54.34000 145.901
54.51000 154.294
54.68000 148.350
54.85000 144.328
55.02000 145.768
55.19000 157.950
55.36000 173.684
55.53000 202.858
55.70000 343.770
55.87000 547.215
56.04000 520.368
56.21000 339.434
56.38000 221.226
56.55000 171.727
56.72000 155.480
56.89000 136.723
57.06000 138.725
57.23000 133.086
57.40000 123.675
57.57000 125.431
57.74000 127.816
57.91000 125.224
58.08000 125.989
58.25000 127.848
58.42000 122.495
58.59000 119.593
58.76000 127.970
58.93000 124.475
59.10000 122.838
59.27000 126.807
59.44000 118.023
59.61000 129.589
59.78000 132.651
59.95000 119.639
60.12000 111.872
60.29000 128.881
60.46000 109.137
60.63000 119.653
60.80000 122.338
60.97000 125.393
61.14000 116.847
61.31000 136.528
61.48000 160.662
61.65000 441.220
61.82000 257.831
61.99000 134.159
62.16000 137.305
62.33000 135.390
62.50000 138.809
62.67000 130.318
62.84000 134.714
63.01000 139.092
63.18000 142.645
63.35000 148.758
63.52000 150.957
63.69000 144.687
63.86000 158.881
64.03000 159.122
64.20000 154.557
64.37000 162.187
64.54000 177.395
64.71000 185.069
64.88000 199.533
65.05000 233.748
65.22000 266.874
65.39000 367.368
65.56000 535.508
65.73000 1890.544
65.90000 3426.015
66.07000 784.702
66.24000 576.677
66.41000 994.603
66.58000 605.885
66.75000 474.617
66.92000 491.885
67.09000 542.126
67.26000 532.352
67.43000 553.903
67.60000 595.751
67.77000 616.546
67.94000 648.680
68.11000 720.966
68.28000 765.547
68.45000 896.544
68.62000 1375.909
68.79000 2747.760
68.96000 19886.836
69.13000 85359.813
69.30000 45988.547
69.47000 10666.443
69.64000 1336.645
69.81000 836.684
69.98000 642.205
70.00000 625.563