File: XRD/09-10-2025 Dep 8/XY Data/BTO_Mapping_Theta2Theta_09-10-2025_001_32_-29-344_6-237.xy
20.00000 503.766
20.17000 476.115
20.34000 473.894
20.51000 489.122
20.68000 454.426
20.85000 491.993
21.02000 478.559
21.19000 481.829
21.36000 487.727
21.53000 475.801
21.70000 526.444
21.87000 605.458
22.04000 695.867
22.21000 606.418
22.38000 520.939
22.55000 478.596
22.72000 459.399
22.89000 439.388
23.06000 438.259
23.23000 432.834
23.40000 438.731
23.57000 431.296
23.74000 437.917
23.91000 428.505
24.08000 413.350
24.25000 410.370
24.42000 419.052
24.59000 409.763
24.76000 411.142
24.93000 414.455
25.10000 414.783
25.27000 399.044
25.44000 398.942
25.61000 402.396
25.78000 403.838
25.95000 404.577
26.12000 385.329
26.29000 385.853
26.46000 400.414
26.63000 384.956
26.80000 395.773
26.97000 383.738
27.14000 402.810
27.31000 381.660
27.48000 363.418
27.65000 384.817
27.82000 383.437
27.99000 390.178
28.16000 392.138
28.33000 371.046
28.50000 363.894
28.67000 373.377
28.84000 365.841
29.01000 361.391
29.18000 365.633
29.35000 366.153
29.52000 375.450
29.69000 370.208
29.86000 421.085
30.03000 463.225
30.20000 452.098
30.37000 386.526
30.54000 409.764
30.71000 434.971
30.88000 438.758
31.05000 668.076
31.22000 2060.984
31.39000 3739.944
31.56000 1997.722
31.73000 703.221
31.90000 413.494
32.07000 373.041
32.24000 345.359
32.41000 348.601
32.58000 344.457
32.75000 324.670
32.92000 324.297
33.09000 322.170
33.26000 322.130
33.43000 310.512
33.60000 302.844
33.77000 290.740
33.94000 295.650
34.11000 291.674
34.28000 301.738
34.45000 289.180
34.62000 276.433
34.79000 274.216
34.96000 268.006
35.13000 274.351
35.30000 276.326
35.47000 289.743
35.64000 267.877
35.81000 279.692
35.98000 268.298
36.15000 272.356
36.32000 261.816
36.49000 260.961
36.66000 264.512
36.83000 274.289
37.00000 285.316
37.17000 274.811
37.34000 272.145
37.51000 259.276
37.68000 270.234
37.85000 287.939
38.02000 272.511
38.19000 283.877
38.36000 337.403
38.53000 557.985
38.70000 755.354
38.87000 499.346
39.04000 306.554
39.21000 261.647
39.38000 261.918
39.55000 237.862
39.72000 235.681
39.89000 246.998
40.06000 243.159
40.23000 231.539
40.40000 236.797
40.57000 232.614
40.74000 242.471
40.91000 219.806
41.08000 229.806
41.25000 214.748
41.42000 220.169
41.59000 218.267
41.76000 210.630
41.93000 221.103
42.10000 208.878
42.27000 204.759
42.44000 205.154
42.61000 205.636
42.78000 212.729
42.95000 216.202
43.12000 222.478
43.29000 207.993
43.46000 204.692
43.63000 219.334
43.80000 207.446
43.97000 210.791
44.14000 216.158
44.31000 200.823
44.48000 227.577
44.65000 256.802
44.82000 334.542
44.99000 410.534
45.16000 374.714
45.33000 277.759
45.50000 243.112
45.67000 218.479
45.84000 204.935
46.01000 198.676
46.18000 187.231
46.35000 176.784
46.52000 191.509
46.69000 182.361
46.86000 179.834
47.03000 190.329
47.20000 166.077
47.37000 178.604
47.54000 157.006
47.71000 180.503
47.88000 160.941
48.05000 154.939
48.22000 163.148
48.39000 177.210
48.56000 165.687
48.73000 158.253
48.90000 154.523
49.07000 162.142
49.24000 160.279
49.41000 153.578
49.58000 162.613
49.75000 152.829
49.92000 166.634
50.09000 156.834
50.26000 168.838
50.43000 190.294
50.60000 247.986
50.77000 240.461
50.94000 193.637
51.11000 175.678
51.28000 176.106
51.45000 154.067
51.62000 151.110
51.79000 142.367
51.96000 149.692
52.13000 146.440
52.30000 145.728
52.47000 148.028
52.64000 139.666
52.81000 149.347
52.98000 145.459
53.15000 155.948
53.32000 150.012
53.49000 154.056
53.66000 141.546
53.83000 143.063
54.00000 141.209
54.17000 134.101
54.34000 137.825
54.51000 151.359
54.68000 141.116
54.85000 143.234
55.02000 145.837
55.19000 157.522
55.36000 172.714
55.53000 225.967
55.70000 364.123
55.87000 535.632
56.04000 488.803
56.21000 305.647
56.38000 201.841
56.55000 163.058
56.72000 149.066
56.89000 135.698
57.06000 122.266
57.23000 139.221
57.40000 135.717
57.57000 124.948
57.74000 133.539
57.91000 125.797
58.08000 123.426
58.25000 123.099
58.42000 133.872
58.59000 114.981
58.76000 120.210
58.93000 123.278
59.10000 111.105
59.27000 122.601
59.44000 112.042
59.61000 118.976
59.78000 117.416
59.95000 104.040
60.12000 119.719
60.29000 113.484
60.46000 125.702
60.63000 118.066
60.80000 119.226
60.97000 123.731
61.14000 124.103
61.31000 127.203
61.48000 147.374
61.65000 416.410
61.82000 262.243
61.99000 137.394
62.16000 134.689
62.33000 139.577
62.50000 133.917
62.67000 135.087
62.84000 142.189
63.01000 138.961
63.18000 140.917
63.35000 151.795
63.52000 146.914
63.69000 144.267
63.86000 161.932
64.03000 164.423
64.20000 162.099
64.37000 164.841
64.54000 168.597
64.71000 189.795
64.88000 206.648
65.05000 217.772
65.22000 304.823
65.39000 411.805
65.56000 594.342
65.73000 1794.946
65.90000 3437.172
66.07000 788.232
66.24000 562.660
66.41000 960.775
66.58000 606.826
66.75000 443.721
66.92000 495.962
67.09000 501.775
67.26000 509.974
67.43000 545.886
67.60000 553.999
67.77000 592.691
67.94000 635.733
68.11000 670.680
68.28000 743.620
68.45000 890.432
68.62000 1315.217
68.79000 2665.525
68.96000 17854.904
69.13000 82767.008
69.30000 45611.883
69.47000 11505.643
69.64000 1343.011
69.81000 820.354
69.98000 636.354
70.00000 625.924