File: XRD/09-10-2025 Dep 8/XY Data/BTO_Mapping_Theta2Theta_09-10-2025_001_39_-16-180_-11-756.xy
20.00000 489.343
20.17000 476.216
20.34000 498.902
20.51000 489.136
20.68000 476.148
20.85000 484.870
21.02000 483.715
21.19000 493.530
21.36000 463.278
21.53000 490.134
21.70000 518.489
21.87000 643.663
22.04000 731.261
22.21000 625.654
22.38000 503.264
22.55000 480.331
22.72000 458.918
22.89000 449.954
23.06000 463.439
23.23000 446.526
23.40000 446.964
23.57000 441.955
23.74000 434.970
23.91000 448.062
24.08000 438.317
24.25000 423.787
24.42000 425.948
24.59000 424.763
24.76000 420.606
24.93000 416.906
25.10000 422.097
25.27000 402.814
25.44000 412.229
25.61000 415.163
25.78000 410.940
25.95000 401.754
26.12000 404.269
26.29000 415.026
26.46000 389.668
26.63000 388.964
26.80000 395.505
26.97000 396.417
27.14000 388.646
27.31000 381.617
27.48000 393.836
27.65000 377.372
27.82000 377.500
27.99000 396.180
28.16000 383.071
28.33000 392.528
28.50000 372.597
28.67000 371.411
28.84000 359.683
29.01000 393.835
29.18000 355.730
29.35000 363.170
29.52000 362.588
29.69000 369.562
29.86000 400.364
30.03000 470.898
30.20000 416.265
30.37000 400.349
30.54000 417.157
30.71000 385.006
30.88000 447.171
31.05000 628.583
31.22000 1728.940
31.39000 3061.181
31.56000 1717.982
31.73000 655.786
31.90000 416.877
32.07000 347.263
32.24000 341.355
32.41000 342.629
32.58000 336.992
32.75000 336.348
32.92000 335.630
33.09000 315.160
33.26000 284.386
33.43000 304.196
33.60000 294.376
33.77000 297.062
33.94000 301.219
34.11000 302.178
34.28000 290.989
34.45000 279.001
34.62000 284.673
34.79000 297.633
34.96000 286.179
35.13000 277.443
35.30000 276.560
35.47000 278.754
35.64000 277.802
35.81000 261.436
35.98000 254.910
36.15000 258.234
36.32000 273.073
36.49000 262.523
36.66000 264.417
36.83000 272.902
37.00000 276.577
37.17000 277.326
37.34000 278.480
37.51000 268.302
37.68000 263.159
37.85000 261.120
38.02000 273.670
38.19000 294.711
38.36000 340.504
38.53000 571.808
38.70000 848.815
38.87000 551.476
39.04000 341.030
39.21000 263.598
39.38000 251.594
39.55000 244.348
39.72000 251.570
39.89000 251.669
40.06000 235.819
40.23000 238.338
40.40000 232.952
40.57000 221.451
40.74000 220.128
40.91000 231.910
41.08000 223.974
41.25000 223.115
41.42000 216.555
41.59000 214.034
41.76000 217.562
41.93000 224.442
42.10000 210.698
42.27000 228.095
42.44000 201.172
42.61000 214.774
42.78000 209.592
42.95000 210.493
43.12000 207.622
43.29000 204.106
43.46000 202.479
43.63000 198.755
43.80000 203.664
43.97000 196.115
44.14000 208.174
44.31000 207.741
44.48000 227.738
44.65000 258.014
44.82000 342.730
44.99000 425.228
45.16000 403.191
45.33000 306.438
45.50000 243.015
45.67000 217.909
45.84000 205.335
46.01000 195.414
46.18000 176.288
46.35000 177.722
46.52000 181.943
46.69000 168.043
46.86000 172.618
47.03000 171.517
47.20000 164.216
47.37000 176.351
47.54000 168.012
47.71000 175.089
47.88000 162.967
48.05000 168.278
48.22000 156.446
48.39000 166.542
48.56000 165.753
48.73000 160.832
48.90000 150.583
49.07000 159.776
49.24000 152.658
49.41000 154.254
49.58000 153.924
49.75000 156.835
49.92000 163.215
50.09000 164.071
50.26000 158.379
50.43000 184.399
50.60000 232.741
50.77000 253.059
50.94000 225.504
51.11000 174.938
51.28000 166.154
51.45000 151.824
51.62000 149.911
51.79000 144.219
51.96000 145.628
52.13000 143.961
52.30000 146.799
52.47000 144.069
52.64000 150.307
52.81000 132.429
52.98000 149.347
53.15000 149.565
53.32000 161.434
53.49000 157.351
53.66000 150.251
53.83000 139.234
54.00000 147.808
54.17000 146.345
54.34000 140.742
54.51000 143.904
54.68000 142.997
54.85000 145.952
55.02000 150.975
55.19000 148.623
55.36000 182.092
55.53000 212.671
55.70000 345.380
55.87000 551.165
56.04000 531.850
56.21000 335.447
56.38000 214.203
56.55000 170.730
56.72000 144.057
56.89000 149.917
57.06000 118.052
57.23000 131.551
57.40000 126.120
57.57000 124.844
57.74000 127.760
57.91000 129.748
58.08000 127.522
58.25000 120.639
58.42000 120.530
58.59000 127.215
58.76000 120.006
58.93000 123.463
59.10000 117.610
59.27000 126.981
59.44000 126.228
59.61000 122.656
59.78000 121.969
59.95000 126.631
60.12000 120.990
60.29000 122.723
60.46000 123.751
60.63000 115.407
60.80000 112.576
60.97000 123.179
61.14000 120.713
61.31000 128.985
61.48000 166.494
61.65000 436.943
61.82000 239.676
61.99000 137.155
62.16000 137.827
62.33000 138.046
62.50000 140.683
62.67000 138.503
62.84000 141.122
63.01000 141.591
63.18000 144.557
63.35000 136.237
63.52000 141.390
63.69000 153.372
63.86000 154.310
64.03000 152.674
64.20000 164.855
64.37000 164.015
64.54000 170.499
64.71000 194.063
64.88000 201.424
65.05000 232.687
65.22000 275.003
65.39000 375.996
65.56000 549.704
65.73000 1873.879
65.90000 3289.031
66.07000 714.384
66.24000 557.289
66.41000 963.985
66.58000 562.190
66.75000 472.951
66.92000 490.715
67.09000 486.728
67.26000 522.404
67.43000 535.516
67.60000 546.869
67.77000 616.407
67.94000 640.041
68.11000 690.538
68.28000 738.957
68.45000 897.648
68.62000 1315.271
68.79000 2587.463
68.96000 19465.238
69.13000 81835.656
69.30000 43790.102
69.47000 10033.977
69.64000 1287.809
69.81000 797.591
69.98000 630.120
70.00000 608.536