File: XRD/09-10-2025 Dep 8/XY Data/BTO_Mapping_Theta2Theta_09-10-2025_001_37_-39-126_-8-316.xy
20.00000 510.866
20.17000 503.070
20.34000 484.991
20.51000 493.503
20.68000 482.560
20.85000 491.996
21.02000 491.970
21.19000 488.268
21.36000 490.041
21.53000 519.463
21.70000 531.416
21.87000 731.623
22.04000 795.330
22.21000 629.628
22.38000 506.232
22.55000 485.336
22.72000 453.360
22.89000 461.385
23.06000 458.847
23.23000 438.112
23.40000 451.608
23.57000 431.137
23.74000 437.421
23.91000 426.325
24.08000 435.679
24.25000 451.477
24.42000 394.254
24.59000 422.392
24.76000 429.459
24.93000 424.505
25.10000 419.594
25.27000 424.683
25.44000 404.067
25.61000 418.607
25.78000 380.493
25.95000 408.455
26.12000 407.357
26.29000 405.218
26.46000 407.398
26.63000 397.241
26.80000 409.050
26.97000 386.440
27.14000 409.282
27.31000 373.894
27.48000 386.923
27.65000 382.495
27.82000 378.691
27.99000 392.737
28.16000 408.285
28.33000 387.970
28.50000 387.555
28.67000 385.827
28.84000 376.559
29.01000 363.446
29.18000 375.198
29.35000 371.235
29.52000 359.460
29.69000 397.773
29.86000 594.829
30.03000 601.216
30.20000 496.357
30.37000 418.383
30.54000 432.376
30.71000 477.944
30.88000 546.291
31.05000 1395.919
31.22000 6360.955
31.39000 6470.767
31.56000 1508.126
31.73000 596.865
31.90000 437.663
32.07000 386.957
32.24000 361.617
32.41000 356.135
32.58000 347.070
32.75000 344.800
32.92000 326.430
33.09000 332.594
33.26000 303.691
33.43000 323.704
33.60000 299.757
33.77000 315.299
33.94000 303.462
34.11000 295.162
34.28000 309.191
34.45000 285.823
34.62000 293.593
34.79000 279.547
34.96000 287.999
35.13000 277.790
35.30000 292.719
35.47000 274.208
35.64000 284.325
35.81000 262.573
35.98000 267.124
36.15000 278.598
36.32000 271.876
36.49000 279.373
36.66000 286.615
36.83000 281.046
37.00000 289.893
37.17000 273.444
37.34000 261.113
37.51000 275.465
37.68000 263.826
37.85000 277.741
38.02000 262.326
38.19000 298.865
38.36000 330.772
38.53000 415.082
38.70000 435.034
38.87000 341.020
39.04000 283.955
39.21000 249.496
39.38000 247.243
39.55000 248.145
39.72000 245.483
39.89000 245.547
40.06000 234.737
40.23000 237.691
40.40000 225.300
40.57000 232.645
40.74000 220.171
40.91000 218.203
41.08000 219.734
41.25000 216.899
41.42000 216.104
41.59000 216.187
41.76000 215.234
41.93000 204.910
42.10000 222.376
42.27000 207.486
42.44000 212.986
42.61000 223.243
42.78000 215.775
42.95000 217.195
43.12000 224.400
43.29000 213.727
43.46000 209.170
43.63000 207.048
43.80000 200.292
43.97000 209.583
44.14000 206.727
44.31000 223.480
44.48000 264.142
44.65000 364.644
44.82000 514.369
44.99000 496.170
45.16000 418.717
45.33000 319.949
45.50000 257.183
45.67000 225.740
45.84000 213.029
46.01000 200.084
46.18000 191.643
46.35000 191.629
46.52000 178.204
46.69000 182.139
46.86000 170.599
47.03000 168.456
47.20000 168.179
47.37000 170.070
47.54000 178.986
47.71000 164.370
47.88000 159.026
48.05000 160.826
48.22000 167.180
48.39000 163.447
48.56000 150.689
48.73000 162.168
48.90000 160.664
49.07000 163.349
49.24000 167.315
49.41000 159.592
49.58000 163.274
49.75000 161.425
49.92000 167.386
50.09000 171.727
50.26000 191.202
50.43000 231.278
50.60000 252.371
50.77000 214.707
50.94000 180.712
51.11000 164.760
51.28000 168.142
51.45000 150.762
51.62000 150.538
51.79000 144.681
51.96000 147.191
52.13000 149.244
52.30000 140.921
52.47000 145.831
52.64000 150.692
52.81000 144.266
52.98000 148.927
53.15000 157.620
53.32000 154.256
53.49000 147.634
53.66000 155.856
53.83000 150.078
54.00000 139.328
54.17000 147.727
54.34000 150.397
54.51000 150.459
54.68000 143.336
54.85000 146.496
55.02000 155.743
55.19000 168.236
55.36000 200.532
55.53000 382.856
55.70000 560.819
55.87000 452.387
56.04000 290.841
56.21000 200.660
56.38000 175.383
56.55000 151.588
56.72000 141.880
56.89000 139.570
57.06000 131.032
57.23000 124.556
57.40000 131.054
57.57000 120.771
57.74000 137.967
57.91000 134.321
58.08000 125.615
58.25000 140.611
58.42000 132.561
58.59000 131.854
58.76000 128.165
58.93000 113.716
59.10000 115.516
59.27000 118.078
59.44000 122.047
59.61000 128.880
59.78000 121.003
59.95000 129.326
60.12000 116.210
60.29000 130.584
60.46000 118.436
60.63000 113.212
60.80000 122.830
60.97000 123.166
61.14000 125.632
61.31000 133.080
61.48000 135.302
61.65000 411.299
61.82000 288.380
61.99000 151.440
62.16000 147.265
62.33000 148.184
62.50000 147.152
62.67000 143.889
62.84000 143.346
63.01000 150.708
63.18000 147.665
63.35000 149.019
63.52000 150.636
63.69000 150.677
63.86000 156.694
64.03000 159.543
64.20000 169.897
64.37000 162.130
64.54000 179.918
64.71000 192.608
64.88000 221.984
65.05000 328.448
65.22000 656.538
65.39000 754.439
65.56000 647.439
65.73000 1602.389
65.90000 3326.395
66.07000 780.600
66.24000 545.149
66.41000 937.360
66.58000 612.138
66.75000 456.037
66.92000 472.116
67.09000 482.289
67.26000 497.233
67.43000 522.565
67.60000 564.114
67.77000 581.870
67.94000 599.288
68.11000 685.269
68.28000 731.855
68.45000 842.519
68.62000 1228.428
68.79000 2476.069
68.96000 14876.359
69.13000 80311.164
69.30000 46199.750
69.47000 12758.250
69.64000 1339.221
69.81000 831.282
69.98000 617.337
70.00000 610.111