File: XRD/09-10-2025 Dep 8/XY Data/BTO_Mapping_Theta2Theta_09-10-2025_001_14_3-090_9-511.xy
20.00000 475.545
20.17000 485.502
20.34000 473.859
20.51000 488.161
20.68000 465.200
20.85000 461.567
21.02000 502.914
21.19000 472.212
21.36000 480.983
21.53000 472.104
21.70000 474.878
21.87000 530.818
22.04000 620.580
22.21000 613.458
22.38000 532.397
22.55000 467.071
22.72000 459.001
22.89000 432.187
23.06000 433.176
23.23000 426.406
23.40000 443.643
23.57000 423.111
23.74000 418.384
23.91000 430.830
24.08000 437.757
24.25000 413.956
24.42000 428.062
24.59000 418.341
24.76000 418.095
24.93000 406.644
25.10000 394.591
25.27000 400.571
25.44000 398.588
25.61000 410.133
25.78000 387.319
25.95000 403.525
26.12000 389.475
26.29000 411.260
26.46000 396.403
26.63000 377.796
26.80000 383.127
26.97000 391.636
27.14000 391.664
27.31000 383.259
27.48000 374.355
27.65000 393.940
27.82000 375.405
27.99000 379.468
28.16000 382.915
28.33000 383.497
28.50000 357.712
28.67000 361.665
28.84000 372.818
29.01000 359.556
29.18000 377.349
29.35000 364.211
29.52000 372.166
29.69000 371.449
29.86000 391.549
30.03000 467.621
30.20000 430.332
30.37000 409.348
30.54000 413.451
30.71000 401.007
30.88000 456.246
31.05000 591.081
31.22000 1502.752
31.39000 3132.834
31.56000 1983.788
31.73000 734.449
31.90000 461.667
32.07000 379.046
32.24000 348.780
32.41000 339.390
32.58000 321.352
32.75000 330.682
32.92000 328.164
33.09000 314.480
33.26000 315.596
33.43000 302.284
33.60000 285.259
33.77000 296.722
33.94000 296.166
34.11000 299.470
34.28000 281.773
34.45000 285.729
34.62000 293.491
34.79000 284.774
34.96000 286.702
35.13000 280.794
35.30000 267.557
35.47000 283.180
35.64000 264.207
35.81000 263.000
35.98000 271.885
36.15000 261.649
36.32000 276.488
36.49000 251.930
36.66000 258.618
36.83000 260.285
37.00000 278.611
37.17000 272.210
37.34000 270.013
37.51000 263.187
37.68000 250.637
37.85000 260.420
38.02000 271.921
38.19000 264.514
38.36000 303.996
38.53000 522.703
38.70000 1025.651
38.87000 797.492
39.04000 335.960
39.21000 279.221
39.38000 262.431
39.55000 234.884
39.72000 232.935
39.89000 241.459
40.06000 228.677
40.23000 233.375
40.40000 216.524
40.57000 215.434
40.74000 235.933
40.91000 216.932
41.08000 219.075
41.25000 209.930
41.42000 215.272
41.59000 222.734
41.76000 208.970
41.93000 215.302
42.10000 198.261
42.27000 214.248
42.44000 202.261
42.61000 201.968
42.78000 202.431
42.95000 206.484
43.12000 211.485
43.29000 194.154
43.46000 201.851
43.63000 191.868
43.80000 201.428
43.97000 191.773
44.14000 190.917
44.31000 202.976
44.48000 202.383
44.65000 211.016
44.82000 230.571
44.99000 277.936
45.16000 318.821
45.33000 298.700
45.50000 256.368
45.67000 221.626
45.84000 214.620
46.01000 201.742
46.18000 182.217
46.35000 177.743
46.52000 176.449
46.69000 170.767
46.86000 169.948
47.03000 169.539
47.20000 162.337
47.37000 171.821
47.54000 165.794
47.71000 160.872
47.88000 170.522
48.05000 155.796
48.22000 169.702
48.39000 168.206
48.56000 158.560
48.73000 163.321
48.90000 155.162
49.07000 153.253
49.24000 158.478
49.41000 156.523
49.58000 152.196
49.75000 158.441
49.92000 154.819
50.09000 145.246
50.26000 159.442
50.43000 173.239
50.60000 206.868
50.77000 229.439
50.94000 208.289
51.11000 170.787
51.28000 149.286
51.45000 153.795
51.62000 147.249
51.79000 145.492
51.96000 144.848
52.13000 135.946
52.30000 150.529
52.47000 138.127
52.64000 136.629
52.81000 151.240
52.98000 143.090
53.15000 139.268
53.32000 151.065
53.49000 160.646
53.66000 148.128
53.83000 142.565
54.00000 142.548
54.17000 144.162
54.34000 138.718
54.51000 141.880
54.68000 149.766
54.85000 153.350
55.02000 135.247
55.19000 156.553
55.36000 161.966
55.53000 185.240
55.70000 238.655
55.87000 460.590
56.04000 549.254
56.21000 373.265
56.38000 210.460
56.55000 171.306
56.72000 156.467
56.89000 144.034
57.06000 141.598
57.23000 130.978
57.40000 130.070
57.57000 134.930
57.74000 141.511
57.91000 123.612
58.08000 131.167
58.25000 123.465
58.42000 109.363
58.59000 132.211
58.76000 124.703
58.93000 113.266
59.10000 121.946
59.27000 113.573
59.44000 124.924
59.61000 117.883
59.78000 128.528
59.95000 118.055
60.12000 112.369
60.29000 112.654
60.46000 127.455
60.63000 116.245
60.80000 121.838
60.97000 119.474
61.14000 122.738
61.31000 132.232
61.48000 131.605
61.65000 352.342
61.82000 209.049
61.99000 133.759
62.16000 124.521
62.33000 125.753
62.50000 137.788
62.67000 146.333
62.84000 130.830
63.01000 134.589
63.18000 129.938
63.35000 129.029
63.52000 133.850
63.69000 143.092
63.86000 144.078
64.03000 141.488
64.20000 157.649
64.37000 160.391
64.54000 157.363
64.71000 162.649
64.88000 201.392
65.05000 200.302
65.22000 229.276
65.39000 343.116
65.56000 483.047
65.73000 1412.291
65.90000 2425.518
66.07000 614.400
66.24000 475.808
66.41000 765.192
66.58000 471.739
66.75000 400.642
66.92000 407.618
67.09000 433.814
67.26000 443.351
67.43000 447.283
67.60000 480.057
67.77000 504.012
67.94000 546.804
68.11000 581.166
68.28000 633.000
68.45000 727.673
68.62000 1082.062
68.79000 2018.274
68.96000 13699.604
69.13000 58356.914
69.30000 31019.439
69.47000 6986.650
69.64000 1049.211
69.81000 690.712
69.98000 541.411
70.00000 547.720