File: XRD/09-10-2025 Dep 8/XY Data/BTO_Mapping_Theta2Theta_09-10-2025_001_22_-5-000_8-660.xy
20.00000 486.298
20.17000 484.195
20.34000 487.875
20.51000 479.370
20.68000 472.484
20.85000 476.154
21.02000 493.131
21.19000 474.760
21.36000 454.553
21.53000 476.572
21.70000 496.190
21.87000 553.765
22.04000 636.802
22.21000 620.387
22.38000 519.008
22.55000 464.257
22.72000 458.563
22.89000 458.549
23.06000 440.755
23.23000 455.297
23.40000 422.305
23.57000 433.795
23.74000 435.598
23.91000 422.792
24.08000 438.488
24.25000 413.012
24.42000 403.113
24.59000 427.783
24.76000 420.115
24.93000 404.935
25.10000 414.630
25.27000 411.815
25.44000 411.973
25.61000 394.744
25.78000 397.632
25.95000 393.281
26.12000 411.167
26.29000 396.868
26.46000 395.480
26.63000 388.218
26.80000 378.844
26.97000 392.640
27.14000 377.299
27.31000 398.270
27.48000 377.119
27.65000 373.319
27.82000 352.250
27.99000 374.065
28.16000 368.791
28.33000 374.177
28.50000 386.128
28.67000 365.110
28.84000 348.921
29.01000 376.507
29.18000 352.193
29.35000 366.722
29.52000 357.725
29.69000 358.838
29.86000 394.918
30.03000 471.507
30.20000 436.497
30.37000 419.463
30.54000 396.725
30.71000 405.808
30.88000 476.975
31.05000 627.021
31.22000 1549.359
31.39000 3162.810
31.56000 1927.549
31.73000 716.712
31.90000 445.964
32.07000 392.985
32.24000 350.340
32.41000 348.044
32.58000 337.815
32.75000 324.083
32.92000 329.404
33.09000 316.128
33.26000 297.252
33.43000 307.267
33.60000 292.461
33.77000 298.941
33.94000 296.447
34.11000 304.903
34.28000 292.886
34.45000 273.577
34.62000 301.959
34.79000 281.770
34.96000 288.735
35.13000 281.816
35.30000 280.800
35.47000 284.297
35.64000 270.297
35.81000 268.615
35.98000 263.129
36.15000 255.323
36.32000 277.407
36.49000 269.378
36.66000 265.941
36.83000 274.363
37.00000 287.537
37.17000 264.954
37.34000 267.337
37.51000 260.780
37.68000 253.366
37.85000 254.982
38.02000 267.085
38.19000 285.136
38.36000 323.180
38.53000 563.553
38.70000 1070.120
38.87000 753.479
39.04000 343.822
39.21000 269.484
39.38000 256.590
39.55000 244.476
39.72000 238.151
39.89000 237.331
40.06000 240.495
40.23000 226.656
40.40000 220.174
40.57000 225.831
40.74000 217.062
40.91000 218.133
41.08000 223.505
41.25000 236.699
41.42000 215.887
41.59000 201.764
41.76000 212.629
41.93000 204.991
42.10000 213.788
42.27000 213.898
42.44000 203.169
42.61000 213.736
42.78000 194.443
42.95000 201.292
43.12000 199.568
43.29000 212.813
43.46000 194.928
43.63000 212.684
43.80000 209.694
43.97000 192.136
44.14000 200.523
44.31000 195.975
44.48000 205.354
44.65000 216.223
44.82000 239.842
44.99000 317.910
45.16000 354.518
45.33000 298.337
45.50000 251.732
45.67000 230.177
45.84000 188.838
46.01000 195.303
46.18000 189.249
46.35000 175.569
46.52000 176.766
46.69000 177.376
46.86000 158.888
47.03000 178.563
47.20000 160.934
47.37000 169.765
47.54000 170.850
47.71000 159.210
47.88000 166.789
48.05000 167.345
48.22000 161.949
48.39000 150.652
48.56000 159.579
48.73000 160.796
48.90000 162.946
49.07000 147.782
49.24000 155.917
49.41000 157.962
49.58000 159.178
49.75000 158.402
49.92000 163.460
50.09000 149.643
50.26000 153.540
50.43000 172.887
50.60000 213.174
50.77000 234.754
50.94000 199.396
51.11000 182.483
51.28000 171.138
51.45000 154.372
51.62000 141.375
51.79000 147.098
51.96000 137.033
52.13000 146.041
52.30000 149.038
52.47000 138.816
52.64000 164.417
52.81000 132.309
52.98000 142.915
53.15000 145.903
53.32000 147.095
53.49000 156.983
53.66000 143.594
53.83000 144.604
54.00000 145.182
54.17000 138.088
54.34000 144.549
54.51000 133.677
54.68000 139.361
54.85000 145.417
55.02000 133.268
55.19000 151.123
55.36000 158.503
55.53000 187.442
55.70000 262.589
55.87000 489.334
56.04000 549.814
56.21000 361.203
56.38000 225.822
56.55000 176.300
56.72000 150.727
56.89000 132.735
57.06000 135.782
57.23000 133.720
57.40000 134.469
57.57000 132.420
57.74000 126.721
57.91000 126.656
58.08000 127.853
58.25000 132.231
58.42000 130.429
58.59000 128.672
58.76000 122.251
58.93000 122.618
59.10000 117.913
59.27000 121.674
59.44000 130.767
59.61000 114.339
59.78000 112.538
59.95000 123.703
60.12000 129.363
60.29000 119.558
60.46000 124.099
60.63000 119.629
60.80000 117.546
60.97000 121.972
61.14000 119.302
61.31000 123.619
61.48000 137.257
61.65000 345.942
61.82000 218.183
61.99000 138.708
62.16000 140.870
62.33000 131.612
62.50000 132.955
62.67000 137.178
62.84000 139.276
63.01000 134.845
63.18000 138.459
63.35000 147.516
63.52000 143.501
63.69000 142.932
63.86000 144.088
64.03000 155.860
64.20000 159.723
64.37000 163.523
64.54000 167.603
64.71000 181.157
64.88000 195.137
65.05000 210.973
65.22000 259.060
65.39000 345.183
65.56000 510.599
65.73000 1565.109
65.90000 2720.157
66.07000 640.507
66.24000 483.417
66.41000 819.912
66.58000 515.174
66.75000 407.585
66.92000 416.277
67.09000 437.664
67.26000 469.190
67.43000 484.320
67.60000 514.174
67.77000 539.171
67.94000 563.895
68.11000 626.760
68.28000 666.202
68.45000 774.307
68.62000 1162.860
68.79000 2182.729
68.96000 15856.593
69.13000 66220.508
69.30000 35138.059
69.47000 7918.893
69.64000 1110.072
69.81000 742.207
69.98000 582.258
70.00000 566.068