File: XRD/09-10-2025 Dep 8/XY Data/BTO_Mapping_Theta2Theta_09-10-2025_001_20_-3-136_29-836.xy
20.00000 493.179
20.17000 476.276
20.34000 459.282
20.51000 485.349
20.68000 469.814
20.85000 487.897
21.02000 469.077
21.19000 484.224
21.36000 463.259
21.53000 455.889
21.70000 460.566
21.87000 522.818
22.04000 595.309
22.21000 593.563
22.38000 526.691
22.55000 485.973
22.72000 451.220
22.89000 452.275
23.06000 437.918
23.23000 430.755
23.40000 435.634
23.57000 438.794
23.74000 431.715
23.91000 438.775
24.08000 412.547
24.25000 424.955
24.42000 417.310
24.59000 408.702
24.76000 406.641
24.93000 413.531
25.10000 407.642
25.27000 401.038
25.44000 399.930
25.61000 404.255
25.78000 400.039
25.95000 405.112
26.12000 416.463
26.29000 375.523
26.46000 394.172
26.63000 381.663
26.80000 394.501
26.97000 394.208
27.14000 388.276
27.31000 371.411
27.48000 379.122
27.65000 372.013
27.82000 371.834
27.99000 381.114
28.16000 365.146
28.33000 385.320
28.50000 370.474
28.67000 376.124
28.84000 353.824
29.01000 375.722
29.18000 347.155
29.35000 368.736
29.52000 364.045
29.69000 369.304
29.86000 397.145
30.03000 457.383
30.20000 437.927
30.37000 398.384
30.54000 399.831
30.71000 393.921
30.88000 435.476
31.05000 529.473
31.22000 1183.461
31.39000 2720.900
31.56000 2033.598
31.73000 800.989
31.90000 438.612
32.07000 376.959
32.24000 351.912
32.41000 344.466
32.58000 343.099
32.75000 327.493
32.92000 315.853
33.09000 292.988
33.26000 301.727
33.43000 297.322
33.60000 291.126
33.77000 285.498
33.94000 289.329
34.11000 278.419
34.28000 282.221
34.45000 274.949
34.62000 277.527
34.79000 286.534
34.96000 279.642
35.13000 292.324
35.30000 270.312
35.47000 279.138
35.64000 258.772
35.81000 259.257
35.98000 268.248
36.15000 251.297
36.32000 236.061
36.49000 249.995
36.66000 261.617
36.83000 264.841
37.00000 298.107
37.17000 276.196
37.34000 252.382
37.51000 256.747
37.68000 256.307
37.85000 262.994
38.02000 266.315
38.19000 270.250
38.36000 305.848
38.53000 473.484
38.70000 1031.364
38.87000 916.910
39.04000 392.500
39.21000 287.763
39.38000 254.116
39.55000 227.875
39.72000 238.922
39.89000 230.039
40.06000 231.280
40.23000 226.176
40.40000 216.618
40.57000 223.583
40.74000 218.693
40.91000 235.071
41.08000 211.119
41.25000 218.527
41.42000 213.802
41.59000 204.603
41.76000 210.375
41.93000 215.499
42.10000 221.092
42.27000 198.822
42.44000 210.328
42.61000 186.425
42.78000 191.113
42.95000 208.955
43.12000 194.036
43.29000 195.098
43.46000 203.867
43.63000 175.586
43.80000 196.281
43.97000 201.191
44.14000 202.877
44.31000 200.224
44.48000 196.945
44.65000 195.846
44.82000 219.094
44.99000 262.270
45.16000 296.499
45.33000 273.305
45.50000 245.726
45.67000 224.255
45.84000 208.166
46.01000 207.564
46.18000 194.290
46.35000 185.857
46.52000 174.323
46.69000 178.968
46.86000 179.311
47.03000 157.963
47.20000 171.126
47.37000 165.837
47.54000 167.405
47.71000 149.647
47.88000 158.321
48.05000 158.774
48.22000 159.841
48.39000 162.835
48.56000 169.186
48.73000 155.610
48.90000 154.210
49.07000 166.841
49.24000 160.329
49.41000 157.582
49.58000 155.710
49.75000 164.910
49.92000 165.000
50.09000 160.976
50.26000 141.311
50.43000 166.621
50.60000 190.797
50.77000 230.769
50.94000 197.476
51.11000 178.709
51.28000 156.612
51.45000 154.777
51.62000 148.112
51.79000 143.368
51.96000 136.062
52.13000 139.304
52.30000 137.915
52.47000 138.032
52.64000 146.245
52.81000 142.883
52.98000 137.085
53.15000 143.223
53.32000 133.114
53.49000 155.046
53.66000 147.373
53.83000 149.888
54.00000 131.564
54.17000 133.002
54.34000 143.423
54.51000 134.850
54.68000 144.452
54.85000 131.962
55.02000 142.816
55.19000 152.731
55.36000 143.333
55.53000 167.381
55.70000 225.952
55.87000 412.258
56.04000 545.832
56.21000 400.089
56.38000 244.913
56.55000 174.329
56.72000 161.610
56.89000 142.813
57.06000 133.478
57.23000 142.210
57.40000 123.470
57.57000 123.458
57.74000 129.565
57.91000 129.608
58.08000 124.988
58.25000 131.046
58.42000 123.723
58.59000 120.111
58.76000 129.247
58.93000 113.806
59.10000 121.037
59.27000 114.095
59.44000 117.006
59.61000 111.290
59.78000 121.022
59.95000 115.599
60.12000 124.062
60.29000 127.295
60.46000 109.207
60.63000 109.075
60.80000 113.840
60.97000 113.321
61.14000 125.993
61.31000 124.684
61.48000 124.226
61.65000 312.745
61.82000 207.418
61.99000 128.456
62.16000 130.505
62.33000 126.816
62.50000 136.562
62.67000 132.518
62.84000 143.092
63.01000 134.600
63.18000 133.455
63.35000 132.629
63.52000 127.504
63.69000 145.274
63.86000 149.490
64.03000 144.300
64.20000 161.252
64.37000 161.041
64.54000 169.086
64.71000 178.687
64.88000 185.950
65.05000 202.218
65.22000 216.531
65.39000 296.955
65.56000 451.049
65.73000 1367.228
65.90000 2468.797
66.07000 604.175
66.24000 461.907
66.41000 736.565
66.58000 475.656
66.75000 375.348
66.92000 407.634
67.09000 407.831
67.26000 453.697
67.43000 469.623
67.60000 471.260
67.77000 489.469
67.94000 552.594
68.11000 595.535
68.28000 635.269
68.45000 739.330
68.62000 1058.275
68.79000 2010.915
68.96000 12442.852
69.13000 58228.203
69.30000 31794.531
69.47000 7765.133
69.64000 1090.981
69.81000 692.585
69.98000 551.040
70.00000 529.450