File: XRD/09-10-2025 Dep 8/XY Data/BTO_Mapping_Theta2Theta_09-10-2025_001_61_36-542_-16-269.xy
20.00000 485.234
20.17000 475.403
20.34000 475.822
20.51000 480.688
20.68000 477.344
20.85000 488.904
21.02000 460.371
21.19000 463.105
21.36000 472.547
21.53000 482.173
21.70000 479.997
21.87000 503.606
22.04000 567.004
22.21000 556.807
22.38000 520.236
22.55000 471.828
22.72000 465.496
22.89000 438.747
23.06000 456.285
23.23000 457.466
23.40000 443.685
23.57000 438.851
23.74000 435.914
23.91000 462.482
24.08000 462.342
24.25000 454.481
24.42000 410.900
24.59000 412.288
24.76000 413.063
24.93000 402.643
25.10000 396.305
25.27000 397.502
25.44000 396.637
25.61000 397.536
25.78000 394.138
25.95000 401.745
26.12000 394.887
26.29000 397.349
26.46000 396.004
26.63000 383.960
26.80000 388.538
26.97000 396.108
27.14000 376.419
27.31000 385.816
27.48000 372.825
27.65000 372.052
27.82000 377.424
27.99000 353.530
28.16000 357.704
28.33000 364.504
28.50000 359.350
28.67000 362.402
28.84000 365.017
29.01000 370.698
29.18000 355.669
29.35000 350.802
29.52000 347.359
29.69000 361.285
29.86000 378.087
30.03000 380.919
30.20000 395.845
30.37000 394.781
30.54000 362.276
30.71000 380.784
30.88000 393.487
31.05000 462.419
31.22000 825.887
31.39000 1669.526
31.56000 1436.087
31.73000 667.522
31.90000 417.424
32.07000 352.905
32.24000 319.433
32.41000 324.315
32.58000 325.695
32.75000 314.161
32.92000 323.547
33.09000 309.530
33.26000 299.586
33.43000 294.474
33.60000 297.430
33.77000 295.155
33.94000 286.473
34.11000 294.991
34.28000 296.738
34.45000 288.349
34.62000 274.807
34.79000 276.055
34.96000 269.478
35.13000 261.830
35.30000 277.653
35.47000 265.284
35.64000 261.981
35.81000 259.962
35.98000 250.135
36.15000 253.066
36.32000 250.297
36.49000 278.636
36.66000 254.557
36.83000 258.743
37.00000 282.969
37.17000 289.615
37.34000 262.529
37.51000 258.327
37.68000 251.528
37.85000 249.821
38.02000 262.048
38.19000 267.687
38.36000 281.113
38.53000 402.979
38.70000 916.827
38.87000 937.490
39.04000 412.084
39.21000 282.742
39.38000 247.907
39.55000 224.718
39.72000 225.027
39.89000 235.419
40.06000 224.969
40.23000 228.515
40.40000 215.300
40.57000 225.749
40.74000 210.695
40.91000 214.453
41.08000 215.200
41.25000 223.015
41.42000 215.177
41.59000 214.665
41.76000 210.142
41.93000 213.030
42.10000 210.662
42.27000 212.602
42.44000 208.363
42.61000 209.493
42.78000 204.958
42.95000 204.086
43.12000 189.057
43.29000 194.836
43.46000 197.537
43.63000 193.399
43.80000 191.709
43.97000 191.395
44.14000 197.809
44.31000 186.040
44.48000 194.516
44.65000 210.349
44.82000 202.922
44.99000 233.158
45.16000 260.528
45.33000 251.053
45.50000 241.549
45.67000 218.599
45.84000 201.348
46.01000 188.937
46.18000 192.189
46.35000 178.748
46.52000 169.632
46.69000 157.520
46.86000 166.221
47.03000 184.092
47.20000 179.597
47.37000 168.945
47.54000 162.223
47.71000 165.546
47.88000 149.696
48.05000 152.736
48.22000 157.987
48.39000 179.225
48.56000 147.686
48.73000 162.651
48.90000 158.361
49.07000 162.891
49.24000 150.581
49.41000 163.726
49.58000 151.683
49.75000 155.416
49.92000 154.245
50.09000 156.359
50.26000 147.192
50.43000 156.090
50.60000 180.599
50.77000 206.352
50.94000 191.722
51.11000 167.170
51.28000 163.874
51.45000 139.997
51.62000 155.549
51.79000 140.715
51.96000 144.639
52.13000 140.778
52.30000 137.564
52.47000 127.642
52.64000 138.825
52.81000 154.202
52.98000 138.797
53.15000 135.406
53.32000 156.188
53.49000 156.811
53.66000 147.597
53.83000 139.691
54.00000 122.143
54.17000 144.327
54.34000 135.341
54.51000 139.516
54.68000 134.188
54.85000 135.513
55.02000 139.680
55.19000 152.321
55.36000 144.831
55.53000 165.623
55.70000 220.646
55.87000 389.784
56.04000 586.793
56.21000 474.117
56.38000 271.584
56.55000 175.539
56.72000 151.103
56.89000 128.137
57.06000 130.268
57.23000 135.072
57.40000 124.581
57.57000 120.048
57.74000 123.602
57.91000 122.831
58.08000 125.616
58.25000 113.670
58.42000 131.003
58.59000 129.807
58.76000 126.311
58.93000 122.779
59.10000 114.915
59.27000 113.822
59.44000 119.077
59.61000 116.420
59.78000 119.086
59.95000 127.001
60.12000 117.628
60.29000 121.298
60.46000 120.984
60.63000 108.797
60.80000 122.524
60.97000 122.301
61.14000 118.934
61.31000 124.366
61.48000 128.508
61.65000 292.684
61.82000 192.162
61.99000 127.812
62.16000 132.252
62.33000 124.681
62.50000 130.088
62.67000 136.332
62.84000 122.557
63.01000 132.105
63.18000 137.529
63.35000 138.637
63.52000 134.912
63.69000 133.001
63.86000 145.666
64.03000 156.076
64.20000 152.298
64.37000 157.793
64.54000 165.716
64.71000 154.443
64.88000 187.252
65.05000 185.624
65.22000 212.246
65.39000 266.037
65.56000 352.575
65.73000 1094.890
65.90000 2002.357
66.07000 510.201
66.24000 407.944
66.41000 663.297
66.58000 428.741
66.75000 349.094
66.92000 360.513
67.09000 379.382
67.26000 389.035
67.43000 405.153
67.60000 469.041
67.77000 475.729
67.94000 497.541
68.11000 523.524
68.28000 616.615
68.45000 678.117
68.62000 960.734
68.79000 1756.033
68.96000 10545.064
69.13000 48010.297
69.30000 26168.420
69.47000 6287.310
69.64000 987.483
69.81000 647.645
69.98000 525.029
70.00000 513.249