File: XRD/09-10-2025 Dep 8/XY Data/BTO_Mapping_Theta2Theta_09-10-2025_001_60_27-406_-12-202.xy
20.00000 484.247
20.17000 460.880
20.34000 483.106
20.51000 475.804
20.68000 478.330
20.85000 466.144
21.02000 481.721
21.19000 480.792
21.36000 496.100
21.53000 475.229
21.70000 483.325
21.87000 516.025
22.04000 571.029
22.21000 579.158
22.38000 530.778
22.55000 466.782
22.72000 426.904
22.89000 451.408
23.06000 451.553
23.23000 418.603
23.40000 417.621
23.57000 431.507
23.74000 446.662
23.91000 457.594
24.08000 423.521
24.25000 434.015
24.42000 397.013
24.59000 410.164
24.76000 442.466
24.93000 430.029
25.10000 418.381
25.27000 409.234
25.44000 397.172
25.61000 407.623
25.78000 410.399
25.95000 402.609
26.12000 397.759
26.29000 404.238
26.46000 393.405
26.63000 394.656
26.80000 403.405
26.97000 394.087
27.14000 388.976
27.31000 377.737
27.48000 373.391
27.65000 389.736
27.82000 383.705
27.99000 363.447
28.16000 381.903
28.33000 378.781
28.50000 381.923
28.67000 364.776
28.84000 373.070
29.01000 356.320
29.18000 351.119
29.35000 365.230
29.52000 351.553
29.69000 352.576
29.86000 386.781
30.03000 429.211
30.20000 392.523
30.37000 396.804
30.54000 385.813
30.71000 398.741
30.88000 419.861
31.05000 504.629
31.22000 1078.084
31.39000 2211.813
31.56000 1685.111
31.73000 724.178
31.90000 453.116
32.07000 384.926
32.24000 346.886
32.41000 350.469
32.58000 318.420
32.75000 307.329
32.92000 324.456
33.09000 314.116
33.26000 282.636
33.43000 298.886
33.60000 283.010
33.77000 300.446
33.94000 287.246
34.11000 296.317
34.28000 300.074
34.45000 292.961
34.62000 289.403
34.79000 266.232
34.96000 276.470
35.13000 279.720
35.30000 276.062
35.47000 270.859
35.64000 259.876
35.81000 263.092
35.98000 263.221
36.15000 268.866
36.32000 267.093
36.49000 265.393
36.66000 267.496
36.83000 269.576
37.00000 273.565
37.17000 277.700
37.34000 258.274
37.51000 258.295
37.68000 252.076
37.85000 266.921
38.02000 249.289
38.19000 277.661
38.36000 292.819
38.53000 459.405
38.70000 971.398
38.87000 924.424
39.04000 377.374
39.21000 253.171
39.38000 253.905
39.55000 239.388
39.72000 237.283
39.89000 223.588
40.06000 231.066
40.23000 227.373
40.40000 229.194
40.57000 226.679
40.74000 229.462
40.91000 215.371
41.08000 216.529
41.25000 213.241
41.42000 225.251
41.59000 215.394
41.76000 196.955
41.93000 208.414
42.10000 213.293
42.27000 214.918
42.44000 208.647
42.61000 199.434
42.78000 202.377
42.95000 201.147
43.12000 206.400
43.29000 208.961
43.46000 200.717
43.63000 192.536
43.80000 199.715
43.97000 195.869
44.14000 200.083
44.31000 200.916
44.48000 191.199
44.65000 198.319
44.82000 230.289
44.99000 234.772
45.16000 286.147
45.33000 275.578
45.50000 239.981
45.67000 233.497
45.84000 216.381
46.01000 196.270
46.18000 182.137
46.35000 169.357
46.52000 168.262
46.69000 161.620
46.86000 174.923
47.03000 172.952
47.20000 159.739
47.37000 162.194
47.54000 178.962
47.71000 165.870
47.88000 168.756
48.05000 154.389
48.22000 155.823
48.39000 160.783
48.56000 162.345
48.73000 160.527
48.90000 164.993
49.07000 155.293
49.24000 150.756
49.41000 159.707
49.58000 150.714
49.75000 142.581
49.92000 156.611
50.09000 150.515
50.26000 160.699
50.43000 169.074
50.60000 187.325
50.77000 221.286
50.94000 200.965
51.11000 160.042
51.28000 152.742
51.45000 136.338
51.62000 144.345
51.79000 137.670
51.96000 144.549
52.13000 146.533
52.30000 133.767
52.47000 141.187
52.64000 146.243
52.81000 146.600
52.98000 140.986
53.15000 153.628
53.32000 148.641
53.49000 140.719
53.66000 141.022
53.83000 143.802
54.00000 152.102
54.17000 135.021
54.34000 133.157
54.51000 131.274
54.68000 129.539
54.85000 134.392
55.02000 144.819
55.19000 144.233
55.36000 142.203
55.53000 160.487
55.70000 215.188
55.87000 407.658
56.04000 577.328
56.21000 403.691
56.38000 248.326
56.55000 181.362
56.72000 141.512
56.89000 146.917
57.06000 141.821
57.23000 139.075
57.40000 127.011
57.57000 132.234
57.74000 122.291
57.91000 125.733
58.08000 117.904
58.25000 122.520
58.42000 119.249
58.59000 119.712
58.76000 123.519
58.93000 108.249
59.10000 121.439
59.27000 119.978
59.44000 114.336
59.61000 128.352
59.78000 116.249
59.95000 122.663
60.12000 122.587
60.29000 116.247
60.46000 121.461
60.63000 109.837
60.80000 120.215
60.97000 120.947
61.14000 121.599
61.31000 120.558
61.48000 137.330
61.65000 305.727
61.82000 211.239
61.99000 131.718
62.16000 127.595
62.33000 134.883
62.50000 134.706
62.67000 142.127
62.84000 132.840
63.01000 135.421
63.18000 144.140
63.35000 149.489
63.52000 135.650
63.69000 143.760
63.86000 137.639
64.03000 150.786
64.20000 160.543
64.37000 146.619
64.54000 164.983
64.71000 179.603
64.88000 179.491
65.05000 199.822
65.22000 216.463
65.39000 288.895
65.56000 414.545
65.73000 1265.687
65.90000 2157.665
66.07000 573.620
66.24000 455.954
66.41000 694.120
66.58000 434.408
66.75000 388.781
66.92000 375.797
67.09000 399.347
67.26000 420.755
67.43000 470.341
67.60000 465.259
67.77000 491.096
67.94000 529.749
68.11000 551.802
68.28000 624.962
68.45000 719.507
68.62000 1026.071
68.79000 1871.884
68.96000 12005.975
69.13000 53038.508
69.30000 28614.914
69.47000 6600.750
69.64000 1039.973
69.81000 661.627
69.98000 544.743
70.00000 533.138