File: XRD/09-10-2025 Dep 8/XY Data/BTO_Mapping_Theta2Theta_09-10-2025_001_05_40-000_0-000.xy
20.00000 484.286
20.17000 496.871
20.34000 466.015
20.51000 487.160
20.68000 471.811
20.85000 473.392
21.02000 481.940
21.19000 483.763
21.36000 467.770
21.53000 469.122
21.70000 481.975
21.87000 517.817
22.04000 558.658
22.21000 565.767
22.38000 516.832
22.55000 483.865
22.72000 438.008
22.89000 456.678
23.06000 474.256
23.23000 430.818
23.40000 434.032
23.57000 439.578
23.74000 446.468
23.91000 469.622
24.08000 466.240
24.25000 445.376
24.42000 432.643
24.59000 416.973
24.76000 418.969
24.93000 427.925
25.10000 411.864
25.27000 408.835
25.44000 404.767
25.61000 393.882
25.78000 387.210
25.95000 399.377
26.12000 379.281
26.29000 383.508
26.46000 398.480
26.63000 378.388
26.80000 388.086
26.97000 375.138
27.14000 393.452
27.31000 385.152
27.48000 376.127
27.65000 366.663
27.82000 362.896
27.99000 369.590
28.16000 385.323
28.33000 367.407
28.50000 361.163
28.67000 374.370
28.84000 348.957
29.01000 361.838
29.18000 367.930
29.35000 364.015
29.52000 352.135
29.69000 363.207
29.86000 367.681
30.03000 412.901
30.20000 395.366
30.37000 388.213
30.54000 367.143
30.71000 379.971
30.88000 391.841
31.05000 462.052
31.22000 808.227
31.39000 1593.048
31.56000 1411.261
31.73000 667.130
31.90000 435.865
32.07000 354.844
32.24000 347.348
32.41000 336.986
32.58000 320.354
32.75000 323.858
32.92000 306.675
33.09000 300.582
33.26000 287.111
33.43000 289.282
33.60000 292.125
33.77000 287.319
33.94000 290.303
34.11000 289.611
34.28000 288.448
34.45000 285.391
34.62000 293.755
34.79000 287.907
34.96000 270.243
35.13000 275.951
35.30000 268.057
35.47000 272.782
35.64000 268.304
35.81000 260.412
35.98000 269.024
36.15000 267.082
36.32000 255.747
36.49000 264.076
36.66000 258.870
36.83000 257.685
37.00000 280.239
37.17000 274.448
37.34000 264.211
37.51000 264.995
37.68000 248.849
37.85000 249.375
38.02000 257.538
38.19000 270.228
38.36000 262.249
38.53000 360.287
38.70000 793.996
38.87000 847.179
39.04000 386.998
39.21000 285.591
39.38000 246.137
39.55000 252.228
39.72000 236.026
39.89000 224.336
40.06000 227.142
40.23000 225.833
40.40000 219.187
40.57000 216.080
40.74000 211.006
40.91000 196.360
41.08000 224.482
41.25000 212.413
41.42000 214.710
41.59000 205.789
41.76000 205.141
41.93000 210.502
42.10000 212.633
42.27000 223.213
42.44000 203.817
42.61000 197.731
42.78000 202.684
42.95000 208.404
43.12000 193.482
43.29000 203.474
43.46000 190.961
43.63000 189.149
43.80000 199.439
43.97000 195.513
44.14000 197.315
44.31000 203.320
44.48000 194.355
44.65000 205.868
44.82000 211.877
44.99000 250.123
45.16000 250.078
45.33000 254.894
45.50000 232.800
45.67000 227.677
45.84000 214.646
46.01000 187.481
46.18000 193.896
46.35000 191.019
46.52000 171.627
46.69000 188.906
46.86000 167.350
47.03000 175.544
47.20000 163.274
47.37000 165.368
47.54000 159.008
47.71000 161.781
47.88000 172.788
48.05000 153.341
48.22000 150.024
48.39000 167.440
48.56000 168.788
48.73000 159.659
48.90000 163.143
49.07000 160.796
49.24000 162.644
49.41000 151.758
49.58000 159.631
49.75000 153.190
49.92000 152.089
50.09000 148.019
50.26000 163.597
50.43000 156.116
50.60000 181.584
50.77000 195.631
50.94000 187.538
51.11000 173.565
51.28000 169.704
51.45000 149.383
51.62000 143.479
51.79000 141.280
51.96000 135.517
52.13000 139.911
52.30000 136.988
52.47000 145.079
52.64000 142.067
52.81000 125.806
52.98000 140.125
53.15000 135.585
53.32000 150.083
53.49000 151.447
53.66000 146.214
53.83000 136.608
54.00000 136.672
54.17000 147.349
54.34000 135.781
54.51000 132.758
54.68000 136.199
54.85000 150.730
55.02000 137.145
55.19000 148.736
55.36000 150.876
55.53000 161.832
55.70000 233.357
55.87000 364.393
56.04000 559.385
56.21000 489.436
56.38000 274.689
56.55000 173.200
56.72000 146.680
56.89000 135.082
57.06000 133.433
57.23000 133.124
57.40000 129.027
57.57000 126.937
57.74000 130.887
57.91000 125.271
58.08000 123.642
58.25000 138.347
58.42000 129.141
58.59000 125.078
58.76000 126.973
58.93000 119.930
59.10000 115.934
59.27000 116.846
59.44000 116.469
59.61000 115.061
59.78000 117.265
59.95000 113.871
60.12000 118.271
60.29000 113.836
60.46000 116.579
60.63000 122.465
60.80000 117.906
60.97000 119.151
61.14000 120.994
61.31000 124.502
61.48000 131.478
61.65000 298.821
61.82000 199.673
61.99000 132.067
62.16000 117.682
62.33000 126.755
62.50000 133.497
62.67000 133.028
62.84000 125.558
63.01000 148.428
63.18000 130.991
63.35000 146.202
63.52000 136.706
63.69000 143.586
63.86000 147.558
64.03000 146.666
64.20000 155.042
64.37000 157.162
64.54000 164.681
64.71000 160.880
64.88000 168.853
65.05000 195.188
65.22000 212.436
65.39000 258.905
65.56000 351.710
65.73000 1090.032
65.90000 1993.652
66.07000 523.897
66.24000 407.485
66.41000 623.239
66.58000 420.747
66.75000 373.642
66.92000 370.897
67.09000 398.074
67.26000 404.207
67.43000 439.777
67.60000 429.867
67.77000 491.742
67.94000 500.544
68.11000 542.518
68.28000 598.421
68.45000 670.984
68.62000 963.009
68.79000 1693.365
68.96000 10587.410
69.13000 47395.027
69.30000 25376.795
69.47000 5918.619
69.64000 974.155
69.81000 658.498
69.98000 524.479
70.00000 508.359