File: XRD/09-10-2025 Dep 8/XY Data/BTO_Mapping_Theta2Theta_09-10-2025_001_01_0-000_0-000.xy
20.00000 501.925
20.17000 484.198
20.34000 490.569
20.51000 483.660
20.68000 469.595
20.85000 489.390
21.02000 475.920
21.19000 486.381
21.36000 490.243
21.53000 513.930
21.70000 485.933
21.87000 547.555
22.04000 655.248
22.21000 614.945
22.38000 528.447
22.55000 480.617
22.72000 478.193
22.89000 447.751
23.06000 449.096
23.23000 443.851
23.40000 440.291
23.57000 440.173
23.74000 440.399
23.91000 420.484
24.08000 429.776
24.25000 431.859
24.42000 407.594
24.59000 420.758
24.76000 414.105
24.93000 419.791
25.10000 421.751
25.27000 407.944
25.44000 396.359
25.61000 411.755
25.78000 398.221
25.95000 387.555
26.12000 390.589
26.29000 407.282
26.46000 389.538
26.63000 405.482
26.80000 392.859
26.97000 392.980
27.14000 377.650
27.31000 369.228
27.48000 369.701
27.65000 370.196
27.82000 379.478
27.99000 373.961
28.16000 383.991
28.33000 382.629
28.50000 372.366
28.67000 364.654
28.84000 369.232
29.01000 363.424
29.18000 360.134
29.35000 366.733
29.52000 357.872
29.69000 374.066
29.86000 410.440
30.03000 468.123
30.20000 443.544
30.37000 414.995
30.54000 403.427
30.71000 416.563
30.88000 461.452
31.05000 643.920
31.22000 1660.251
31.39000 3238.567
31.56000 1850.505
31.73000 722.617
31.90000 464.341
32.07000 371.516
32.24000 346.996
32.41000 349.049
32.58000 337.827
32.75000 337.153
32.92000 328.117
33.09000 302.261
33.26000 304.906
33.43000 314.800
33.60000 289.124
33.77000 297.840
33.94000 302.477
34.11000 290.933
34.28000 285.481
34.45000 287.840
34.62000 305.165
34.79000 275.769
34.96000 280.744
35.13000 276.546
35.30000 263.005
35.47000 278.050
35.64000 276.103
35.81000 265.607
35.98000 267.604
36.15000 265.216
36.32000 269.600
36.49000 244.901
36.66000 267.799
36.83000 282.130
37.00000 291.239
37.17000 273.693
37.34000 272.249
37.51000 267.367
37.68000 263.398
37.85000 264.232
38.02000 280.454
38.19000 290.382
38.36000 328.026
38.53000 579.084
38.70000 1074.978
38.87000 722.294
39.04000 335.792
39.21000 260.953
39.38000 253.939
39.55000 247.085
39.72000 225.599
39.89000 235.508
40.06000 237.704
40.23000 224.211
40.40000 221.716
40.57000 237.113
40.74000 211.501
40.91000 203.821
41.08000 206.879
41.25000 213.763
41.42000 210.989
41.59000 206.484
41.76000 219.761
41.93000 225.399
42.10000 209.503
42.27000 197.170
42.44000 204.039
42.61000 213.895
42.78000 204.446
42.95000 200.463
43.12000 199.328
43.29000 208.308
43.46000 185.299
43.63000 201.860
43.80000 195.997
43.97000 189.850
44.14000 184.226
44.31000 191.163
44.48000 199.944
44.65000 218.624
44.82000 254.464
44.99000 313.729
45.16000 345.264
45.33000 321.980
45.50000 257.732
45.67000 216.638
45.84000 210.345
46.01000 187.245
46.18000 190.017
46.35000 183.440
46.52000 182.242
46.69000 166.133
46.86000 184.236
47.03000 174.897
47.20000 171.802
47.37000 162.308
47.54000 159.410
47.71000 166.242
47.88000 151.838
48.05000 164.050
48.22000 176.005
48.39000 164.879
48.56000 152.902
48.73000 156.689
48.90000 159.360
49.07000 153.610
49.24000 144.526
49.41000 159.970
49.58000 145.976
49.75000 149.842
49.92000 167.948
50.09000 145.944
50.26000 168.020
50.43000 167.717
50.60000 214.140
50.77000 230.270
50.94000 224.839
51.11000 176.709
51.28000 156.494
51.45000 150.999
51.62000 142.226
51.79000 147.039
51.96000 147.095
52.13000 138.646
52.30000 143.280
52.47000 143.453
52.64000 151.216
52.81000 133.285
52.98000 128.277
53.15000 137.193
53.32000 151.196
53.49000 151.305
53.66000 146.402
53.83000 150.338
54.00000 147.187
54.17000 138.700
54.34000 142.016
54.51000 131.958
54.68000 133.503
54.85000 146.545
55.02000 134.559
55.19000 145.029
55.36000 156.657
55.53000 185.559
55.70000 260.019
55.87000 472.881
56.04000 558.057
56.21000 350.393
56.38000 222.339
56.55000 173.060
56.72000 152.286
56.89000 136.628
57.06000 142.516
57.23000 132.855
57.40000 118.448
57.57000 128.285
57.74000 121.813
57.91000 127.263
58.08000 119.788
58.25000 124.435
58.42000 120.231
58.59000 114.912
58.76000 123.525
58.93000 126.843
59.10000 124.588
59.27000 116.639
59.44000 114.076
59.61000 124.153
59.78000 118.484
59.95000 111.241
60.12000 121.198
60.29000 113.975
60.46000 127.236
60.63000 122.279
60.80000 127.843
60.97000 117.518
61.14000 121.779
61.31000 125.706
61.48000 144.496
61.65000 361.722
61.82000 201.877
61.99000 131.671
62.16000 132.705
62.33000 137.107
62.50000 134.341
62.67000 136.082
62.84000 143.096
63.01000 138.063
63.18000 134.085
63.35000 138.709
63.52000 141.560
63.69000 148.775
63.86000 143.411
64.03000 148.874
64.20000 162.841
64.37000 163.726
64.54000 173.273
64.71000 183.861
64.88000 193.131
65.05000 215.845
65.22000 244.140
65.39000 337.061
65.56000 525.373
65.73000 1584.873
65.90000 2594.954
66.07000 599.940
66.24000 494.526
66.41000 778.674
66.58000 496.735
66.75000 415.985
66.92000 432.093
67.09000 434.105
67.26000 462.774
67.43000 494.562
67.60000 490.033
67.77000 522.535
67.94000 574.282
68.11000 616.717
68.28000 642.577
68.45000 778.961
68.62000 1154.252
68.79000 2236.955
68.96000 16777.305
69.13000 64722.816
69.30000 33865.934
69.47000 7007.340
69.64000 1102.835
69.81000 703.396
69.98000 588.379
70.00000 575.029