File: XRD/09-10-2025 Dep 8/XY Data/BTO_Mapping_Theta2Theta_09-10-2025_001_04_30-000_0-000.xy
20.00000 496.427
20.17000 497.260
20.34000 488.498
20.51000 485.910
20.68000 482.586
20.85000 485.561
21.02000 479.879
21.19000 448.481
21.36000 468.423
21.53000 477.830
21.70000 466.425
21.87000 504.499
22.04000 580.732
22.21000 591.646
22.38000 523.021
22.55000 475.611
22.72000 462.919
22.89000 447.011
23.06000 447.851
23.23000 455.979
23.40000 438.030
23.57000 440.945
23.74000 455.094
23.91000 462.482
24.08000 455.180
24.25000 455.079
24.42000 415.431
24.59000 437.793
24.76000 411.745
24.93000 406.817
25.10000 401.670
25.27000 400.655
25.44000 409.410
25.61000 411.155
25.78000 409.518
25.95000 396.396
26.12000 395.386
26.29000 407.947
26.46000 397.675
26.63000 412.409
26.80000 390.801
26.97000 376.035
27.14000 371.427
27.31000 380.499
27.48000 371.283
27.65000 380.936
27.82000 366.821
27.99000 357.815
28.16000 366.409
28.33000 364.802
28.50000 360.103
28.67000 347.176
28.84000 343.648
29.01000 354.188
29.18000 350.050
29.35000 350.292
29.52000 355.383
29.69000 352.079
29.86000 370.891
30.03000 407.484
30.20000 405.943
30.37000 391.570
30.54000 393.365
30.71000 383.905
30.88000 419.156
31.05000 483.030
31.22000 949.047
31.39000 1999.917
31.56000 1625.902
31.73000 692.868
31.90000 446.749
32.07000 353.908
32.24000 339.707
32.41000 322.256
32.58000 314.628
32.75000 318.070
32.92000 317.362
33.09000 297.324
33.26000 303.572
33.43000 299.496
33.60000 293.085
33.77000 287.125
33.94000 288.658
34.11000 278.997
34.28000 299.329
34.45000 287.811
34.62000 280.914
34.79000 279.381
34.96000 292.166
35.13000 273.003
35.30000 271.897
35.47000 271.062
35.64000 273.679
35.81000 258.929
35.98000 266.521
36.15000 277.111
36.32000 258.975
36.49000 259.777
36.66000 269.892
36.83000 260.768
37.00000 280.923
37.17000 273.055
37.34000 253.173
37.51000 241.405
37.68000 253.371
37.85000 254.824
38.02000 260.692
38.19000 259.914
38.36000 286.280
38.53000 388.505
38.70000 870.511
38.87000 833.218
39.04000 363.316
39.21000 251.349
39.38000 239.510
39.55000 228.611
39.72000 228.024
39.89000 228.374
40.06000 231.742
40.23000 224.154
40.40000 217.265
40.57000 226.516
40.74000 213.878
40.91000 207.169
41.08000 221.824
41.25000 217.798
41.42000 221.363
41.59000 199.140
41.76000 208.358
41.93000 209.059
42.10000 185.600
42.27000 196.929
42.44000 208.518
42.61000 225.154
42.78000 205.918
42.95000 206.792
43.12000 207.223
43.29000 207.046
43.46000 198.087
43.63000 185.324
43.80000 198.960
43.97000 201.022
44.14000 186.943
44.31000 195.775
44.48000 204.403
44.65000 205.368
44.82000 216.497
44.99000 248.603
45.16000 271.099
45.33000 273.230
45.50000 249.722
45.67000 219.141
45.84000 216.335
46.01000 196.395
46.18000 189.865
46.35000 193.013
46.52000 177.133
46.69000 177.898
46.86000 169.347
47.03000 174.899
47.20000 164.224
47.37000 170.779
47.54000 165.075
47.71000 173.215
47.88000 153.496
48.05000 164.757
48.22000 149.709
48.39000 161.634
48.56000 163.372
48.73000 150.475
48.90000 161.328
49.07000 158.526
49.24000 159.041
49.41000 158.338
49.58000 162.533
49.75000 163.666
49.92000 142.324
50.09000 162.429
50.26000 154.909
50.43000 154.860
50.60000 191.748
50.77000 217.419
50.94000 207.565
51.11000 164.589
51.28000 161.631
51.45000 156.246
51.62000 142.538
51.79000 146.804
51.96000 140.181
52.13000 147.065
52.30000 149.487
52.47000 137.377
52.64000 138.639
52.81000 139.481
52.98000 139.706
53.15000 140.330
53.32000 147.651
53.49000 152.237
53.66000 146.061
53.83000 149.701
54.00000 147.930
54.17000 131.657
54.34000 133.842
54.51000 135.856
54.68000 140.978
54.85000 134.658
55.02000 136.495
55.19000 137.082
55.36000 148.259
55.53000 162.948
55.70000 201.964
55.87000 387.677
56.04000 586.527
56.21000 432.074
56.38000 239.666
56.55000 177.770
56.72000 146.314
56.89000 141.929
57.06000 128.288
57.23000 128.513
57.40000 126.126
57.57000 122.130
57.74000 118.151
57.91000 130.531
58.08000 120.685
58.25000 121.003
58.42000 111.289
58.59000 118.452
58.76000 117.254
58.93000 122.476
59.10000 118.292
59.27000 115.734
59.44000 120.004
59.61000 128.907
59.78000 121.961
59.95000 120.400
60.12000 118.442
60.29000 118.656
60.46000 113.008
60.63000 116.998
60.80000 122.287
60.97000 124.402
61.14000 125.956
61.31000 127.274
61.48000 130.529
61.65000 308.553
61.82000 192.901
61.99000 142.019
62.16000 135.838
62.33000 134.275
62.50000 139.279
62.67000 132.422
62.84000 138.962
63.01000 135.827
63.18000 134.318
63.35000 142.341
63.52000 139.190
63.69000 143.281
63.86000 145.191
64.03000 140.314
64.20000 161.345
64.37000 153.865
64.54000 155.727
64.71000 162.053
64.88000 179.188
65.05000 197.068
65.22000 211.360
65.39000 274.278
65.56000 384.484
65.73000 1182.340
65.90000 2046.821
66.07000 518.272
66.24000 411.324
66.41000 653.505
66.58000 410.940
66.75000 362.599
66.92000 365.869
67.09000 387.659
67.26000 399.980
67.43000 424.153
67.60000 440.724
67.77000 461.255
67.94000 514.207
68.11000 542.879
68.28000 609.191
68.45000 693.803
68.62000 983.346
68.79000 1798.198
68.96000 11687.724
69.13000 49136.992
69.30000 26061.139
69.47000 5907.108
69.64000 983.328
69.81000 652.452
69.98000 530.879
70.00000 521.472