File: XRD/09-10-2025 Dep 8/XY Data/BTO_Mapping_Theta2Theta_09-10-2025_001_23_-10-000_17-321.xy
20.00000 494.995
20.17000 463.070
20.34000 481.958
20.51000 488.538
20.68000 470.847
20.85000 466.570
21.02000 469.431
21.19000 479.123
21.36000 467.969
21.53000 494.122
21.70000 504.808
21.87000 544.549
22.04000 649.649
22.21000 619.485
22.38000 529.334
22.55000 483.032
22.72000 453.163
22.89000 456.340
23.06000 434.059
23.23000 446.190
23.40000 413.613
23.57000 426.375
23.74000 425.458
23.91000 430.979
24.08000 424.928
24.25000 426.062
24.42000 420.115
24.59000 434.109
24.76000 408.331
24.93000 410.085
25.10000 408.659
25.27000 419.680
25.44000 390.601
25.61000 399.271
25.78000 406.308
25.95000 405.500
26.12000 379.602
26.29000 399.371
26.46000 380.787
26.63000 391.340
26.80000 376.112
26.97000 363.489
27.14000 384.198
27.31000 382.742
27.48000 382.470
27.65000 371.441
27.82000 372.310
27.99000 371.385
28.16000 379.236
28.33000 373.720
28.50000 369.560
28.67000 362.284
28.84000 359.313
29.01000 368.041
29.18000 376.619
29.35000 352.549
29.52000 367.041
29.69000 372.158
29.86000 373.236
30.03000 435.698
30.20000 428.263
30.37000 395.863
30.54000 419.381
30.71000 409.783
30.88000 457.522
31.05000 588.535
31.22000 1439.753
31.39000 2959.306
31.56000 1940.457
31.73000 756.655
31.90000 463.084
32.07000 382.606
32.24000 351.200
32.41000 342.151
32.58000 355.506
32.75000 325.531
32.92000 320.746
33.09000 311.764
33.26000 311.074
33.43000 298.356
33.60000 305.310
33.77000 290.482
33.94000 284.939
34.11000 281.158
34.28000 285.817
34.45000 287.605
34.62000 287.501
34.79000 284.221
34.96000 296.125
35.13000 278.367
35.30000 264.552
35.47000 263.686
35.64000 275.893
35.81000 275.518
35.98000 253.857
36.15000 249.036
36.32000 275.018
36.49000 265.422
36.66000 258.560
36.83000 262.716
37.00000 282.180
37.17000 277.469
37.34000 259.217
37.51000 254.440
37.68000 282.483
37.85000 267.097
38.02000 255.695
38.19000 272.590
38.36000 319.446
38.53000 539.183
38.70000 1050.846
38.87000 758.080
39.04000 347.612
39.21000 289.095
39.38000 251.713
39.55000 249.404
39.72000 243.037
39.89000 227.560
40.06000 236.949
40.23000 227.678
40.40000 219.169
40.57000 218.875
40.74000 229.788
40.91000 216.189
41.08000 220.943
41.25000 217.010
41.42000 215.016
41.59000 207.121
41.76000 208.742
41.93000 214.724
42.10000 201.706
42.27000 193.816
42.44000 201.816
42.61000 210.614
42.78000 206.026
42.95000 208.101
43.12000 197.221
43.29000 213.081
43.46000 202.203
43.63000 181.260
43.80000 200.063
43.97000 193.053
44.14000 202.496
44.31000 189.453
44.48000 214.873
44.65000 212.395
44.82000 239.739
44.99000 314.715
45.16000 353.449
45.33000 293.460
45.50000 249.125
45.67000 233.344
45.84000 198.340
46.01000 191.631
46.18000 178.296
46.35000 167.414
46.52000 184.160
46.69000 166.151
46.86000 165.254
47.03000 174.630
47.20000 167.297
47.37000 181.252
47.54000 163.369
47.71000 160.916
47.88000 162.513
48.05000 155.944
48.22000 167.373
48.39000 166.683
48.56000 158.500
48.73000 153.934
48.90000 157.670
49.07000 155.173
49.24000 167.973
49.41000 153.590
49.58000 149.166
49.75000 151.764
49.92000 152.324
50.09000 161.632
50.26000 160.943
50.43000 165.025
50.60000 207.009
50.77000 234.023
50.94000 212.912
51.11000 168.572
51.28000 174.322
51.45000 159.483
51.62000 147.633
51.79000 148.348
51.96000 144.214
52.13000 143.582
52.30000 147.593
52.47000 149.486
52.64000 139.934
52.81000 145.467
52.98000 135.548
53.15000 147.869
53.32000 150.844
53.49000 149.434
53.66000 138.944
53.83000 136.055
54.00000 141.266
54.17000 140.226
54.34000 133.757
54.51000 141.089
54.68000 130.718
54.85000 143.774
55.02000 142.763
55.19000 149.092
55.36000 157.519
55.53000 189.789
55.70000 263.574
55.87000 465.555
56.04000 568.228
56.21000 366.488
56.38000 219.874
56.55000 172.733
56.72000 143.423
56.89000 140.731
57.06000 143.467
57.23000 135.192
57.40000 126.072
57.57000 125.404
57.74000 131.386
57.91000 122.526
58.08000 126.001
58.25000 129.116
58.42000 117.155
58.59000 125.717
58.76000 118.519
58.93000 122.620
59.10000 124.025
59.27000 129.200
59.44000 119.102
59.61000 117.688
59.78000 125.466
59.95000 125.657
60.12000 113.961
60.29000 131.800
60.46000 111.091
60.63000 120.708
60.80000 115.928
60.97000 122.500
61.14000 123.618
61.31000 127.801
61.48000 151.484
61.65000 363.695
61.82000 219.179
61.99000 132.264
62.16000 130.912
62.33000 132.157
62.50000 134.231
62.67000 131.123
62.84000 147.044
63.01000 142.114
63.18000 142.795
63.35000 138.521
63.52000 126.983
63.69000 154.043
63.86000 148.570
64.03000 147.016
64.20000 159.225
64.37000 174.202
64.54000 178.250
64.71000 177.833
64.88000 194.752
65.05000 219.327
65.22000 261.748
65.39000 331.155
65.56000 493.949
65.73000 1519.631
65.90000 2768.029
66.07000 662.161
66.24000 491.206
66.41000 816.794
66.58000 522.438
66.75000 426.594
66.92000 414.939
67.09000 446.428
67.26000 463.794
67.43000 488.513
67.60000 532.867
67.77000 556.076
67.94000 583.788
68.11000 619.953
68.28000 683.513
68.45000 764.510
68.62000 1145.455
68.79000 2257.085
68.96000 15009.423
69.13000 67337.258
69.30000 36680.988
69.47000 8700.150
69.64000 1172.106
69.81000 738.979
69.98000 595.702
70.00000 563.545