File: XRD/09-10-2025 Dep 8/XY Data/BTO_Mapping_Theta2Theta_09-10-2025_001_29_-32-361_23-511.xy
20.00000 519.174
20.17000 482.887
20.34000 468.078
20.51000 494.142
20.68000 467.569
20.85000 471.094
21.02000 488.326
21.19000 503.384
21.36000 475.867
21.53000 482.786
21.70000 499.328
21.87000 545.577
22.04000 679.938
22.21000 630.581
22.38000 515.269
22.55000 466.641
22.72000 468.068
22.89000 436.430
23.06000 434.642
23.23000 448.834
23.40000 449.799
23.57000 424.563
23.74000 440.495
23.91000 428.760
24.08000 429.053
24.25000 426.281
24.42000 437.134
24.59000 427.005
24.76000 405.130
24.93000 422.897
25.10000 405.146
25.27000 405.414
25.44000 410.648
25.61000 414.752
25.78000 417.929
25.95000 397.255
26.12000 374.566
26.29000 400.892
26.46000 390.968
26.63000 387.919
26.80000 400.747
26.97000 390.468
27.14000 384.362
27.31000 382.047
27.48000 376.841
27.65000 376.803
27.82000 378.424
27.99000 380.874
28.16000 384.850
28.33000 381.665
28.50000 369.214
28.67000 356.984
28.84000 351.941
29.01000 375.684
29.18000 358.662
29.35000 374.425
29.52000 368.036
29.69000 370.309
29.86000 403.541
30.03000 473.257
30.20000 435.005
30.37000 396.168
30.54000 362.612
30.71000 394.690
30.88000 444.044
31.05000 586.556
31.22000 1522.708
31.39000 3405.087
31.56000 2363.646
31.73000 830.461
31.90000 455.883
32.07000 371.899
32.24000 350.426
32.41000 328.580
32.58000 338.354
32.75000 316.762
32.92000 328.471
33.09000 328.084
33.26000 317.446
33.43000 305.326
33.60000 304.966
33.77000 300.603
33.94000 298.162
34.11000 289.029
34.28000 281.305
34.45000 279.965
34.62000 284.790
34.79000 275.218
34.96000 295.549
35.13000 281.318
35.30000 272.602
35.47000 277.209
35.64000 281.136
35.81000 280.589
35.98000 272.932
36.15000 266.696
36.32000 254.159
36.49000 265.390
36.66000 275.848
36.83000 266.498
37.00000 267.095
37.17000 274.064
37.34000 263.645
37.51000 253.750
37.68000 260.649
37.85000 264.965
38.02000 269.664
38.19000 283.159
38.36000 314.402
38.53000 504.541
38.70000 852.717
38.87000 601.308
39.04000 325.370
39.21000 267.225
39.38000 247.636
39.55000 250.744
39.72000 241.577
39.89000 239.244
40.06000 226.833
40.23000 238.239
40.40000 231.777
40.57000 221.408
40.74000 234.350
40.91000 212.017
41.08000 214.799
41.25000 210.967
41.42000 221.621
41.59000 214.972
41.76000 197.918
41.93000 210.981
42.10000 210.479
42.27000 222.112
42.44000 206.222
42.61000 214.040
42.78000 212.049
42.95000 205.739
43.12000 199.965
43.29000 201.713
43.46000 199.804
43.63000 193.718
43.80000 193.210
43.97000 202.799
44.14000 186.492
44.31000 207.686
44.48000 209.106
44.65000 228.037
44.82000 268.388
44.99000 351.412
45.16000 371.046
45.33000 295.838
45.50000 249.147
45.67000 212.533
45.84000 199.508
46.01000 179.710
46.18000 182.396
46.35000 175.442
46.52000 180.620
46.69000 159.517
46.86000 175.298
47.03000 173.943
47.20000 168.868
47.37000 173.640
47.54000 157.135
47.71000 165.938
47.88000 171.255
48.05000 153.378
48.22000 163.521
48.39000 160.843
48.56000 165.884
48.73000 159.357
48.90000 160.070
49.07000 150.076
49.24000 153.966
49.41000 158.676
49.58000 168.212
49.75000 160.045
49.92000 156.579
50.09000 168.517
50.26000 166.916
50.43000 181.714
50.60000 230.569
50.77000 257.649
50.94000 224.110
51.11000 170.503
51.28000 163.530
51.45000 160.771
51.62000 149.358
51.79000 145.781
51.96000 156.041
52.13000 157.281
52.30000 144.115
52.47000 147.033
52.64000 139.351
52.81000 124.557
52.98000 135.918
53.15000 136.570
53.32000 152.860
53.49000 151.760
53.66000 150.182
53.83000 148.131
54.00000 144.033
54.17000 157.262
54.34000 133.805
54.51000 144.644
54.68000 133.798
54.85000 147.385
55.02000 142.574
55.19000 145.067
55.36000 164.087
55.53000 196.063
55.70000 307.961
55.87000 517.577
56.04000 583.275
56.21000 358.876
56.38000 222.215
56.55000 172.603
56.72000 153.856
56.89000 143.694
57.06000 146.522
57.23000 142.534
57.40000 136.429
57.57000 134.841
57.74000 126.937
57.91000 126.206
58.08000 137.557
58.25000 127.164
58.42000 119.482
58.59000 130.158
58.76000 129.433
58.93000 130.169
59.10000 123.388
59.27000 120.827
59.44000 113.786
59.61000 118.268
59.78000 132.496
59.95000 118.838
60.12000 106.401
60.29000 114.917
60.46000 111.506
60.63000 121.264
60.80000 116.930
60.97000 116.073
61.14000 118.017
61.31000 122.947
61.48000 148.304
61.65000 438.943
61.82000 293.648
61.99000 139.826
62.16000 137.472
62.33000 140.472
62.50000 142.769
62.67000 141.224
62.84000 146.378
63.01000 139.134
63.18000 144.905
63.35000 146.216
63.52000 143.586
63.69000 153.672
63.86000 148.294
64.03000 146.816
64.20000 166.169
64.37000 167.128
64.54000 174.765
64.71000 187.759
64.88000 200.186
65.05000 220.999
65.22000 277.640
65.39000 373.702
65.56000 550.763
65.73000 1703.534
65.90000 3545.974
66.07000 883.783
66.24000 584.116
66.41000 1006.926
66.58000 623.843
66.75000 473.288
66.92000 488.726
67.09000 514.252
67.26000 518.053
67.43000 553.305
67.60000 590.954
67.77000 607.238
67.94000 662.142
68.11000 686.701
68.28000 771.343
68.45000 895.923
68.62000 1321.799
68.79000 2690.113
68.96000 16488.277
69.13000 84932.180
69.30000 49303.461
69.47000 13528.743
69.64000 1390.147
69.81000 835.897
69.98000 642.990
70.00000 620.572