File: XRD/09-10-2025 Dep 8/XY Data/BTO_Mapping_Theta2Theta_09-10-2025_001_38_-8-090_-5-878.xy
20.00000 495.851
20.17000 493.233
20.34000 490.109
20.51000 486.116
20.68000 484.826
20.85000 479.114
21.02000 493.178
21.19000 486.295
21.36000 468.232
21.53000 487.290
21.70000 507.807
21.87000 593.294
22.04000 682.684
22.21000 619.707
22.38000 513.231
22.55000 483.360
22.72000 461.072
22.89000 450.547
23.06000 456.446
23.23000 451.568
23.40000 433.910
23.57000 440.208
23.74000 434.425
23.91000 418.050
24.08000 421.829
24.25000 427.035
24.42000 407.853
24.59000 420.001
24.76000 421.294
24.93000 410.714
25.10000 415.942
25.27000 405.281
25.44000 406.229
25.61000 431.569
25.78000 399.405
25.95000 400.167
26.12000 402.085
26.29000 394.203
26.46000 397.963
26.63000 386.838
26.80000 385.167
26.97000 389.146
27.14000 390.906
27.31000 383.165
27.48000 391.397
27.65000 380.738
27.82000 372.211
27.99000 373.349
28.16000 367.860
28.33000 381.875
28.50000 377.938
28.67000 376.341
28.84000 362.363
29.01000 351.587
29.18000 359.307
29.35000 368.652
29.52000 359.489
29.69000 369.987
29.86000 396.215
30.03000 464.736
30.20000 441.704
30.37000 400.575
30.54000 384.566
30.71000 416.878
30.88000 459.711
31.05000 651.389
31.22000 1635.337
31.39000 2982.049
31.56000 1728.157
31.73000 656.620
31.90000 413.053
32.07000 369.811
32.24000 350.189
32.41000 343.204
32.58000 340.895
32.75000 337.454
32.92000 331.656
33.09000 318.312
33.26000 308.029
33.43000 302.836
33.60000 285.098
33.77000 295.638
33.94000 310.850
34.11000 295.769
34.28000 308.883
34.45000 286.640
34.62000 293.062
34.79000 291.546
34.96000 268.836
35.13000 279.292
35.30000 269.926
35.47000 262.934
35.64000 267.214
35.81000 259.842
35.98000 272.712
36.15000 259.437
36.32000 250.483
36.49000 269.439
36.66000 261.232
36.83000 275.668
37.00000 278.018
37.17000 272.594
37.34000 264.359
37.51000 256.495
37.68000 257.415
37.85000 254.000
38.02000 280.781
38.19000 288.749
38.36000 336.831
38.53000 594.443
38.70000 998.971
38.87000 665.214
39.04000 323.551
39.21000 273.753
39.38000 279.694
39.55000 251.125
39.72000 228.807
39.89000 240.813
40.06000 235.388
40.23000 238.007
40.40000 223.878
40.57000 232.602
40.74000 225.421
40.91000 220.620
41.08000 209.247
41.25000 215.051
41.42000 222.183
41.59000 231.429
41.76000 217.187
41.93000 201.898
42.10000 196.642
42.27000 214.399
42.44000 206.811
42.61000 204.344
42.78000 208.172
42.95000 192.989
43.12000 217.739
43.29000 203.079
43.46000 203.615
43.63000 198.385
43.80000 193.045
43.97000 202.340
44.14000 205.861
44.31000 199.763
44.48000 214.262
44.65000 218.414
44.82000 285.831
44.99000 370.660
45.16000 360.593
45.33000 312.634
45.50000 265.408
45.67000 206.680
45.84000 193.995
46.01000 196.834
46.18000 182.926
46.35000 173.060
46.52000 170.250
46.69000 171.437
46.86000 166.464
47.03000 180.671
47.20000 159.607
47.37000 169.529
47.54000 175.698
47.71000 169.723
47.88000 170.996
48.05000 167.894
48.22000 155.975
48.39000 159.858
48.56000 171.664
48.73000 171.722
48.90000 153.875
49.07000 161.913
49.24000 160.666
49.41000 148.134
49.58000 165.347
49.75000 171.192
49.92000 157.721
50.09000 149.977
50.26000 167.408
50.43000 177.590
50.60000 213.545
50.77000 244.979
50.94000 206.672
51.11000 169.106
51.28000 167.353
51.45000 147.264
51.62000 151.792
51.79000 145.335
51.96000 138.292
52.13000 141.674
52.30000 144.921
52.47000 141.483
52.64000 134.956
52.81000 150.302
52.98000 144.971
53.15000 147.888
53.32000 148.720
53.49000 156.940
53.66000 152.150
53.83000 137.517
54.00000 141.494
54.17000 133.426
54.34000 145.907
54.51000 149.959
54.68000 145.674
54.85000 138.407
55.02000 145.055
55.19000 153.715
55.36000 160.384
55.53000 196.761
55.70000 317.459
55.87000 516.619
56.04000 538.483
56.21000 335.775
56.38000 212.470
56.55000 167.448
56.72000 152.526
56.89000 138.753
57.06000 135.655
57.23000 130.304
57.40000 129.279
57.57000 133.477
57.74000 129.895
57.91000 129.837
58.08000 123.755
58.25000 123.893
58.42000 128.663
58.59000 129.931
58.76000 124.152
58.93000 124.561
59.10000 120.254
59.27000 125.180
59.44000 112.580
59.61000 122.778
59.78000 127.616
59.95000 113.335
60.12000 111.849
60.29000 107.581
60.46000 116.757
60.63000 105.889
60.80000 110.558
60.97000 125.221
61.14000 128.981
61.31000 124.502
61.48000 144.175
61.65000 430.036
61.82000 237.573
61.99000 138.516
62.16000 128.654
62.33000 141.862
62.50000 128.015
62.67000 136.515
62.84000 139.409
63.01000 145.570
63.18000 163.899
63.35000 149.603
63.52000 127.173
63.69000 145.580
63.86000 145.477
64.03000 150.050
64.20000 162.521
64.37000 160.739
64.54000 162.250
64.71000 167.623
64.88000 201.251
65.05000 223.091
65.22000 271.556
65.39000 370.345
65.56000 525.564
65.73000 1782.305
65.90000 3155.383
66.07000 721.507
66.24000 558.511
66.41000 923.740
66.58000 544.832
66.75000 439.850
66.92000 461.287
67.09000 488.372
67.26000 516.428
67.43000 538.013
67.60000 553.552
67.77000 572.824
67.94000 627.344
68.11000 656.066
68.28000 750.828
68.45000 841.330
68.62000 1296.296
68.79000 2504.128
68.96000 18920.779
69.13000 77550.453
69.30000 41372.871
69.47000 9164.084
69.64000 1243.431
69.81000 771.631
69.98000 620.941
70.00000 600.132