File: XRD/09-10-2025 Dep 8/XY Data/BTO_Mapping_Theta2Theta_09-10-2025_001_13_26-765_29-726.xy
20.00000 482.644
20.17000 479.177
20.34000 480.844
20.51000 462.203
20.68000 482.211
20.85000 469.596
21.02000 479.574
21.19000 471.272
21.36000 450.017
21.53000 460.841
21.70000 462.138
21.87000 525.730
22.04000 565.617
22.21000 577.780
22.38000 534.202
22.55000 486.874
22.72000 451.811
22.89000 468.157
23.06000 456.316
23.23000 437.691
23.40000 462.334
23.57000 440.436
23.74000 444.336
23.91000 470.764
24.08000 454.882
24.25000 452.569
24.42000 417.791
24.59000 421.389
24.76000 411.376
24.93000 420.063
25.10000 413.098
25.27000 389.448
25.44000 412.039
25.61000 385.859
25.78000 385.700
25.95000 411.106
26.12000 383.523
26.29000 384.188
26.46000 391.528
26.63000 375.241
26.80000 388.120
26.97000 383.959
27.14000 367.640
27.31000 363.853
27.48000 358.191
27.65000 378.975
27.82000 358.512
27.99000 379.413
28.16000 380.433
28.33000 364.367
28.50000 356.877
28.67000 368.211
28.84000 366.074
29.01000 356.318
29.18000 354.741
29.35000 356.408
29.52000 352.928
29.69000 347.366
29.86000 367.535
30.03000 399.398
30.20000 374.314
30.37000 379.389
30.54000 374.309
30.71000 388.079
30.88000 395.696
31.05000 456.583
31.22000 758.444
31.39000 1521.477
31.56000 1377.752
31.73000 690.426
31.90000 427.619
32.07000 379.804
32.24000 332.144
32.41000 324.445
32.58000 333.750
32.75000 329.160
32.92000 309.589
33.09000 301.992
33.26000 292.022
33.43000 284.444
33.60000 303.043
33.77000 288.739
33.94000 284.943
34.11000 304.190
34.28000 295.030
34.45000 282.274
34.62000 278.980
34.79000 274.553
34.96000 273.517
35.13000 271.584
35.30000 271.014
35.47000 261.176
35.64000 253.658
35.81000 273.083
35.98000 266.686
36.15000 272.787
36.32000 271.178
36.49000 262.006
36.66000 269.111
36.83000 255.666
37.00000 270.035
37.17000 289.966
37.34000 259.832
37.51000 262.431
37.68000 252.289
37.85000 267.411
38.02000 259.187
38.19000 268.095
38.36000 269.707
38.53000 376.295
38.70000 806.251
38.87000 890.399
39.04000 410.602
39.21000 250.969
39.38000 259.617
39.55000 234.769
39.72000 227.943
39.89000 222.005
40.06000 228.743
40.23000 233.846
40.40000 225.756
40.57000 210.314
40.74000 220.623
40.91000 202.978
41.08000 205.033
41.25000 214.715
41.42000 214.856
41.59000 207.995
41.76000 212.284
41.93000 206.332
42.10000 203.881
42.27000 211.144
42.44000 206.769
42.61000 207.446
42.78000 209.188
42.95000 198.698
43.12000 197.936
43.29000 196.294
43.46000 202.639
43.63000 207.913
43.80000 201.080
43.97000 198.568
44.14000 195.656
44.31000 198.360
44.48000 185.460
44.65000 209.659
44.82000 217.228
44.99000 239.476
45.16000 260.617
45.33000 258.538
45.50000 243.983
45.67000 211.861
45.84000 195.760
46.01000 195.771
46.18000 184.634
46.35000 183.048
46.52000 184.424
46.69000 176.720
46.86000 167.022
47.03000 175.880
47.20000 170.066
47.37000 172.891
47.54000 169.121
47.71000 162.345
47.88000 161.793
48.05000 159.267
48.22000 154.262
48.39000 151.142
48.56000 146.857
48.73000 151.774
48.90000 154.784
49.07000 165.322
49.24000 153.993
49.41000 151.735
49.58000 147.710
49.75000 154.420
49.92000 154.527
50.09000 152.056
50.26000 157.795
50.43000 158.463
50.60000 171.790
50.77000 200.200
50.94000 183.276
51.11000 164.469
51.28000 148.399
51.45000 138.275
51.62000 136.037
51.79000 144.758
51.96000 133.842
52.13000 142.626
52.30000 142.507
52.47000 131.624
52.64000 143.005
52.81000 142.364
52.98000 134.795
53.15000 131.502
53.32000 153.675
53.49000 153.805
53.66000 152.958
53.83000 139.230
54.00000 134.621
54.17000 135.475
54.34000 132.849
54.51000 137.497
54.68000 140.228
54.85000 135.084
55.02000 147.236
55.19000 145.865
55.36000 147.490
55.53000 160.388
55.70000 206.284
55.87000 363.847
56.04000 597.476
56.21000 472.809
56.38000 271.178
56.55000 182.824
56.72000 151.098
56.89000 138.998
57.06000 123.933
57.23000 126.563
57.40000 125.952
57.57000 127.882
57.74000 131.616
57.91000 118.317
58.08000 124.487
58.25000 126.416
58.42000 122.614
58.59000 119.996
58.76000 123.078
58.93000 124.782
59.10000 128.303
59.27000 121.591
59.44000 122.677
59.61000 127.138
59.78000 123.543
59.95000 116.161
60.12000 104.901
60.29000 118.370
60.46000 115.179
60.63000 118.394
60.80000 119.751
60.97000 122.572
61.14000 126.459
61.31000 125.288
61.48000 131.142
61.65000 289.919
61.82000 194.665
61.99000 128.341
62.16000 135.983
62.33000 131.872
62.50000 136.169
62.67000 131.386
62.84000 123.033
63.01000 135.490
63.18000 142.489
63.35000 133.736
63.52000 140.100
63.69000 132.883
63.86000 140.262
64.03000 142.074
64.20000 143.519
64.37000 155.440
64.54000 154.140
64.71000 172.438
64.88000 177.732
65.05000 182.754
65.22000 213.414
65.39000 249.378
65.56000 364.479
65.73000 1049.241
65.90000 1989.380
66.07000 537.650
66.24000 407.435
66.41000 635.792
66.58000 422.862
66.75000 353.511
66.92000 362.634
67.09000 382.960
67.26000 395.762
67.43000 416.391
67.60000 435.221
67.77000 477.039
67.94000 495.969
68.11000 539.307
68.28000 601.616
68.45000 675.711
68.62000 985.250
68.79000 1757.907
68.96000 10031.381
69.13000 47499.254
69.30000 26147.582
69.47000 6453.461
69.64000 994.941
69.81000 648.160
69.98000 519.010
70.00000 502.918