File: XRD/XRD/09-10-2025 Dep 8/XY Data/BTO_Mapping_Theta2Theta_09-10-2025_001_52_9-271_-28-532.xy
20.00000 490.920
20.17000 487.854
20.34000 481.903
20.51000 482.592
20.68000 479.936
20.85000 489.883
21.02000 479.170
21.19000 466.229
21.36000 468.798
21.53000 471.509
21.70000 469.093
21.87000 543.284
22.04000 632.632
22.21000 620.711
22.38000 525.153
22.55000 481.758
22.72000 446.853
22.89000 437.844
23.06000 438.835
23.23000 449.663
23.40000 446.416
23.57000 449.782
23.74000 441.823
23.91000 432.683
24.08000 419.272
24.25000 423.953
24.42000 440.779
24.59000 407.902
24.76000 420.292
24.93000 412.681
25.10000 409.113
25.27000 400.378
25.44000 420.866
25.61000 415.840
25.78000 404.212
25.95000 408.290
26.12000 400.533
26.29000 368.962
26.46000 384.779
26.63000 403.571
26.80000 399.590
26.97000 405.374
27.14000 363.869
27.31000 368.976
27.48000 374.108
27.65000 377.195
27.82000 377.491
27.99000 377.276
28.16000 391.558
28.33000 378.218
28.50000 366.729
28.67000 361.751
28.84000 358.486
29.01000 380.553
29.18000 355.491
29.35000 377.744
29.52000 375.988
29.69000 380.101
29.86000 396.262
30.03000 467.163
30.20000 438.280
30.37000 409.297
30.54000 413.070
30.71000 417.113
30.88000 452.121
31.05000 585.599
31.22000 1452.588
31.39000 3097.872
31.56000 2027.382
31.73000 788.784
31.90000 483.839
32.07000 362.420
32.24000 358.373
32.41000 335.061
32.58000 325.529
32.75000 318.176
32.92000 309.941
33.09000 308.671
33.26000 310.524
33.43000 293.530
33.60000 315.387
33.77000 299.076
33.94000 294.369
34.11000 286.695
34.28000 299.106
34.45000 291.002
34.62000 282.534
34.79000 274.761
34.96000 282.812
35.13000 266.106
35.30000 267.821
35.47000 279.969
35.64000 249.593
35.81000 267.002
35.98000 267.432
36.15000 259.223
36.32000 261.450
36.49000 268.265
36.66000 260.675
36.83000 275.492
37.00000 283.802
37.17000 270.970
37.34000 272.917
37.51000 270.548
37.68000 263.716
37.85000 263.660
38.02000 257.233
38.19000 267.516
38.36000 319.161
38.53000 527.744
38.70000 1060.010
38.87000 823.936
39.04000 383.560
39.21000 265.582
39.38000 257.894
39.55000 247.502
39.72000 220.441
39.89000 230.625
40.06000 214.452
40.23000 237.376
40.40000 225.244
40.57000 228.400
40.74000 212.131
40.91000 214.155
41.08000 202.059
41.25000 217.186
41.42000 210.833
41.59000 216.038
41.76000 219.782
41.93000 217.564
42.10000 193.672
42.27000 194.920
42.44000 191.348
42.61000 192.606
42.78000 204.237
42.95000 201.324
43.12000 203.233
43.29000 202.449
43.46000 188.308
43.63000 201.756
43.80000 200.938
43.97000 203.305
44.14000 202.085
44.31000 200.814
44.48000 196.598
44.65000 210.818
44.82000 224.751
44.99000 277.215
45.16000 331.192
45.33000 314.160
45.50000 251.286
45.67000 217.477
45.84000 216.071
46.01000 193.113
46.18000 179.350
46.35000 181.648
46.52000 178.792
46.69000 182.621
46.86000 173.399
47.03000 170.120
47.20000 174.263
47.37000 159.382
47.54000 165.381
47.71000 171.247
47.88000 165.306
48.05000 176.309
48.22000 181.453
48.39000 174.959
48.56000 162.349
48.73000 161.908
48.90000 155.072
49.07000 168.662
49.24000 155.394
49.41000 156.130
49.58000 168.190
49.75000 156.441
49.92000 161.469
50.09000 148.763
50.26000 168.777
50.43000 171.314
50.60000 206.533
50.77000 233.560
50.94000 214.310
51.11000 171.543
51.28000 165.760
51.45000 146.706
51.62000 148.622
51.79000 147.438
51.96000 148.346
52.13000 136.686
52.30000 142.127
52.47000 140.572
52.64000 145.878
52.81000 133.589
52.98000 138.696
53.15000 150.081
53.32000 147.172
53.49000 164.007
53.66000 140.307
53.83000 142.611
54.00000 149.888
54.17000 142.541
54.34000 140.753
54.51000 145.028
54.68000 139.510
54.85000 143.790
55.02000 151.193
55.19000 145.132
55.36000 165.407
55.53000 166.691
55.70000 250.465
55.87000 449.659
56.04000 555.613
56.21000 383.416
56.38000 223.623
56.55000 179.189
56.72000 147.388
56.89000 144.987
57.06000 135.456
57.23000 128.640
57.40000 125.535
57.57000 130.185
57.74000 121.820
57.91000 121.604
58.08000 117.808
58.25000 125.233
58.42000 126.617
58.59000 120.155
58.76000 123.333
58.93000 129.462
59.10000 115.980
59.27000 117.116
59.44000 116.656
59.61000 126.138
59.78000 119.657
59.95000 122.002
60.12000 124.957
60.29000 114.576
60.46000 114.606
60.63000 125.559
60.80000 113.036
60.97000 110.324
61.14000 130.875
61.31000 120.318
61.48000 131.118
61.65000 335.580
61.82000 227.125
61.99000 137.580
62.16000 130.867
62.33000 138.075
62.50000 131.721
62.67000 136.490
62.84000 142.879
63.01000 133.438
63.18000 128.013
63.35000 140.743
63.52000 144.518
63.69000 142.526
63.86000 146.157
64.03000 151.203
64.20000 155.433
64.37000 160.855
64.54000 176.365
64.71000 181.706
64.88000 192.865
65.05000 206.444
65.22000 244.347
65.39000 329.921
65.56000 497.998
65.73000 1453.401
65.90000 2657.708
66.07000 621.964
66.24000 483.140
66.41000 797.097
66.58000 496.290
66.75000 412.939
66.92000 414.946
67.09000 437.916
67.26000 459.634
67.43000 480.870
67.60000 486.774
67.77000 506.914
67.94000 568.135
68.11000 602.155
68.28000 665.852
68.45000 777.653
68.62000 1116.109
68.79000 2111.242
68.96000 13572.352
69.13000 62805.891
69.30000 34021.348
69.47000 8136.159
69.64000 1146.155
69.81000 709.396
69.98000 574.049
70.00000 558.340