File: XRD/XRD/09-10-2025 Dep 8/XY Data/BTO_Mapping_Theta2Theta_09-10-2025_001_47_-2-091_-19-890.xy
20.00000 482.796
20.17000 493.342
20.34000 476.079
20.51000 471.493
20.68000 489.747
20.85000 491.762
21.02000 510.581
21.19000 494.693
21.36000 499.499
21.53000 478.621
21.70000 527.353
21.87000 570.391
22.04000 674.016
22.21000 615.043
22.38000 529.036
22.55000 460.230
22.72000 450.601
22.89000 458.102
23.06000 444.099
23.23000 441.010
23.40000 438.423
23.57000 433.668
23.74000 447.050
23.91000 421.350
24.08000 435.763
24.25000 419.426
24.42000 413.240
24.59000 417.560
24.76000 401.712
24.93000 402.923
25.10000 420.219
25.27000 418.337
25.44000 397.842
25.61000 424.971
25.78000 401.048
25.95000 397.541
26.12000 385.775
26.29000 396.149
26.46000 391.914
26.63000 383.353
26.80000 388.593
26.97000 378.532
27.14000 387.257
27.31000 387.821
27.48000 370.186
27.65000 363.915
27.82000 377.986
27.99000 385.379
28.16000 380.395
28.33000 368.853
28.50000 358.477
28.67000 374.757
28.84000 387.985
29.01000 354.313
29.18000 367.337
29.35000 364.552
29.52000 355.579
29.69000 363.658
29.86000 410.450
30.03000 457.331
30.20000 432.935
30.37000 409.389
30.54000 393.290
30.71000 411.739
30.88000 463.173
31.05000 654.411
31.22000 1630.510
31.39000 3100.421
31.56000 1898.356
31.73000 717.476
31.90000 444.713
32.07000 380.531
32.24000 357.320
32.41000 360.749
32.58000 339.527
32.75000 338.014
32.92000 345.001
33.09000 314.678
33.26000 310.849
33.43000 309.778
33.60000 301.030
33.77000 310.236
33.94000 294.282
34.11000 298.803
34.28000 296.878
34.45000 291.436
34.62000 275.227
34.79000 270.297
34.96000 276.047
35.13000 271.085
35.30000 274.419
35.47000 280.523
35.64000 265.677
35.81000 284.778
35.98000 273.273
36.15000 262.952
36.32000 263.857
36.49000 276.877
36.66000 259.938
36.83000 276.827
37.00000 299.320
37.17000 282.016
37.34000 259.975
37.51000 265.898
37.68000 248.691
37.85000 250.602
38.02000 255.752
38.19000 278.730
38.36000 342.046
38.53000 598.381
38.70000 1018.308
38.87000 682.269
39.04000 319.198
39.21000 282.244
39.38000 246.218
39.55000 248.198
39.72000 238.203
39.89000 228.277
40.06000 227.309
40.23000 228.038
40.40000 229.465
40.57000 218.192
40.74000 240.573
40.91000 219.912
41.08000 217.189
41.25000 214.850
41.42000 209.782
41.59000 210.173
41.76000 219.686
41.93000 208.143
42.10000 230.689
42.27000 207.763
42.44000 188.402
42.61000 203.130
42.78000 203.489
42.95000 205.500
43.12000 203.793
43.29000 210.052
43.46000 211.503
43.63000 201.426
43.80000 197.057
43.97000 204.125
44.14000 205.382
44.31000 197.473
44.48000 207.514
44.65000 216.328
44.82000 267.841
44.99000 351.108
45.16000 401.424
45.33000 307.984
45.50000 263.974
45.67000 215.159
45.84000 209.135
46.01000 196.807
46.18000 187.624
46.35000 181.860
46.52000 180.015
46.69000 177.182
46.86000 177.126
47.03000 183.405
47.20000 161.495
47.37000 173.972
47.54000 171.006
47.71000 161.224
47.88000 167.200
48.05000 159.068
48.22000 173.233
48.39000 149.192
48.56000 154.762
48.73000 166.534
48.90000 156.969
49.07000 151.345
49.24000 161.331
49.41000 163.401
49.58000 154.575
49.75000 158.204
49.92000 162.755
50.09000 161.133
50.26000 164.846
50.43000 179.553
50.60000 217.418
50.77000 235.736
50.94000 213.409
51.11000 167.139
51.28000 160.904
51.45000 150.339
51.62000 146.178
51.79000 154.270
51.96000 143.152
52.13000 156.207
52.30000 133.643
52.47000 128.165
52.64000 147.394
52.81000 140.708
52.98000 135.731
53.15000 142.910
53.32000 147.256
53.49000 156.208
53.66000 152.769
53.83000 146.211
54.00000 141.033
54.17000 138.082
54.34000 148.811
54.51000 147.956
54.68000 144.034
54.85000 148.893
55.02000 149.489
55.19000 159.230
55.36000 170.546
55.53000 198.845
55.70000 293.988
55.87000 518.831
56.04000 540.486
56.21000 355.667
56.38000 223.016
56.55000 178.608
56.72000 141.971
56.89000 130.782
57.06000 128.721
57.23000 120.378
57.40000 127.591
57.57000 129.665
57.74000 132.263
57.91000 125.032
58.08000 126.192
58.25000 118.478
58.42000 127.009
58.59000 119.575
58.76000 129.953
58.93000 122.327
59.10000 123.732
59.27000 115.995
59.44000 115.269
59.61000 117.690
59.78000 117.357
59.95000 121.606
60.12000 116.909
60.29000 116.780
60.46000 120.117
60.63000 123.012
60.80000 116.399
60.97000 119.504
61.14000 126.059
61.31000 128.433
61.48000 142.018
61.65000 383.158
61.82000 230.941
61.99000 147.786
62.16000 131.973
62.33000 135.337
62.50000 143.268
62.67000 136.366
62.84000 131.750
63.01000 144.425
63.18000 154.116
63.35000 137.594
63.52000 137.396
63.69000 148.406
63.86000 150.088
64.03000 153.559
64.20000 155.677
64.37000 164.673
64.54000 182.674
64.71000 190.944
64.88000 205.376
65.05000 229.112
65.22000 252.968
65.39000 360.842
65.56000 525.858
65.73000 1695.946
65.90000 2994.609
66.07000 698.734
66.24000 516.866
66.41000 888.170
66.58000 547.717
66.75000 436.805
66.92000 451.015
67.09000 484.083
67.26000 507.524
67.43000 533.249
67.60000 534.506
67.77000 584.173
67.94000 608.467
68.11000 650.989
68.28000 728.432
68.45000 843.787
68.62000 1242.310
68.79000 2367.347
68.96000 16979.580
69.13000 73663.906
69.30000 39705.430
69.47000 9073.682
69.64000 1253.749
69.81000 759.564
69.98000 613.298
70.00000 610.096