File: XRD/XRD/09-10-2025 Dep 8/XY Data/BTO_Mapping_Theta2Theta_09-10-2025_001_19_-2-091_19-890.xy
20.00000 486.291
20.17000 501.438
20.34000 481.291
20.51000 466.720
20.68000 492.780
20.85000 477.925
21.02000 465.932
21.19000 472.846
21.36000 490.351
21.53000 469.640
21.70000 499.105
21.87000 532.745
22.04000 579.878
22.21000 612.539
22.38000 529.317
22.55000 485.697
22.72000 471.960
22.89000 437.837
23.06000 458.029
23.23000 452.345
23.40000 432.010
23.57000 427.855
23.74000 427.239
23.91000 407.538
24.08000 435.874
24.25000 427.788
24.42000 429.641
24.59000 421.888
24.76000 422.108
24.93000 408.717
25.10000 417.672
25.27000 413.578
25.44000 409.497
25.61000 393.315
25.78000 382.403
25.95000 405.844
26.12000 396.413
26.29000 386.059
26.46000 398.646
26.63000 389.927
26.80000 385.665
26.97000 366.817
27.14000 368.324
27.31000 375.292
27.48000 372.715
27.65000 365.711
27.82000 360.282
27.99000 376.270
28.16000 375.624
28.33000 378.095
28.50000 375.960
28.67000 357.956
28.84000 358.778
29.01000 350.452
29.18000 346.917
29.35000 362.405
29.52000 377.352
29.69000 367.922
29.86000 398.698
30.03000 456.130
30.20000 420.858
30.37000 403.313
30.54000 412.459
30.71000 423.893
30.88000 441.998
31.05000 569.985
31.22000 1340.008
31.39000 2976.028
31.56000 1999.153
31.73000 797.930
31.90000 482.635
32.07000 377.317
32.24000 353.444
32.41000 336.146
32.58000 334.164
32.75000 335.985
32.92000 324.690
33.09000 310.954
33.26000 312.815
33.43000 292.779
33.60000 296.314
33.77000 303.317
33.94000 295.895
34.11000 297.770
34.28000 291.958
34.45000 278.467
34.62000 279.983
34.79000 295.990
34.96000 301.160
35.13000 270.932
35.30000 283.610
35.47000 274.161
35.64000 264.128
35.81000 263.957
35.98000 278.962
36.15000 268.856
36.32000 273.115
36.49000 270.530
36.66000 268.219
36.83000 270.729
37.00000 291.088
37.17000 265.009
37.34000 262.525
37.51000 258.855
37.68000 263.762
37.85000 274.648
38.02000 272.902
38.19000 273.567
38.36000 315.106
38.53000 515.713
38.70000 1057.739
38.87000 855.745
39.04000 370.454
39.21000 263.759
39.38000 260.035
39.55000 243.822
39.72000 234.469
39.89000 242.573
40.06000 232.123
40.23000 225.286
40.40000 217.998
40.57000 225.515
40.74000 224.281
40.91000 224.596
41.08000 206.432
41.25000 214.975
41.42000 217.450
41.59000 217.069
41.76000 212.652
41.93000 217.877
42.10000 211.062
42.27000 202.507
42.44000 211.701
42.61000 202.898
42.78000 213.976
42.95000 199.245
43.12000 200.471
43.29000 186.022
43.46000 216.564
43.63000 205.036
43.80000 190.445
43.97000 198.760
44.14000 187.900
44.31000 201.767
44.48000 188.734
44.65000 199.012
44.82000 220.790
44.99000 284.104
45.16000 330.347
45.33000 301.183
45.50000 253.398
45.67000 224.981
45.84000 213.575
46.01000 191.415
46.18000 190.427
46.35000 185.216
46.52000 168.381
46.69000 168.521
46.86000 168.728
47.03000 170.996
47.20000 172.885
47.37000 167.196
47.54000 162.660
47.71000 166.222
47.88000 158.109
48.05000 167.486
48.22000 157.559
48.39000 154.617
48.56000 151.683
48.73000 152.287
48.90000 152.718
49.07000 160.081
49.24000 154.494
49.41000 152.638
49.58000 144.832
49.75000 158.642
49.92000 164.449
50.09000 149.033
50.26000 159.285
50.43000 181.844
50.60000 199.671
50.77000 226.107
50.94000 209.932
51.11000 172.237
51.28000 158.698
51.45000 146.809
51.62000 154.060
51.79000 148.180
51.96000 143.417
52.13000 147.695
52.30000 145.672
52.47000 140.474
52.64000 140.279
52.81000 134.539
52.98000 149.803
53.15000 142.531
53.32000 145.365
53.49000 148.991
53.66000 145.534
53.83000 161.566
54.00000 141.012
54.17000 132.624
54.34000 132.709
54.51000 140.911
54.68000 139.250
54.85000 131.121
55.02000 139.183
55.19000 140.185
55.36000 158.166
55.53000 166.986
55.70000 247.313
55.87000 439.948
56.04000 542.223
56.21000 390.118
56.38000 225.184
56.55000 167.878
56.72000 156.166
56.89000 135.381
57.06000 135.123
57.23000 131.240
57.40000 139.387
57.57000 125.769
57.74000 129.076
57.91000 129.044
58.08000 125.106
58.25000 126.097
58.42000 130.189
58.59000 123.011
58.76000 122.002
58.93000 128.591
59.10000 122.786
59.27000 121.456
59.44000 116.500
59.61000 109.069
59.78000 122.946
59.95000 115.344
60.12000 121.997
60.29000 123.032
60.46000 119.505
60.63000 115.730
60.80000 125.019
60.97000 124.040
61.14000 122.167
61.31000 119.992
61.48000 130.876
61.65000 347.276
61.82000 227.422
61.99000 133.097
62.16000 134.149
62.33000 139.749
62.50000 139.792
62.67000 141.167
62.84000 133.232
63.01000 144.432
63.18000 143.230
63.35000 132.110
63.52000 144.358
63.69000 140.743
63.86000 143.263
64.03000 145.445
64.20000 165.506
64.37000 153.198
64.54000 161.924
64.71000 173.206
64.88000 191.152
65.05000 207.344
65.22000 236.104
65.39000 327.740
65.56000 477.546
65.73000 1424.339
65.90000 2500.402
66.07000 612.748
66.24000 485.380
66.41000 772.244
66.58000 484.517
66.75000 386.455
66.92000 401.196
67.09000 427.889
67.26000 439.095
67.43000 495.444
67.60000 500.586
67.77000 533.039
67.94000 542.309
68.11000 589.631
68.28000 656.453
68.45000 776.438
68.62000 1111.609
68.79000 2044.113
68.96000 13477.938
69.13000 59743.371
69.30000 32186.764
69.47000 7568.238
69.64000 1071.858
69.81000 686.450
69.98000 563.715
70.00000 562.867