File: XRD/XRD/09-10-2025 Dep 8/XY Data/BTO_Mapping_Theta2Theta_09-10-2025_001_51_6-180_-19-021.xy
20.00000 496.528
20.17000 489.395
20.34000 480.773
20.51000 480.912
20.68000 485.740
20.85000 485.554
21.02000 493.660
21.19000 483.846
21.36000 478.905
21.53000 490.737
21.70000 491.627
21.87000 540.378
22.04000 650.899
22.21000 620.829
22.38000 539.290
22.55000 479.685
22.72000 459.898
22.89000 456.794
23.06000 442.147
23.23000 431.807
23.40000 427.121
23.57000 426.462
23.74000 431.293
23.91000 432.708
24.08000 431.487
24.25000 421.710
24.42000 432.749
24.59000 444.268
24.76000 417.229
24.93000 410.560
25.10000 417.563
25.27000 416.100
25.44000 391.246
25.61000 407.097
25.78000 396.717
25.95000 386.830
26.12000 392.798
26.29000 394.418
26.46000 386.836
26.63000 397.901
26.80000 390.271
26.97000 379.491
27.14000 398.737
27.31000 374.668
27.48000 381.564
27.65000 405.802
27.82000 377.554
27.99000 365.766
28.16000 379.619
28.33000 361.429
28.50000 369.968
28.67000 366.182
28.84000 361.483
29.01000 369.250
29.18000 368.334
29.35000 368.101
29.52000 374.287
29.69000 370.353
29.86000 407.127
30.03000 470.911
30.20000 473.135
30.37000 402.748
30.54000 413.716
30.71000 409.495
30.88000 465.860
31.05000 631.106
31.22000 1564.710
31.39000 3139.352
31.56000 1993.421
31.73000 749.346
31.90000 448.677
32.07000 376.030
32.24000 335.858
32.41000 342.869
32.58000 341.570
32.75000 326.676
32.92000 321.922
33.09000 323.299
33.26000 311.768
33.43000 300.371
33.60000 301.115
33.77000 313.086
33.94000 300.418
34.11000 294.562
34.28000 277.830
34.45000 294.170
34.62000 294.969
34.79000 279.053
34.96000 290.572
35.13000 278.879
35.30000 288.715
35.47000 262.835
35.64000 269.746
35.81000 272.600
35.98000 268.713
36.15000 260.586
36.32000 268.968
36.49000 268.653
36.66000 249.157
36.83000 269.846
37.00000 292.657
37.17000 293.034
37.34000 268.997
37.51000 254.315
37.68000 254.031
37.85000 255.591
38.02000 266.022
38.19000 280.126
38.36000 323.910
38.53000 554.844
38.70000 1071.439
38.87000 786.238
39.04000 342.678
39.21000 270.785
39.38000 252.522
39.55000 245.161
39.72000 235.811
39.89000 239.101
40.06000 239.806
40.23000 239.473
40.40000 222.967
40.57000 222.440
40.74000 225.070
40.91000 231.480
41.08000 221.693
41.25000 203.483
41.42000 207.490
41.59000 215.881
41.76000 215.234
41.93000 214.306
42.10000 197.052
42.27000 205.276
42.44000 206.789
42.61000 202.469
42.78000 203.172
42.95000 210.784
43.12000 200.782
43.29000 210.100
43.46000 203.838
43.63000 190.463
43.80000 192.719
43.97000 198.901
44.14000 194.659
44.31000 191.328
44.48000 203.247
44.65000 204.616
44.82000 229.980
44.99000 286.262
45.16000 331.721
45.33000 316.429
45.50000 254.198
45.67000 225.632
45.84000 204.412
46.01000 194.407
46.18000 186.731
46.35000 178.292
46.52000 184.973
46.69000 176.065
46.86000 181.334
47.03000 175.707
47.20000 163.457
47.37000 164.013
47.54000 167.952
47.71000 164.198
47.88000 167.488
48.05000 157.165
48.22000 158.506
48.39000 158.909
48.56000 163.358
48.73000 165.725
48.90000 155.618
49.07000 166.883
49.24000 158.378
49.41000 138.892
49.58000 156.260
49.75000 152.693
49.92000 149.757
50.09000 153.833
50.26000 153.562
50.43000 181.048
50.60000 204.786
50.77000 239.486
50.94000 211.789
51.11000 178.698
51.28000 162.622
51.45000 153.851
51.62000 151.561
51.79000 150.769
51.96000 150.121
52.13000 147.946
52.30000 144.907
52.47000 136.202
52.64000 148.481
52.81000 151.515
52.98000 135.794
53.15000 140.303
53.32000 154.883
53.49000 155.674
53.66000 150.038
53.83000 136.878
54.00000 139.150
54.17000 134.953
54.34000 125.762
54.51000 140.586
54.68000 137.986
54.85000 142.625
55.02000 131.219
55.19000 140.219
55.36000 163.372
55.53000 180.104
55.70000 260.595
55.87000 477.979
56.04000 548.927
56.21000 352.105
56.38000 219.452
56.55000 174.129
56.72000 148.045
56.89000 135.759
57.06000 139.695
57.23000 143.849
57.40000 132.707
57.57000 133.768
57.74000 120.350
57.91000 127.772
58.08000 116.724
58.25000 122.577
58.42000 126.411
58.59000 116.144
58.76000 115.045
58.93000 117.735
59.10000 114.859
59.27000 118.546
59.44000 116.446
59.61000 114.128
59.78000 120.880
59.95000 120.719
60.12000 112.647
60.29000 122.638
60.46000 119.774
60.63000 114.134
60.80000 123.027
60.97000 121.473
61.14000 114.544
61.31000 118.536
61.48000 146.059
61.65000 346.766
61.82000 212.255
61.99000 129.703
62.16000 126.887
62.33000 136.337
62.50000 140.370
62.67000 131.086
62.84000 147.176
63.01000 152.856
63.18000 138.218
63.35000 142.289
63.52000 151.802
63.69000 141.599
63.86000 141.577
64.03000 153.310
64.20000 145.269
64.37000 166.855
64.54000 170.918
64.71000 188.887
64.88000 196.282
65.05000 205.054
65.22000 250.095
65.39000 346.923
65.56000 499.233
65.73000 1477.239
65.90000 2598.716
66.07000 624.126
66.24000 495.395
66.41000 789.438
66.58000 500.022
66.75000 391.604
66.92000 417.717
67.09000 433.611
67.26000 450.931
67.43000 484.599
67.60000 522.452
67.77000 529.749
67.94000 549.376
68.11000 615.318
68.28000 684.600
68.45000 757.701
68.62000 1132.513
68.79000 2164.358
68.96000 14695.515
69.13000 63460.723
69.30000 34261.363
69.47000 7815.326
69.64000 1136.321
69.81000 707.919
69.98000 575.286
70.00000 568.162