File: XRD/XRD/09-10-2025 Dep 8/XY Data/BTO_Mapping_Theta2Theta_09-10-2025_001_26_-8-090_5-878.xy
20.00000 513.637
20.17000 485.246
20.34000 480.891
20.51000 489.092
20.68000 470.663
20.85000 472.530
21.02000 477.614
21.19000 477.066
21.36000 494.487
21.53000 486.391
21.70000 502.741
21.87000 566.603
22.04000 660.308
22.21000 611.165
22.38000 512.701
22.55000 465.711
22.72000 469.714
22.89000 432.695
23.06000 449.937
23.23000 445.112
23.40000 434.734
23.57000 438.641
23.74000 436.648
23.91000 418.866
24.08000 422.866
24.25000 418.175
24.42000 407.142
24.59000 422.857
24.76000 405.350
24.93000 411.175
25.10000 414.138
25.27000 423.349
25.44000 405.790
25.61000 413.146
25.78000 385.538
25.95000 407.663
26.12000 389.152
26.29000 401.695
26.46000 392.809
26.63000 383.423
26.80000 397.383
26.97000 388.298
27.14000 381.934
27.31000 389.758
27.48000 385.965
27.65000 383.345
27.82000 382.801
27.99000 384.153
28.16000 377.530
28.33000 378.694
28.50000 368.412
28.67000 364.042
28.84000 371.344
29.01000 383.972
29.18000 368.010
29.35000 351.368
29.52000 371.370
29.69000 369.264
29.86000 411.750
30.03000 478.922
30.20000 439.521
30.37000 400.154
30.54000 395.738
30.71000 408.039
30.88000 450.929
31.05000 632.204
31.22000 1616.842
31.39000 3101.893
31.56000 1847.492
31.73000 708.039
31.90000 450.622
32.07000 381.156
32.24000 374.679
32.41000 345.116
32.58000 344.807
32.75000 333.450
32.92000 326.246
33.09000 305.163
33.26000 315.369
33.43000 308.762
33.60000 303.523
33.77000 295.821
33.94000 308.452
34.11000 299.354
34.28000 277.860
34.45000 298.078
34.62000 291.170
34.79000 278.474
34.96000 290.973
35.13000 272.108
35.30000 271.024
35.47000 278.020
35.64000 277.590
35.81000 274.930
35.98000 257.608
36.15000 273.440
36.32000 270.892
36.49000 254.051
36.66000 270.521
36.83000 284.555
37.00000 277.071
37.17000 284.908
37.34000 267.105
37.51000 261.805
37.68000 267.885
37.85000 266.556
38.02000 266.606
38.19000 284.219
38.36000 324.156
38.53000 587.364
38.70000 1034.400
38.87000 694.603
39.04000 332.995
39.21000 262.502
39.38000 267.591
39.55000 244.413
39.72000 235.996
39.89000 222.569
40.06000 227.021
40.23000 218.478
40.40000 228.269
40.57000 237.076
40.74000 219.447
40.91000 231.110
41.08000 220.646
41.25000 215.726
41.42000 218.091
41.59000 214.199
41.76000 217.615
41.93000 212.015
42.10000 227.495
42.27000 204.708
42.44000 213.160
42.61000 197.236
42.78000 205.738
42.95000 208.369
43.12000 204.328
43.29000 208.813
43.46000 218.115
43.63000 206.552
43.80000 203.241
43.97000 204.949
44.14000 203.349
44.31000 195.012
44.48000 198.892
44.65000 211.223
44.82000 266.194
44.99000 340.465
45.16000 366.337
45.33000 309.457
45.50000 245.944
45.67000 229.105
45.84000 210.509
46.01000 188.975
46.18000 180.424
46.35000 170.382
46.52000 165.956
46.69000 170.392
46.86000 169.789
47.03000 166.986
47.20000 176.799
47.37000 160.246
47.54000 173.210
47.71000 178.131
47.88000 163.532
48.05000 168.028
48.22000 163.517
48.39000 162.307
48.56000 169.278
48.73000 158.104
48.90000 158.786
49.07000 155.195
49.24000 154.624
49.41000 159.579
49.58000 153.915
49.75000 167.462
49.92000 162.693
50.09000 159.898
50.26000 165.254
50.43000 170.327
50.60000 206.700
50.77000 240.645
50.94000 199.849
51.11000 178.900
51.28000 162.861
51.45000 149.431
51.62000 159.273
51.79000 150.245
51.96000 139.097
52.13000 139.246
52.30000 144.535
52.47000 136.036
52.64000 146.594
52.81000 139.460
52.98000 145.822
53.15000 141.053
53.32000 148.479
53.49000 158.293
53.66000 149.921
53.83000 142.892
54.00000 138.193
54.17000 138.517
54.34000 148.720
54.51000 138.482
54.68000 145.358
54.85000 143.288
55.02000 149.320
55.19000 151.370
55.36000 147.994
55.53000 192.997
55.70000 284.770
55.87000 539.770
56.04000 565.768
56.21000 346.126
56.38000 220.265
56.55000 173.592
56.72000 149.026
56.89000 141.049
57.06000 141.535
57.23000 136.891
57.40000 142.424
57.57000 127.286
57.74000 128.435
57.91000 128.696
58.08000 130.698
58.25000 128.520
58.42000 130.270
58.59000 118.831
58.76000 117.558
58.93000 122.944
59.10000 121.468
59.27000 121.594
59.44000 117.861
59.61000 132.053
59.78000 121.158
59.95000 119.637
60.12000 114.712
60.29000 125.717
60.46000 109.498
60.63000 116.291
60.80000 124.700
60.97000 111.798
61.14000 123.794
61.31000 124.539
61.48000 131.214
61.65000 411.257
61.82000 227.470
61.99000 137.364
62.16000 130.225
62.33000 142.831
62.50000 137.148
62.67000 143.357
62.84000 140.158
63.01000 142.687
63.18000 130.354
63.35000 144.632
63.52000 148.635
63.69000 144.839
63.86000 156.664
64.03000 162.704
64.20000 169.988
64.37000 170.723
64.54000 176.002
64.71000 183.599
64.88000 193.521
65.05000 214.169
65.22000 265.005
65.39000 351.941
65.56000 530.760
65.73000 1653.113
65.90000 2890.394
66.07000 667.220
66.24000 538.150
66.41000 859.527
66.58000 527.625
66.75000 427.280
66.92000 439.303
67.09000 467.525
67.26000 475.585
67.43000 497.344
67.60000 527.155
67.77000 574.887
67.94000 583.225
68.11000 647.638
68.28000 697.557
68.45000 815.856
68.62000 1193.459
68.79000 2366.293
68.96000 17153.869
69.13000 71239.250
69.30000 37853.766
69.47000 8524.471
69.64000 1178.877
69.81000 769.733
69.98000 588.689
70.00000 586.768