File: XRD/XRD/09-10-2025 Dep 8/XY Data/BTO_Mapping_Theta2Theta_09-10-2025_001_16_9-271_28-532.xy
20.00000 483.959
20.17000 476.426
20.34000 459.234
20.51000 466.240
20.68000 484.276
20.85000 480.035
21.02000 464.312
21.19000 470.651
21.36000 467.794
21.53000 482.112
21.70000 482.278
21.87000 520.929
22.04000 583.692
22.21000 585.662
22.38000 540.323
22.55000 474.514
22.72000 462.985
22.89000 424.036
23.06000 425.934
23.23000 436.400
23.40000 437.184
23.57000 437.833
23.74000 429.239
23.91000 452.487
24.08000 445.952
24.25000 426.417
24.42000 426.650
24.59000 407.912
24.76000 413.090
24.93000 404.797
25.10000 401.708
25.27000 411.961
25.44000 384.542
25.61000 398.865
25.78000 386.674
25.95000 409.395
26.12000 390.874
26.29000 389.650
26.46000 391.094
26.63000 376.962
26.80000 389.088
26.97000 390.768
27.14000 373.418
27.31000 372.916
27.48000 371.719
27.65000 377.045
27.82000 365.834
27.99000 380.026
28.16000 366.607
28.33000 386.741
28.50000 377.567
28.67000 366.123
28.84000 360.797
29.01000 353.598
29.18000 359.343
29.35000 352.263
29.52000 353.083
29.69000 357.486
29.86000 380.301
30.03000 421.218
30.20000 407.047
30.37000 392.071
30.54000 387.196
30.71000 386.335
30.88000 431.724
31.05000 506.252
31.22000 1003.444
31.39000 2308.981
31.56000 1831.921
31.73000 753.169
31.90000 463.871
32.07000 387.335
32.24000 353.618
32.41000 349.793
32.58000 338.761
32.75000 326.871
32.92000 303.855
33.09000 319.771
33.26000 313.184
33.43000 304.550
33.60000 289.179
33.77000 300.603
33.94000 289.450
34.11000 281.297
34.28000 296.109
34.45000 306.391
34.62000 276.315
34.79000 273.027
34.96000 282.905
35.13000 268.749
35.30000 274.715
35.47000 263.246
35.64000 265.633
35.81000 275.295
35.98000 257.996
36.15000 246.369
36.32000 263.211
36.49000 260.120
36.66000 256.798
36.83000 258.145
37.00000 274.710
37.17000 281.543
37.34000 264.148
37.51000 272.055
37.68000 270.930
37.85000 254.495
38.02000 256.286
38.19000 269.157
38.36000 276.439
38.53000 423.675
38.70000 945.495
38.87000 923.757
39.04000 388.411
39.21000 265.520
39.38000 243.636
39.55000 243.212
39.72000 231.192
39.89000 227.448
40.06000 223.096
40.23000 221.112
40.40000 216.802
40.57000 223.100
40.74000 222.450
40.91000 224.825
41.08000 216.954
41.25000 218.352
41.42000 206.714
41.59000 214.353
41.76000 205.496
41.93000 212.365
42.10000 202.073
42.27000 195.908
42.44000 240.102
42.61000 198.462
42.78000 197.043
42.95000 201.219
43.12000 205.886
43.29000 183.247
43.46000 206.912
43.63000 187.822
43.80000 188.277
43.97000 190.661
44.14000 194.360
44.31000 196.031
44.48000 198.969
44.65000 199.910
44.82000 212.944
44.99000 239.799
45.16000 286.222
45.33000 279.405
45.50000 241.005
45.67000 242.647
45.84000 206.140
46.01000 210.944
46.18000 191.425
46.35000 189.486
46.52000 172.606
46.69000 172.834
46.86000 174.631
47.03000 161.703
47.20000 169.138
47.37000 157.780
47.54000 165.786
47.71000 163.041
47.88000 169.325
48.05000 156.468
48.22000 162.750
48.39000 156.282
48.56000 162.813
48.73000 152.003
48.90000 155.328
49.07000 168.768
49.24000 153.950
49.41000 159.980
49.58000 157.559
49.75000 176.645
49.92000 152.754
50.09000 148.126
50.26000 165.650
50.43000 165.036
50.60000 185.574
50.77000 220.430
50.94000 200.848
51.11000 175.178
51.28000 159.535
51.45000 159.327
51.62000 139.715
51.79000 142.450
51.96000 147.980
52.13000 139.276
52.30000 135.692
52.47000 144.400
52.64000 151.155
52.81000 139.633
52.98000 148.844
53.15000 147.947
53.32000 149.293
53.49000 143.988
53.66000 144.349
53.83000 141.526
54.00000 143.648
54.17000 134.122
54.34000 137.953
54.51000 125.953
54.68000 131.055
54.85000 139.177
55.02000 145.823
55.19000 134.793
55.36000 161.873
55.53000 162.477
55.70000 235.164
55.87000 402.974
56.04000 546.198
56.21000 445.328
56.38000 257.928
56.55000 179.523
56.72000 137.753
56.89000 149.882
57.06000 135.396
57.23000 137.769
57.40000 128.842
57.57000 123.728
57.74000 122.115
57.91000 124.931
58.08000 124.160
58.25000 126.419
58.42000 119.758
58.59000 125.040
58.76000 117.687
58.93000 110.717
59.10000 121.412
59.27000 111.291
59.44000 119.921
59.61000 123.086
59.78000 122.150
59.95000 120.852
60.12000 114.941
60.29000 121.311
60.46000 125.714
60.63000 120.675
60.80000 124.018
60.97000 108.924
61.14000 132.835
61.31000 131.496
61.48000 133.252
61.65000 326.851
61.82000 196.158
61.99000 133.071
62.16000 137.157
62.33000 136.947
62.50000 132.477
62.67000 119.978
62.84000 129.555
63.01000 134.952
63.18000 132.275
63.35000 134.521
63.52000 140.370
63.69000 144.756
63.86000 141.828
64.03000 149.722
64.20000 160.695
64.37000 154.002
64.54000 166.900
64.71000 162.213
64.88000 185.026
65.05000 196.832
65.22000 219.804
65.39000 285.575
65.56000 429.516
65.73000 1282.085
65.90000 2306.004
66.07000 582.933
66.24000 433.221
66.41000 716.270
66.58000 467.660
66.75000 378.098
66.92000 393.015
67.09000 396.942
67.26000 420.046
67.43000 445.626
67.60000 478.668
67.77000 485.012
67.94000 525.687
68.11000 556.927
68.28000 627.634
68.45000 692.200
68.62000 1036.464
68.79000 1899.936
68.96000 11755.381
69.13000 54821.555
69.30000 30038.070
69.47000 7228.467
69.64000 1057.531
69.81000 671.623
69.98000 540.260
70.00000 524.599