File: XRD/XRD/09-10-2025 Dep 8/XY Data/BTO_Mapping_Theta2Theta_09-10-2025_001_46_-1-045_-9-945.xy
20.00000 480.246
20.17000 499.555
20.34000 488.207
20.51000 487.647
20.68000 474.598
20.85000 498.703
21.02000 488.616
21.19000 489.674
21.36000 476.629
21.53000 476.148
21.70000 497.833
21.87000 562.701
22.04000 651.837
22.21000 618.361
22.38000 522.006
22.55000 482.495
22.72000 450.769
22.89000 450.338
23.06000 463.256
23.23000 430.065
23.40000 439.658
23.57000 425.906
23.74000 445.185
23.91000 434.898
24.08000 430.816
24.25000 420.720
24.42000 431.857
24.59000 414.777
24.76000 430.250
24.93000 413.219
25.10000 417.556
25.27000 397.410
25.44000 393.178
25.61000 408.348
25.78000 392.830
25.95000 421.618
26.12000 401.664
26.29000 367.488
26.46000 396.757
26.63000 405.926
26.80000 367.481
26.97000 390.078
27.14000 381.070
27.31000 377.427
27.48000 380.213
27.65000 373.368
27.82000 376.354
27.99000 373.990
28.16000 379.409
28.33000 388.336
28.50000 377.765
28.67000 351.621
28.84000 346.780
29.01000 374.735
29.18000 350.317
29.35000 371.734
29.52000 356.200
29.69000 393.323
29.86000 407.618
30.03000 460.028
30.20000 433.973
30.37000 406.445
30.54000 410.560
30.71000 436.541
30.88000 453.497
31.05000 661.663
31.22000 1692.259
31.39000 3166.569
31.56000 1860.329
31.73000 685.799
31.90000 468.429
32.07000 390.338
32.24000 360.107
32.41000 346.222
32.58000 339.256
32.75000 333.411
32.92000 334.380
33.09000 325.478
33.26000 311.283
33.43000 322.358
33.60000 293.794
33.77000 306.028
33.94000 294.998
34.11000 293.907
34.28000 290.468
34.45000 295.672
34.62000 295.612
34.79000 290.142
34.96000 271.691
35.13000 289.786
35.30000 283.408
35.47000 282.578
35.64000 268.716
35.81000 274.560
35.98000 263.510
36.15000 258.400
36.32000 262.740
36.49000 268.495
36.66000 277.058
36.83000 283.787
37.00000 297.796
37.17000 282.095
37.34000 273.618
37.51000 278.137
37.68000 262.577
37.85000 250.199
38.02000 274.932
38.19000 296.648
38.36000 320.668
38.53000 588.601
38.70000 1057.758
38.87000 708.952
39.04000 372.661
39.21000 253.078
39.38000 260.248
39.55000 251.842
39.72000 237.090
39.89000 241.211
40.06000 220.735
40.23000 232.703
40.40000 231.679
40.57000 212.466
40.74000 225.512
40.91000 225.978
41.08000 226.409
41.25000 222.265
41.42000 219.768
41.59000 213.679
41.76000 214.326
41.93000 211.293
42.10000 191.593
42.27000 219.551
42.44000 205.982
42.61000 197.858
42.78000 202.698
42.95000 208.559
43.12000 203.212
43.29000 200.716
43.46000 200.678
43.63000 196.782
43.80000 188.762
43.97000 197.412
44.14000 196.019
44.31000 194.216
44.48000 206.863
44.65000 220.479
44.82000 263.930
44.99000 340.491
45.16000 353.070
45.33000 313.343
45.50000 261.762
45.67000 213.745
45.84000 204.978
46.01000 172.411
46.18000 180.957
46.35000 172.330
46.52000 173.208
46.69000 178.210
46.86000 181.063
47.03000 169.106
47.20000 172.956
47.37000 167.717
47.54000 160.806
47.71000 168.673
47.88000 172.865
48.05000 156.759
48.22000 148.655
48.39000 164.676
48.56000 160.475
48.73000 161.763
48.90000 169.048
49.07000 154.203
49.24000 165.941
49.41000 147.444
49.58000 156.917
49.75000 155.975
49.92000 155.553
50.09000 147.326
50.26000 161.546
50.43000 173.438
50.60000 206.692
50.77000 239.389
50.94000 198.715
51.11000 163.919
51.28000 160.827
51.45000 143.703
51.62000 144.404
51.79000 151.428
51.96000 144.627
52.13000 140.611
52.30000 143.231
52.47000 142.803
52.64000 140.092
52.81000 140.607
52.98000 140.529
53.15000 145.440
53.32000 159.325
53.49000 162.487
53.66000 143.747
53.83000 141.751
54.00000 124.399
54.17000 135.693
54.34000 146.327
54.51000 132.174
54.68000 145.570
54.85000 134.494
55.02000 149.581
55.19000 146.698
55.36000 164.266
55.53000 184.814
55.70000 267.482
55.87000 511.209
56.04000 524.961
56.21000 350.849
56.38000 214.296
56.55000 170.446
56.72000 148.996
56.89000 142.232
57.06000 132.474
57.23000 143.827
57.40000 132.811
57.57000 125.124
57.74000 127.232
57.91000 128.414
58.08000 126.828
58.25000 125.370
58.42000 119.989
58.59000 124.592
58.76000 126.740
58.93000 120.902
59.10000 123.185
59.27000 118.722
59.44000 113.165
59.61000 120.269
59.78000 118.077
59.95000 120.426
60.12000 118.152
60.29000 122.802
60.46000 111.053
60.63000 122.392
60.80000 115.597
60.97000 116.288
61.14000 127.994
61.31000 121.130
61.48000 143.765
61.65000 381.737
61.82000 229.459
61.99000 139.553
62.16000 128.729
62.33000 131.013
62.50000 124.421
62.67000 141.608
62.84000 132.201
63.01000 139.682
63.18000 144.644
63.35000 132.577
63.52000 151.229
63.69000 148.553
63.86000 151.456
64.03000 149.089
64.20000 161.690
64.37000 167.478
64.54000 175.263
64.71000 172.548
64.88000 191.412
65.05000 220.364
65.22000 267.252
65.39000 356.460
65.56000 524.189
65.73000 1620.080
65.90000 2844.076
66.07000 640.642
66.24000 512.362
66.41000 838.987
66.58000 507.547
66.75000 417.062
66.92000 426.607
67.09000 460.231
67.26000 488.524
67.43000 472.961
67.60000 530.330
67.77000 573.647
67.94000 576.335
68.11000 622.026
68.28000 701.844
68.45000 811.806
68.62000 1200.903
68.79000 2283.063
68.96000 16558.918
69.13000 69064.070
69.30000 36656.320
69.47000 8142.272
69.64000 1169.598
69.81000 731.441
69.98000 574.886
70.00000 579.382