File: XRD/XRD/09-10-2025 Dep 8/XY Data/BTO_Mapping_Theta2Theta_09-10-2025_001_57_26-765_-29-726.xy
20.00000 490.911
20.17000 475.657
20.34000 480.254
20.51000 484.208
20.68000 482.461
20.85000 468.265
21.02000 475.518
21.19000 484.301
21.36000 481.095
21.53000 478.943
21.70000 484.780
21.87000 521.089
22.04000 551.963
22.21000 575.762
22.38000 518.656
22.55000 491.593
22.72000 464.043
22.89000 461.988
23.06000 442.637
23.23000 448.566
23.40000 444.977
23.57000 447.812
23.74000 454.375
23.91000 446.025
24.08000 433.272
24.25000 435.664
24.42000 427.926
24.59000 426.265
24.76000 405.730
24.93000 427.181
25.10000 398.379
25.27000 414.053
25.44000 406.611
25.61000 399.628
25.78000 393.433
25.95000 400.189
26.12000 390.367
26.29000 389.923
26.46000 387.475
26.63000 386.172
26.80000 372.108
26.97000 384.756
27.14000 375.354
27.31000 369.371
27.48000 373.137
27.65000 381.811
27.82000 366.366
27.99000 348.771
28.16000 373.582
28.33000 368.692
28.50000 372.979
28.67000 365.920
28.84000 335.361
29.01000 352.662
29.18000 364.403
29.35000 346.080
29.52000 344.688
29.69000 342.466
29.86000 380.300
30.03000 428.695
30.20000 418.377
30.37000 388.760
30.54000 392.216
30.71000 391.994
30.88000 414.619
31.05000 485.662
31.22000 1032.421
31.39000 2238.353
31.56000 1778.675
31.73000 756.116
31.90000 467.150
32.07000 361.805
32.24000 347.758
32.41000 329.619
32.58000 326.624
32.75000 328.424
32.92000 308.108
33.09000 315.648
33.26000 301.906
33.43000 305.664
33.60000 306.590
33.77000 296.510
33.94000 297.688
34.11000 300.896
34.28000 285.273
34.45000 281.104
34.62000 275.881
34.79000 296.334
34.96000 280.956
35.13000 271.459
35.30000 275.355
35.47000 272.868
35.64000 267.782
35.81000 275.828
35.98000 262.170
36.15000 259.283
36.32000 257.430
36.49000 269.673
36.66000 246.629
36.83000 271.715
37.00000 288.428
37.17000 294.143
37.34000 252.733
37.51000 262.398
37.68000 268.060
37.85000 264.081
38.02000 256.876
38.19000 268.581
38.36000 290.623
38.53000 440.771
38.70000 1012.211
38.87000 996.581
39.04000 408.083
39.21000 282.533
39.38000 254.598
39.55000 238.712
39.72000 236.548
39.89000 235.978
40.06000 237.103
40.23000 219.373
40.40000 208.111
40.57000 222.711
40.74000 226.594
40.91000 216.884
41.08000 221.940
41.25000 216.030
41.42000 206.328
41.59000 211.292
41.76000 216.123
41.93000 213.904
42.10000 201.485
42.27000 212.687
42.44000 193.734
42.61000 210.523
42.78000 201.277
42.95000 194.809
43.12000 199.356
43.29000 201.176
43.46000 197.906
43.63000 211.242
43.80000 188.433
43.97000 193.823
44.14000 191.951
44.31000 190.716
44.48000 210.826
44.65000 213.937
44.82000 220.408
44.99000 241.223
45.16000 259.547
45.33000 275.595
45.50000 253.047
45.67000 225.284
45.84000 204.536
46.01000 202.119
46.18000 182.530
46.35000 176.896
46.52000 185.591
46.69000 178.070
46.86000 171.944
47.03000 166.726
47.20000 173.035
47.37000 158.679
47.54000 158.885
47.71000 163.959
47.88000 157.474
48.05000 169.744
48.22000 165.504
48.39000 152.890
48.56000 152.878
48.73000 161.855
48.90000 159.270
49.07000 155.602
49.24000 158.783
49.41000 154.321
49.58000 154.416
49.75000 143.381
49.92000 164.825
50.09000 148.984
50.26000 154.548
50.43000 160.875
50.60000 184.159
50.77000 205.260
50.94000 200.994
51.11000 178.939
51.28000 155.596
51.45000 145.541
51.62000 153.430
51.79000 143.253
51.96000 148.069
52.13000 142.096
52.30000 148.480
52.47000 131.120
52.64000 140.985
52.81000 148.278
52.98000 144.646
53.15000 141.301
53.32000 151.632
53.49000 159.345
53.66000 146.656
53.83000 148.426
54.00000 142.605
54.17000 133.502
54.34000 133.834
54.51000 135.723
54.68000 138.701
54.85000 139.916
55.02000 134.538
55.19000 146.305
55.36000 149.289
55.53000 168.959
55.70000 228.307
55.87000 369.573
56.04000 545.344
56.21000 425.580
56.38000 243.922
56.55000 174.198
56.72000 153.213
56.89000 134.427
57.06000 122.792
57.23000 133.076
57.40000 131.487
57.57000 121.039
57.74000 119.803
57.91000 118.733
58.08000 117.982
58.25000 119.627
58.42000 123.883
58.59000 129.750
58.76000 127.399
58.93000 121.352
59.10000 123.589
59.27000 115.562
59.44000 125.029
59.61000 124.277
59.78000 123.318
59.95000 126.281
60.12000 109.722
60.29000 128.203
60.46000 121.898
60.63000 121.250
60.80000 116.225
60.97000 118.777
61.14000 118.907
61.31000 124.039
61.48000 134.099
61.65000 315.389
61.82000 209.857
61.99000 141.681
62.16000 131.183
62.33000 129.165
62.50000 132.744
62.67000 138.314
62.84000 142.064
63.01000 130.535
63.18000 140.964
63.35000 136.097
63.52000 142.417
63.69000 142.302
63.86000 142.274
64.03000 145.206
64.20000 150.186
64.37000 167.933
64.54000 174.883
64.71000 179.185
64.88000 181.984
65.05000 204.563
65.22000 218.893
65.39000 268.944
65.56000 423.179
65.73000 1229.160
65.90000 2334.554
66.07000 589.981
66.24000 464.658
66.41000 735.934
66.58000 450.632
66.75000 377.363
66.92000 389.227
67.09000 405.755
67.26000 429.207
67.43000 441.915
67.60000 477.027
67.77000 486.371
67.94000 532.254
68.11000 579.793
68.28000 626.745
68.45000 745.652
68.62000 1017.656
68.79000 1927.687
68.96000 11450.046
69.13000 54789.734
69.30000 30129.732
69.47000 7373.066
69.64000 1066.955
69.81000 677.974
69.98000 558.501
70.00000 553.452