File: XRD/XRD/09-10-2025 Dep 8/XY Data/BTO_Mapping_Theta2Theta_09-10-2025_001_43_-10-000_-17-321.xy
20.00000 497.878
20.17000 475.796
20.34000 488.832
20.51000 488.025
20.68000 477.790
20.85000 475.678
21.02000 459.938
21.19000 489.985
21.36000 455.033
21.53000 480.618
21.70000 517.046
21.87000 595.827
22.04000 704.129
22.21000 625.198
22.38000 521.525
22.55000 485.284
22.72000 453.336
22.89000 464.261
23.06000 449.993
23.23000 438.412
23.40000 439.890
23.57000 440.850
23.74000 425.643
23.91000 415.168
24.08000 435.584
24.25000 418.991
24.42000 426.273
24.59000 417.504
24.76000 411.722
24.93000 419.612
25.10000 419.047
25.27000 424.144
25.44000 398.268
25.61000 403.240
25.78000 403.746
25.95000 400.621
26.12000 373.273
26.29000 409.505
26.46000 404.889
26.63000 387.033
26.80000 402.654
26.97000 392.289
27.14000 364.562
27.31000 384.917
27.48000 380.350
27.65000 380.622
27.82000 375.453
27.99000 374.633
28.16000 380.177
28.33000 373.885
28.50000 362.823
28.67000 369.765
28.84000 354.518
29.01000 365.636
29.18000 360.322
29.35000 348.960
29.52000 372.356
29.69000 370.333
29.86000 401.348
30.03000 449.502
30.20000 434.787
30.37000 402.964
30.54000 427.305
30.71000 424.397
30.88000 436.157
31.05000 634.158
31.22000 1630.315
31.39000 2996.597
31.56000 1708.903
31.73000 682.521
31.90000 420.420
32.07000 376.839
32.24000 355.107
32.41000 335.059
32.58000 340.080
32.75000 324.288
32.92000 315.510
33.09000 301.978
33.26000 318.250
33.43000 301.135
33.60000 313.040
33.77000 293.328
33.94000 297.474
34.11000 304.707
34.28000 288.934
34.45000 298.888
34.62000 277.555
34.79000 296.656
34.96000 274.331
35.13000 280.112
35.30000 266.476
35.47000 273.666
35.64000 273.674
35.81000 272.867
35.98000 274.818
36.15000 263.061
36.32000 262.048
36.49000 267.194
36.66000 261.019
36.83000 269.351
37.00000 291.647
37.17000 260.460
37.34000 264.514
37.51000 280.496
37.68000 267.258
37.85000 276.592
38.02000 246.378
38.19000 303.704
38.36000 331.434
38.53000 589.955
38.70000 895.268
38.87000 598.381
39.04000 328.869
39.21000 292.168
39.38000 255.752
39.55000 246.398
39.72000 238.866
39.89000 232.220
40.06000 234.745
40.23000 236.109
40.40000 219.459
40.57000 233.650
40.74000 215.839
40.91000 223.929
41.08000 220.207
41.25000 218.658
41.42000 213.451
41.59000 214.360
41.76000 220.015
41.93000 213.309
42.10000 203.901
42.27000 211.843
42.44000 204.863
42.61000 204.630
42.78000 220.063
42.95000 210.178
43.12000 207.508
43.29000 202.840
43.46000 205.946
43.63000 197.330
43.80000 188.110
43.97000 199.161
44.14000 212.344
44.31000 202.860
44.48000 214.052
44.65000 243.509
44.82000 309.307
44.99000 406.875
45.16000 391.457
45.33000 312.158
45.50000 246.953
45.67000 230.904
45.84000 206.892
46.01000 192.074
46.18000 180.489
46.35000 181.225
46.52000 178.807
46.69000 186.736
46.86000 172.385
47.03000 160.927
47.20000 172.571
47.37000 173.568
47.54000 170.735
47.71000 165.842
47.88000 149.528
48.05000 161.169
48.22000 163.250
48.39000 171.665
48.56000 170.079
48.73000 156.241
48.90000 161.531
49.07000 156.789
49.24000 154.885
49.41000 158.933
49.58000 157.891
49.75000 173.500
49.92000 166.224
50.09000 156.227
50.26000 171.831
50.43000 193.490
50.60000 221.420
50.77000 242.153
50.94000 211.965
51.11000 179.748
51.28000 163.826
51.45000 159.128
51.62000 157.753
51.79000 145.896
51.96000 142.781
52.13000 150.860
52.30000 138.754
52.47000 157.841
52.64000 152.349
52.81000 141.790
52.98000 141.547
53.15000 136.718
53.32000 151.800
53.49000 152.747
53.66000 151.148
53.83000 137.835
54.00000 141.065
54.17000 137.594
54.34000 144.102
54.51000 138.987
54.68000 137.476
54.85000 144.309
55.02000 146.574
55.19000 154.693
55.36000 172.032
55.53000 205.729
55.70000 317.177
55.87000 545.576
56.04000 515.740
56.21000 335.963
56.38000 225.429
56.55000 164.358
56.72000 148.780
56.89000 141.461
57.06000 142.774
57.23000 123.187
57.40000 128.468
57.57000 125.944
57.74000 126.580
57.91000 126.640
58.08000 127.060
58.25000 128.744
58.42000 119.298
58.59000 124.126
58.76000 119.681
58.93000 117.976
59.10000 121.406
59.27000 109.450
59.44000 116.205
59.61000 127.555
59.78000 123.400
59.95000 112.159
60.12000 117.403
60.29000 124.613
60.46000 115.116
60.63000 123.967
60.80000 117.140
60.97000 119.837
61.14000 122.196
61.31000 127.446
61.48000 140.823
61.65000 447.610
61.82000 248.806
61.99000 154.825
62.16000 135.146
62.33000 142.122
62.50000 137.553
62.67000 141.534
62.84000 143.526
63.01000 135.026
63.18000 149.090
63.35000 150.515
63.52000 144.237
63.69000 148.829
63.86000 160.701
64.03000 152.111
64.20000 164.260
64.37000 169.183
64.54000 183.218
64.71000 195.394
64.88000 207.855
65.05000 234.465
65.22000 275.970
65.39000 362.515
65.56000 548.231
65.73000 1901.217
65.90000 3385.841
66.07000 758.797
66.24000 586.959
66.41000 990.267
66.58000 570.897
66.75000 476.430
66.92000 470.532
67.09000 489.611
67.26000 507.550
67.43000 530.982
67.60000 581.391
67.77000 594.255
67.94000 626.376
68.11000 712.002
68.28000 765.574
68.45000 893.355
68.62000 1364.318
68.79000 2701.857
68.96000 19774.377
69.13000 83543.195
69.30000 44895.285
69.47000 10417.868
69.64000 1348.437
69.81000 819.080
69.98000 650.117
70.00000 629.180