File: XRD/XRD/09-10-2025 Dep 8/XY Data/BTO_Mapping_Theta2Theta_09-10-2025_001_02_10-000_0-000.xy
20.00000 474.701
20.17000 488.946
20.34000 499.285
20.51000 481.819
20.68000 483.770
20.85000 490.017
21.02000 486.479
21.19000 479.812
21.36000 487.963
21.53000 493.784
21.70000 489.429
21.87000 519.209
22.04000 608.740
22.21000 599.094
22.38000 548.628
22.55000 474.131
22.72000 441.717
22.89000 450.414
23.06000 423.808
23.23000 441.194
23.40000 429.237
23.57000 433.022
23.74000 447.563
23.91000 414.088
24.08000 425.473
24.25000 428.856
24.42000 417.722
24.59000 424.915
24.76000 399.097
24.93000 420.432
25.10000 396.360
25.27000 396.116
25.44000 402.843
25.61000 408.139
25.78000 405.789
25.95000 409.025
26.12000 396.443
26.29000 400.443
26.46000 373.118
26.63000 400.291
26.80000 384.552
26.97000 385.235
27.14000 379.637
27.31000 372.138
27.48000 392.096
27.65000 399.634
27.82000 369.603
27.99000 383.895
28.16000 383.407
28.33000 386.637
28.50000 349.794
28.67000 363.594
28.84000 374.248
29.01000 349.465
29.18000 358.688
29.35000 362.923
29.52000 362.427
29.69000 387.434
29.86000 400.084
30.03000 440.443
30.20000 435.600
30.37000 386.269
30.54000 384.266
30.71000 413.858
30.88000 476.349
31.05000 594.445
31.22000 1520.434
31.39000 3074.601
31.56000 1954.354
31.73000 707.272
31.90000 464.726
32.07000 381.209
32.24000 362.863
32.41000 333.819
32.58000 322.152
32.75000 324.102
32.92000 344.245
33.09000 301.215
33.26000 313.531
33.43000 314.738
33.60000 303.628
33.77000 311.316
33.94000 297.311
34.11000 276.865
34.28000 278.010
34.45000 303.379
34.62000 300.032
34.79000 286.674
34.96000 270.697
35.13000 280.888
35.30000 275.975
35.47000 276.994
35.64000 273.981
35.81000 269.389
35.98000 262.301
36.15000 276.480
36.32000 256.373
36.49000 271.358
36.66000 270.407
36.83000 256.985
37.00000 287.015
37.17000 266.232
37.34000 263.001
37.51000 249.463
37.68000 267.714
37.85000 273.541
38.02000 277.396
38.19000 280.966
38.36000 306.372
38.53000 511.355
38.70000 1014.478
38.87000 799.537
39.04000 347.254
39.21000 264.867
39.38000 250.244
39.55000 237.458
39.72000 242.985
39.89000 227.093
40.06000 226.816
40.23000 233.952
40.40000 226.763
40.57000 224.287
40.74000 217.847
40.91000 222.792
41.08000 216.765
41.25000 207.617
41.42000 205.573
41.59000 202.565
41.76000 208.060
41.93000 200.968
42.10000 207.008
42.27000 217.580
42.44000 209.894
42.61000 192.836
42.78000 201.568
42.95000 196.679
43.12000 218.937
43.29000 193.295
43.46000 203.236
43.63000 187.627
43.80000 216.604
43.97000 186.593
44.14000 204.231
44.31000 199.763
44.48000 186.295
44.65000 211.069
44.82000 224.359
44.99000 265.212
45.16000 295.132
45.33000 285.798
45.50000 256.315
45.67000 225.499
45.84000 204.467
46.01000 200.405
46.18000 178.182
46.35000 182.769
46.52000 184.862
46.69000 181.024
46.86000 180.415
47.03000 166.934
47.20000 164.750
47.37000 164.896
47.54000 158.929
47.71000 159.211
47.88000 157.426
48.05000 159.636
48.22000 152.830
48.39000 162.786
48.56000 154.105
48.73000 163.575
48.90000 160.719
49.07000 157.415
49.24000 152.695
49.41000 156.195
49.58000 154.217
49.75000 150.380
49.92000 156.187
50.09000 161.746
50.26000 160.844
50.43000 164.145
50.60000 210.304
50.77000 241.340
50.94000 205.896
51.11000 174.056
51.28000 164.344
51.45000 159.887
51.62000 154.670
51.79000 143.878
51.96000 148.175
52.13000 146.245
52.30000 143.465
52.47000 139.196
52.64000 135.236
52.81000 141.882
52.98000 152.817
53.15000 140.351
53.32000 151.603
53.49000 152.404
53.66000 149.969
53.83000 147.163
54.00000 133.452
54.17000 132.442
54.34000 132.099
54.51000 135.431
54.68000 135.146
54.85000 145.266
55.02000 144.727
55.19000 137.083
55.36000 157.431
55.53000 164.924
55.70000 229.679
55.87000 441.781
56.04000 565.037
56.21000 382.136
56.38000 222.155
56.55000 172.487
56.72000 148.993
56.89000 140.670
57.06000 135.882
57.23000 130.399
57.40000 127.097
57.57000 131.259
57.74000 135.548
57.91000 125.027
58.08000 121.983
58.25000 123.979
58.42000 119.285
58.59000 134.707
58.76000 113.050
58.93000 121.439
59.10000 118.597
59.27000 121.501
59.44000 118.304
59.61000 111.963
59.78000 114.464
59.95000 117.192
60.12000 116.524
60.29000 131.072
60.46000 120.806
60.63000 116.700
60.80000 122.477
60.97000 128.083
61.14000 123.014
61.31000 127.558
61.48000 149.371
61.65000 329.835
61.82000 201.352
61.99000 130.131
62.16000 129.857
62.33000 130.406
62.50000 137.578
62.67000 134.982
62.84000 130.318
63.01000 142.333
63.18000 140.422
63.35000 146.116
63.52000 146.903
63.69000 140.891
63.86000 153.532
64.03000 155.922
64.20000 159.160
64.37000 156.444
64.54000 165.792
64.71000 161.407
64.88000 200.648
65.05000 197.018
65.22000 226.512
65.39000 327.992
65.56000 475.443
65.73000 1384.083
65.90000 2271.552
66.07000 519.522
66.24000 457.640
66.41000 710.364
66.58000 440.623
66.75000 387.720
66.92000 399.836
67.09000 417.900
67.26000 451.540
67.43000 444.502
67.60000 468.029
67.77000 482.598
67.94000 541.634
68.11000 561.422
68.28000 612.647
68.45000 724.574
68.62000 1072.288
68.79000 1982.001
68.96000 14017.425
69.13000 56438.504
69.30000 29610.166
69.47000 6301.561
69.64000 1026.968
69.81000 676.218
69.98000 530.508
70.00000 526.274