File: XRD/XRD/09-10-2025 Dep 8/XY Data/BTO_Mapping_Theta2Theta_09-10-2025_001_03_20-000_0-000.xy
20.00000 525.501
20.17000 496.246
20.34000 486.429
20.51000 484.564
20.68000 469.686
20.85000 466.404
21.02000 473.255
21.19000 469.144
21.36000 471.190
21.53000 479.049
21.70000 491.629
21.87000 536.175
22.04000 570.676
22.21000 572.531
22.38000 512.756
22.55000 479.209
22.72000 434.314
22.89000 434.469
23.06000 436.581
23.23000 439.058
23.40000 438.345
23.57000 427.452
23.74000 428.688
23.91000 420.011
24.08000 449.488
24.25000 419.337
24.42000 426.928
24.59000 413.699
24.76000 413.046
24.93000 414.709
25.10000 416.455
25.27000 400.328
25.44000 396.840
25.61000 391.951
25.78000 401.777
25.95000 393.487
26.12000 402.322
26.29000 397.537
26.46000 385.588
26.63000 383.994
26.80000 375.390
26.97000 375.996
27.14000 379.661
27.31000 371.048
27.48000 369.912
27.65000 371.336
27.82000 367.079
27.99000 366.073
28.16000 368.504
28.33000 384.861
28.50000 352.901
28.67000 352.416
28.84000 375.089
29.01000 378.898
29.18000 367.007
29.35000 361.028
29.52000 369.356
29.69000 365.829
29.86000 386.762
30.03000 432.857
30.20000 425.380
30.37000 414.146
30.54000 375.068
30.71000 401.936
30.88000 430.624
31.05000 551.493
31.22000 1214.896
31.39000 2646.070
31.56000 1799.198
31.73000 692.671
31.90000 461.304
32.07000 363.040
32.24000 340.859
32.41000 343.866
32.58000 332.560
32.75000 319.140
32.92000 307.882
33.09000 323.150
33.26000 302.581
33.43000 298.816
33.60000 292.881
33.77000 303.462
33.94000 285.368
34.11000 288.513
34.28000 283.625
34.45000 287.021
34.62000 273.488
34.79000 286.879
34.96000 302.115
35.13000 259.950
35.30000 270.114
35.47000 281.576
35.64000 257.881
35.81000 262.226
35.98000 268.348
36.15000 265.226
36.32000 264.176
36.49000 256.571
36.66000 255.610
36.83000 273.711
37.00000 269.609
37.17000 284.489
37.34000 256.637
37.51000 251.211
37.68000 257.590
37.85000 255.360
38.02000 261.325
38.19000 256.226
38.36000 297.691
38.53000 453.499
38.70000 919.920
38.87000 808.785
39.04000 359.076
39.21000 251.700
39.38000 261.252
39.55000 234.346
39.72000 243.644
39.89000 233.839
40.06000 246.700
40.23000 230.165
40.40000 222.254
40.57000 218.133
40.74000 224.018
40.91000 223.740
41.08000 214.769
41.25000 216.677
41.42000 208.561
41.59000 208.740
41.76000 208.392
41.93000 202.412
42.10000 224.950
42.27000 202.983
42.44000 212.493
42.61000 205.169
42.78000 207.617
42.95000 206.930
43.12000 211.594
43.29000 192.429
43.46000 211.832
43.63000 202.306
43.80000 205.404
43.97000 183.262
44.14000 183.856
44.31000 198.418
44.48000 198.177
44.65000 210.327
44.82000 206.271
44.99000 241.434
45.16000 275.753
45.33000 269.333
45.50000 246.017
45.67000 226.153
45.84000 215.720
46.01000 190.601
46.18000 189.842
46.35000 174.478
46.52000 176.205
46.69000 180.019
46.86000 165.250
47.03000 166.807
47.20000 172.808
47.37000 171.509
47.54000 155.944
47.71000 169.947
47.88000 168.216
48.05000 163.800
48.22000 156.297
48.39000 160.398
48.56000 167.657
48.73000 167.912
48.90000 160.992
49.07000 162.311
49.24000 162.320
49.41000 169.647
49.58000 153.127
49.75000 142.260
49.92000 152.134
50.09000 154.450
50.26000 158.348
50.43000 167.835
50.60000 193.616
50.77000 239.204
50.94000 199.665
51.11000 165.729
51.28000 160.725
51.45000 157.424
51.62000 159.520
51.79000 145.754
51.96000 150.629
52.13000 144.046
52.30000 139.875
52.47000 149.650
52.64000 141.657
52.81000 135.853
52.98000 128.678
53.15000 139.542
53.32000 148.936
53.49000 157.443
53.66000 145.644
53.83000 138.882
54.00000 147.011
54.17000 138.615
54.34000 141.204
54.51000 138.837
54.68000 137.113
54.85000 143.803
55.02000 141.637
55.19000 145.397
55.36000 151.514
55.53000 172.696
55.70000 228.776
55.87000 410.854
56.04000 553.272
56.21000 406.209
56.38000 231.524
56.55000 164.872
56.72000 147.919
56.89000 133.610
57.06000 128.750
57.23000 123.901
57.40000 128.695
57.57000 114.865
57.74000 127.174
57.91000 134.274
58.08000 124.684
58.25000 127.529
58.42000 122.073
58.59000 117.290
58.76000 114.964
58.93000 122.949
59.10000 123.965
59.27000 125.093
59.44000 120.233
59.61000 120.053
59.78000 125.351
59.95000 121.852
60.12000 122.551
60.29000 124.657
60.46000 124.918
60.63000 121.660
60.80000 119.933
60.97000 125.105
61.14000 122.163
61.31000 126.774
61.48000 136.337
61.65000 318.526
61.82000 202.901
61.99000 135.437
62.16000 135.198
62.33000 131.435
62.50000 135.573
62.67000 136.363
62.84000 130.650
63.01000 132.899
63.18000 132.969
63.35000 130.459
63.52000 134.726
63.69000 147.897
63.86000 146.221
64.03000 149.908
64.20000 148.165
64.37000 157.955
64.54000 157.704
64.71000 174.352
64.88000 177.473
65.05000 202.235
65.22000 231.045
65.39000 298.102
65.56000 427.866
65.73000 1305.774
65.90000 2207.110
66.07000 561.969
66.24000 434.307
66.41000 689.822
66.58000 425.204
66.75000 365.964
66.92000 386.935
67.09000 404.913
67.26000 444.454
67.43000 431.452
67.60000 464.956
67.77000 497.152
67.94000 517.509
68.11000 562.467
68.28000 623.278
68.45000 733.969
68.62000 1026.140
68.79000 1918.388
68.96000 13022.816
69.13000 53350.078
69.30000 28018.689
69.47000 6089.622
69.64000 1025.877
69.81000 655.582
69.98000 531.764
70.00000 530.808