File: XRD/XRD/09-10-2025 Dep 8/XY Data/BTO_Mapping_Theta2Theta_09-10-2025_001_55_13-383_-14-863.xy
20.00000 492.127
20.17000 503.402
20.34000 481.008
20.51000 471.664
20.68000 480.687
20.85000 477.104
21.02000 459.702
21.19000 480.791
21.36000 477.149
21.53000 480.347
21.70000 508.170
21.87000 528.481
22.04000 593.844
22.21000 592.301
22.38000 530.266
22.55000 465.215
22.72000 463.445
22.89000 433.559
23.06000 434.015
23.23000 451.812
23.40000 435.590
23.57000 437.827
23.74000 434.688
23.91000 438.960
24.08000 430.175
24.25000 434.708
24.42000 418.011
24.59000 423.235
24.76000 433.110
24.93000 413.211
25.10000 415.211
25.27000 405.818
25.44000 399.299
25.61000 396.308
25.78000 378.731
25.95000 410.645
26.12000 395.515
26.29000 377.449
26.46000 395.594
26.63000 386.037
26.80000 377.353
26.97000 380.030
27.14000 371.478
27.31000 375.929
27.48000 387.657
27.65000 372.248
27.82000 381.791
27.99000 386.860
28.16000 378.700
28.33000 379.565
28.50000 367.891
28.67000 360.421
28.84000 346.443
29.01000 357.230
29.18000 358.362
29.35000 365.268
29.52000 378.268
29.69000 371.284
29.86000 403.304
30.03000 442.620
30.20000 448.574
30.37000 415.059
30.54000 378.343
30.71000 398.943
30.88000 455.367
31.05000 605.106
31.22000 1442.497
31.39000 2984.008
31.56000 1975.963
31.73000 736.107
31.90000 470.361
32.07000 390.581
32.24000 371.484
32.41000 331.652
32.58000 333.532
32.75000 327.734
32.92000 332.579
33.09000 299.557
33.26000 286.950
33.43000 322.707
33.60000 303.637
33.77000 292.324
33.94000 286.129
34.11000 294.685
34.28000 300.397
34.45000 281.158
34.62000 267.345
34.79000 290.843
34.96000 287.349
35.13000 272.286
35.30000 275.170
35.47000 271.489
35.64000 260.383
35.81000 273.355
35.98000 282.817
36.15000 274.864
36.32000 265.268
36.49000 272.856
36.66000 270.163
36.83000 261.481
37.00000 288.338
37.17000 277.615
37.34000 263.323
37.51000 252.232
37.68000 276.268
37.85000 257.138
38.02000 249.275
38.19000 303.484
38.36000 324.600
38.53000 519.724
38.70000 1123.038
38.87000 884.685
39.04000 374.918
39.21000 272.725
39.38000 254.783
39.55000 260.380
39.72000 233.293
39.89000 226.597
40.06000 216.768
40.23000 238.897
40.40000 213.434
40.57000 211.458
40.74000 210.401
40.91000 208.386
41.08000 210.749
41.25000 203.338
41.42000 205.419
41.59000 217.820
41.76000 215.629
41.93000 200.945
42.10000 214.426
42.27000 207.422
42.44000 213.237
42.61000 207.652
42.78000 205.674
42.95000 207.317
43.12000 208.610
43.29000 206.883
43.46000 198.688
43.63000 208.405
43.80000 205.809
43.97000 191.281
44.14000 196.056
44.31000 203.460
44.48000 195.524
44.65000 196.348
44.82000 225.788
44.99000 262.792
45.16000 312.107
45.33000 286.681
45.50000 238.702
45.67000 225.067
45.84000 215.854
46.01000 192.873
46.18000 186.684
46.35000 173.104
46.52000 178.724
46.69000 171.964
46.86000 162.746
47.03000 187.212
47.20000 176.394
47.37000 168.335
47.54000 173.028
47.71000 169.052
47.88000 172.619
48.05000 167.336
48.22000 161.480
48.39000 177.165
48.56000 158.982
48.73000 151.075
48.90000 162.479
49.07000 160.705
49.24000 155.306
49.41000 153.572
49.58000 153.763
49.75000 152.578
49.92000 157.184
50.09000 146.901
50.26000 158.739
50.43000 174.734
50.60000 195.700
50.77000 231.560
50.94000 197.906
51.11000 174.786
51.28000 153.147
51.45000 156.023
51.62000 144.577
51.79000 137.991
51.96000 145.225
52.13000 140.791
52.30000 139.593
52.47000 116.317
52.64000 143.367
52.81000 140.907
52.98000 139.514
53.15000 143.473
53.32000 139.353
53.49000 151.520
53.66000 147.505
53.83000 145.873
54.00000 143.124
54.17000 133.003
54.34000 136.855
54.51000 133.439
54.68000 139.590
54.85000 134.360
55.02000 140.373
55.19000 144.549
55.36000 147.367
55.53000 177.850
55.70000 251.046
55.87000 437.835
56.04000 546.935
56.21000 376.387
56.38000 225.447
56.55000 170.646
56.72000 146.091
56.89000 142.018
57.06000 140.913
57.23000 135.255
57.40000 135.455
57.57000 119.204
57.74000 120.906
57.91000 126.640
58.08000 126.308
58.25000 120.835
58.42000 129.373
58.59000 114.535
58.76000 119.934
58.93000 106.903
59.10000 120.575
59.27000 124.655
59.44000 117.825
59.61000 115.489
59.78000 117.689
59.95000 115.797
60.12000 124.637
60.29000 110.884
60.46000 104.621
60.63000 126.896
60.80000 112.193
60.97000 127.739
61.14000 116.814
61.31000 123.095
61.48000 131.330
61.65000 328.278
61.82000 210.632
61.99000 138.868
62.16000 129.096
62.33000 128.623
62.50000 128.540
62.67000 136.435
62.84000 135.878
63.01000 144.079
63.18000 148.263
63.35000 140.771
63.52000 138.006
63.69000 146.675
63.86000 146.353
64.03000 151.744
64.20000 147.880
64.37000 153.926
64.54000 155.544
64.71000 175.869
64.88000 187.071
65.05000 212.615
65.22000 236.629
65.39000 328.735
65.56000 458.032
65.73000 1376.040
65.90000 2408.368
66.07000 567.045
66.24000 460.372
66.41000 736.477
66.58000 482.979
66.75000 384.304
66.92000 410.974
67.09000 413.944
67.26000 423.197
67.43000 458.008
67.60000 469.294
67.77000 508.476
67.94000 550.570
68.11000 586.867
68.28000 650.737
68.45000 731.392
68.62000 1073.089
68.79000 1961.508
68.96000 13372.785
69.13000 57621.426
69.30000 30501.053
69.47000 6984.542
69.64000 1058.203
69.81000 683.550
69.98000 539.054
70.00000 507.764