File: XRD/XRD/09-10-2025 Dep 8/XY Data/BTO_Mapping_Theta2Theta_09-10-2025_001_41_-32-361_-23-511.xy
20.00000 477.615
20.17000 474.900
20.34000 484.790
20.51000 496.878
20.68000 488.725
20.85000 484.468
21.02000 500.821
21.19000 500.362
21.36000 475.957
21.53000 490.637
21.70000 540.748
21.87000 680.355
22.04000 749.069
22.21000 628.891
22.38000 511.879
22.55000 492.542
22.72000 446.434
22.89000 446.575
23.06000 454.800
23.23000 448.625
23.40000 431.636
23.57000 431.723
23.74000 441.501
23.91000 422.253
24.08000 434.670
24.25000 423.506
24.42000 421.201
24.59000 422.484
24.76000 434.447
24.93000 430.820
25.10000 422.650
25.27000 417.793
25.44000 428.839
25.61000 429.154
25.78000 406.520
25.95000 398.285
26.12000 383.469
26.29000 388.772
26.46000 396.815
26.63000 396.157
26.80000 400.813
26.97000 390.667
27.14000 398.925
27.31000 393.034
27.48000 389.049
27.65000 375.899
27.82000 372.535
27.99000 378.622
28.16000 393.034
28.33000 392.105
28.50000 386.517
28.67000 398.477
28.84000 378.102
29.01000 384.530
29.18000 371.736
29.35000 366.373
29.52000 386.429
29.69000 393.449
29.86000 571.627
30.03000 629.040
30.20000 512.668
30.37000 468.451
30.54000 440.007
30.71000 482.340
30.88000 541.636
31.05000 1341.886
31.22000 6278.047
31.39000 7173.762
31.56000 1859.480
31.73000 640.518
31.90000 437.507
32.07000 389.555
32.24000 373.351
32.41000 359.466
32.58000 363.557
32.75000 338.300
32.92000 330.974
33.09000 327.595
33.26000 321.672
33.43000 307.997
33.60000 311.128
33.77000 317.100
33.94000 301.337
34.11000 302.933
34.28000 285.823
34.45000 292.860
34.62000 286.393
34.79000 288.925
34.96000 305.193
35.13000 287.112
35.30000 278.784
35.47000 279.975
35.64000 269.741
35.81000 266.977
35.98000 280.400
36.15000 284.267
36.32000 273.931
36.49000 270.042
36.66000 275.630
36.83000 278.415
37.00000 294.878
37.17000 288.546
37.34000 275.947
37.51000 268.973
37.68000 260.288
37.85000 262.188
38.02000 288.088
38.19000 287.692
38.36000 343.280
38.53000 463.522
38.70000 458.272
38.87000 333.969
39.04000 276.817
39.21000 243.233
39.38000 251.337
39.55000 241.923
39.72000 233.398
39.89000 230.565
40.06000 228.816
40.23000 235.184
40.40000 228.179
40.57000 235.193
40.74000 226.943
40.91000 224.154
41.08000 220.028
41.25000 227.494
41.42000 202.433
41.59000 223.641
41.76000 211.752
41.93000 206.813
42.10000 208.106
42.27000 205.487
42.44000 204.091
42.61000 193.250
42.78000 207.006
42.95000 208.480
43.12000 209.814
43.29000 207.830
43.46000 205.759
43.63000 221.779
43.80000 205.216
43.97000 213.091
44.14000 217.327
44.31000 218.589
44.48000 236.089
44.65000 331.397
44.82000 464.813
44.99000 439.685
45.16000 365.102
45.33000 302.890
45.50000 256.624
45.67000 236.920
45.84000 214.221
46.01000 205.001
46.18000 191.495
46.35000 180.779
46.52000 176.905
46.69000 165.672
46.86000 169.502
47.03000 171.599
47.20000 181.393
47.37000 173.278
47.54000 164.457
47.71000 170.965
47.88000 170.808
48.05000 178.568
48.22000 184.698
48.39000 157.390
48.56000 155.605
48.73000 157.552
48.90000 167.708
49.07000 172.417
49.24000 162.324
49.41000 182.664
49.58000 155.781
49.75000 160.825
49.92000 171.993
50.09000 179.603
50.26000 194.334
50.43000 239.399
50.60000 268.177
50.77000 224.853
50.94000 193.111
51.11000 162.268
51.28000 153.891
51.45000 150.558
51.62000 152.509
51.79000 153.599
51.96000 147.476
52.13000 151.700
52.30000 136.607
52.47000 148.997
52.64000 140.965
52.81000 143.717
52.98000 159.231
53.15000 157.347
53.32000 153.063
53.49000 145.228
53.66000 149.896
53.83000 143.645
54.00000 149.362
54.17000 147.004
54.34000 137.642
54.51000 129.135
54.68000 150.413
54.85000 146.656
55.02000 145.133
55.19000 154.739
55.36000 204.208
55.53000 323.428
55.70000 511.781
55.87000 426.184
56.04000 284.428
56.21000 212.412
56.38000 178.891
56.55000 158.299
56.72000 139.427
56.89000 133.662
57.06000 128.546
57.23000 129.564
57.40000 121.706
57.57000 130.278
57.74000 123.265
57.91000 128.192
58.08000 116.466
58.25000 128.120
58.42000 133.176
58.59000 117.811
58.76000 123.863
58.93000 125.988
59.10000 123.570
59.27000 125.067
59.44000 124.838
59.61000 117.319
59.78000 120.104
59.95000 125.945
60.12000 117.376
60.29000 117.200
60.46000 126.689
60.63000 119.693
60.80000 124.098
60.97000 125.824
61.14000 123.901
61.31000 124.935
61.48000 136.603
61.65000 418.049
61.82000 272.491
61.99000 138.782
62.16000 144.588
62.33000 151.574
62.50000 143.938
62.67000 142.813
62.84000 145.638
63.01000 146.153
63.18000 142.201
63.35000 146.911
63.52000 153.518
63.69000 150.027
63.86000 145.724
64.03000 156.799
64.20000 167.048
64.37000 169.283
64.54000 176.101
64.71000 192.337
64.88000 224.837
65.05000 328.954
65.22000 602.479
65.39000 787.728
65.56000 670.895
65.73000 1634.913
65.90000 3289.811
66.07000 787.041
66.24000 527.228
66.41000 937.421
66.58000 581.768
66.75000 454.457
66.92000 458.054
67.09000 471.757
67.26000 502.782
67.43000 522.752
67.60000 546.466
67.77000 571.718
67.94000 634.893
68.11000 656.924
68.28000 741.645
68.45000 848.397
68.62000 1194.413
68.79000 2438.776
68.96000 14567.667
69.13000 78743.391
69.30000 45144.059
69.47000 12450.878
69.64000 1329.235
69.81000 795.660
69.98000 596.100
70.00000 580.161