File: XRD/XRD/09-10-2025 Dep 8/XY Data/BTO_Mapping_Theta2Theta_09-10-2025_001_07_18-271_8-135.xy
20.00000 470.301
20.17000 487.604
20.34000 478.251
20.51000 488.490
20.68000 479.100
20.85000 492.580
21.02000 476.282
21.19000 467.377
21.36000 481.831
21.53000 473.382
21.70000 497.434
21.87000 502.140
22.04000 550.549
22.21000 583.075
22.38000 539.515
22.55000 488.720
22.72000 454.944
22.89000 449.345
23.06000 455.727
23.23000 450.369
23.40000 447.999
23.57000 439.971
23.74000 444.167
23.91000 428.495
24.08000 429.273
24.25000 414.517
24.42000 416.993
24.59000 425.201
24.76000 418.167
24.93000 409.259
25.10000 403.754
25.27000 412.570
25.44000 405.170
25.61000 381.336
25.78000 396.111
25.95000 404.290
26.12000 390.348
26.29000 397.705
26.46000 400.646
26.63000 395.997
26.80000 396.166
26.97000 379.405
27.14000 399.163
27.31000 384.127
27.48000 374.064
27.65000 381.456
27.82000 364.481
27.99000 370.637
28.16000 364.534
28.33000 373.275
28.50000 350.906
28.67000 384.813
28.84000 365.116
29.01000 373.006
29.18000 354.775
29.35000 349.559
29.52000 354.933
29.69000 366.514
29.86000 383.665
30.03000 443.409
30.20000 398.076
30.37000 396.581
30.54000 382.979
30.71000 412.131
30.88000 423.766
31.05000 546.599
31.22000 1199.514
31.39000 2590.061
31.56000 1819.082
31.73000 711.861
31.90000 430.918
32.07000 372.738
32.24000 350.950
32.41000 346.725
32.58000 339.531
32.75000 329.421
32.92000 324.493
33.09000 304.883
33.26000 293.805
33.43000 305.368
33.60000 300.420
33.77000 292.483
33.94000 302.138
34.11000 294.870
34.28000 281.181
34.45000 282.430
34.62000 271.754
34.79000 291.099
34.96000 263.734
35.13000 266.442
35.30000 265.412
35.47000 284.168
35.64000 269.640
35.81000 269.172
35.98000 260.246
36.15000 254.160
36.32000 249.625
36.49000 262.792
36.66000 255.171
36.83000 274.075
37.00000 275.601
37.17000 274.996
37.34000 257.487
37.51000 262.105
37.68000 249.862
37.85000 266.993
38.02000 254.528
38.19000 272.301
38.36000 284.861
38.53000 447.077
38.70000 907.895
38.87000 791.047
39.04000 375.876
39.21000 267.969
39.38000 246.069
39.55000 237.336
39.72000 234.889
39.89000 238.630
40.06000 218.966
40.23000 233.714
40.40000 224.365
40.57000 231.909
40.74000 221.415
40.91000 209.645
41.08000 211.461
41.25000 220.053
41.42000 222.967
41.59000 208.482
41.76000 210.664
41.93000 210.461
42.10000 209.191
42.27000 201.224
42.44000 196.871
42.61000 200.037
42.78000 206.097
42.95000 193.096
43.12000 210.182
43.29000 194.711
43.46000 187.814
43.63000 207.441
43.80000 190.501
43.97000 202.871
44.14000 197.163
44.31000 192.330
44.48000 193.177
44.65000 200.087
44.82000 217.374
44.99000 251.397
45.16000 290.504
45.33000 276.599
45.50000 248.363
45.67000 235.434
45.84000 212.221
46.01000 184.698
46.18000 192.432
46.35000 180.794
46.52000 183.100
46.69000 176.031
46.86000 182.834
47.03000 181.963
47.20000 167.247
47.37000 155.774
47.54000 166.249
47.71000 154.864
47.88000 165.611
48.05000 172.868
48.22000 163.312
48.39000 164.949
48.56000 168.801
48.73000 151.747
48.90000 157.436
49.07000 150.070
49.24000 144.377
49.41000 145.633
49.58000 165.088
49.75000 156.093
49.92000 156.852
50.09000 156.724
50.26000 149.912
50.43000 180.478
50.60000 199.439
50.77000 225.743
50.94000 212.408
51.11000 172.985
51.28000 157.445
51.45000 153.869
51.62000 157.494
51.79000 144.758
51.96000 151.429
52.13000 142.181
52.30000 141.182
52.47000 142.179
52.64000 143.055
52.81000 149.365
52.98000 146.842
53.15000 143.559
53.32000 146.802
53.49000 147.110
53.66000 147.325
53.83000 141.968
54.00000 141.171
54.17000 139.955
54.34000 132.291
54.51000 144.231
54.68000 124.048
54.85000 140.971
55.02000 142.728
55.19000 145.206
55.36000 148.563
55.53000 172.256
55.70000 215.476
55.87000 412.432
56.04000 550.611
56.21000 389.954
56.38000 231.093
56.55000 175.258
56.72000 138.008
56.89000 140.421
57.06000 131.626
57.23000 129.564
57.40000 130.807
57.57000 129.543
57.74000 126.524
57.91000 123.883
58.08000 128.248
58.25000 118.957
58.42000 124.664
58.59000 109.997
58.76000 126.704
58.93000 120.990
59.10000 112.967
59.27000 116.617
59.44000 118.754
59.61000 123.189
59.78000 113.238
59.95000 133.346
60.12000 127.741
60.29000 118.078
60.46000 115.475
60.63000 123.199
60.80000 124.653
60.97000 118.455
61.14000 123.986
61.31000 129.278
61.48000 141.991
61.65000 325.028
61.82000 193.303
61.99000 132.905
62.16000 122.609
62.33000 133.147
62.50000 128.823
62.67000 137.024
62.84000 131.385
63.01000 128.038
63.18000 145.669
63.35000 131.092
63.52000 145.477
63.69000 134.110
63.86000 137.519
64.03000 148.983
64.20000 147.718
64.37000 159.744
64.54000 165.737
64.71000 175.852
64.88000 185.958
65.05000 199.168
65.22000 229.612
65.39000 291.301
65.56000 415.330
65.73000 1301.696
65.90000 2231.682
66.07000 537.931
66.24000 436.558
66.41000 676.390
66.58000 440.474
66.75000 372.954
66.92000 395.122
67.09000 404.855
67.26000 413.312
67.43000 450.856
67.60000 466.534
67.77000 486.845
67.94000 507.599
68.11000 562.482
68.28000 616.596
68.45000 712.817
68.62000 999.898
68.79000 1882.865
68.96000 12501.938
69.13000 53208.098
69.30000 28126.020
69.47000 6242.243
69.64000 1033.378
69.81000 686.698
69.98000 551.269
70.00000 547.110