File: XRD/XRD/09-10-2025 Dep 8/XY Data/BTO_Mapping_Theta2Theta_09-10-2025_001_34_-9-781_-2-079.xy
20.00000 490.890
20.17000 488.109
20.34000 492.389
20.51000 483.277
20.68000 497.191
20.85000 480.534
21.02000 493.187
21.19000 489.974
21.36000 485.010
21.53000 493.926
21.70000 492.866
21.87000 588.899
22.04000 694.766
22.21000 629.713
22.38000 504.771
22.55000 474.477
22.72000 459.800
22.89000 447.284
23.06000 445.268
23.23000 427.193
23.40000 437.353
23.57000 432.469
23.74000 431.279
23.91000 420.795
24.08000 431.598
24.25000 448.195
24.42000 413.294
24.59000 399.406
24.76000 421.575
24.93000 411.380
25.10000 431.520
25.27000 428.700
25.44000 400.091
25.61000 396.844
25.78000 393.573
25.95000 428.430
26.12000 402.453
26.29000 393.678
26.46000 388.698
26.63000 387.309
26.80000 367.643
26.97000 375.468
27.14000 365.266
27.31000 385.213
27.48000 360.878
27.65000 381.756
27.82000 384.808
27.99000 379.612
28.16000 389.759
28.33000 383.864
28.50000 374.438
28.67000 372.279
28.84000 363.181
29.01000 367.862
29.18000 358.377
29.35000 354.547
29.52000 358.800
29.69000 373.021
29.86000 397.910
30.03000 461.337
30.20000 419.135
30.37000 384.754
30.54000 396.338
30.71000 426.135
30.88000 458.223
31.05000 647.670
31.22000 1613.934
31.39000 3020.750
31.56000 1740.615
31.73000 690.295
31.90000 444.074
32.07000 382.076
32.24000 338.929
32.41000 344.394
32.58000 341.112
32.75000 337.827
32.92000 320.637
33.09000 303.765
33.26000 312.308
33.43000 309.273
33.60000 297.363
33.77000 288.802
33.94000 303.357
34.11000 301.617
34.28000 292.850
34.45000 299.671
34.62000 284.776
34.79000 286.514
34.96000 282.245
35.13000 286.123
35.30000 271.910
35.47000 275.537
35.64000 272.625
35.81000 262.172
35.98000 258.387
36.15000 268.725
36.32000 257.854
36.49000 269.355
36.66000 260.922
36.83000 275.532
37.00000 278.581
37.17000 279.589
37.34000 268.561
37.51000 263.741
37.68000 249.827
37.85000 264.019
38.02000 272.215
38.19000 275.957
38.36000 335.008
38.53000 597.234
38.70000 985.975
38.87000 641.162
39.04000 347.846
39.21000 279.391
39.38000 250.149
39.55000 249.062
39.72000 238.821
39.89000 253.024
40.06000 226.368
40.23000 226.106
40.40000 235.069
40.57000 225.710
40.74000 228.796
40.91000 225.652
41.08000 212.647
41.25000 203.814
41.42000 212.844
41.59000 216.540
41.76000 204.902
41.93000 212.352
42.10000 197.353
42.27000 212.390
42.44000 188.269
42.61000 221.777
42.78000 205.361
42.95000 202.047
43.12000 201.814
43.29000 208.191
43.46000 215.614
43.63000 208.121
43.80000 204.362
43.97000 210.558
44.14000 197.717
44.31000 184.917
44.48000 219.546
44.65000 231.506
44.82000 273.746
44.99000 372.521
45.16000 376.220
45.33000 309.543
45.50000 252.449
45.67000 230.965
45.84000 198.396
46.01000 202.256
46.18000 189.777
46.35000 179.111
46.52000 177.507
46.69000 167.373
46.86000 158.677
47.03000 173.213
47.20000 165.327
47.37000 166.870
47.54000 164.420
47.71000 174.348
47.88000 172.482
48.05000 161.823
48.22000 167.410
48.39000 172.594
48.56000 160.047
48.73000 162.325
48.90000 168.482
49.07000 148.324
49.24000 152.709
49.41000 162.433
49.58000 154.074
49.75000 143.256
49.92000 161.253
50.09000 153.403
50.26000 166.707
50.43000 176.390
50.60000 219.411
50.77000 236.949
50.94000 202.592
51.11000 179.125
51.28000 165.043
51.45000 151.767
51.62000 148.599
51.79000 147.999
51.96000 144.067
52.13000 142.131
52.30000 147.995
52.47000 159.143
52.64000 145.430
52.81000 144.342
52.98000 151.041
53.15000 141.272
53.32000 153.087
53.49000 153.901
53.66000 144.179
53.83000 131.571
54.00000 148.546
54.17000 139.394
54.34000 141.802
54.51000 146.318
54.68000 145.150
54.85000 148.187
55.02000 148.775
55.19000 156.716
55.36000 164.408
55.53000 198.800
55.70000 303.909
55.87000 524.684
56.04000 530.585
56.21000 340.518
56.38000 222.047
56.55000 165.550
56.72000 159.246
56.89000 137.690
57.06000 133.035
57.23000 136.656
57.40000 126.486
57.57000 125.689
57.74000 121.204
57.91000 127.785
58.08000 128.082
58.25000 128.808
58.42000 118.099
58.59000 131.017
58.76000 124.995
58.93000 121.916
59.10000 114.302
59.27000 126.101
59.44000 121.710
59.61000 114.114
59.78000 108.577
59.95000 123.153
60.12000 119.206
60.29000 113.706
60.46000 112.538
60.63000 127.413
60.80000 128.839
60.97000 116.297
61.14000 120.165
61.31000 134.745
61.48000 159.023
61.65000 420.262
61.82000 238.990
61.99000 133.916
62.16000 126.592
62.33000 133.882
62.50000 139.200
62.67000 147.467
62.84000 136.039
63.01000 143.976
63.18000 141.198
63.35000 145.297
63.52000 144.720
63.69000 139.500
63.86000 154.387
64.03000 156.996
64.20000 156.979
64.37000 168.052
64.54000 175.679
64.71000 184.325
64.88000 199.198
65.05000 237.952
65.22000 263.970
65.39000 368.106
65.56000 543.569
65.73000 1777.509
65.90000 3114.293
66.07000 713.126
66.24000 530.954
66.41000 931.887
66.58000 568.531
66.75000 444.420
66.92000 451.279
67.09000 495.609
67.26000 516.608
67.43000 529.095
67.60000 553.914
67.77000 584.987
67.94000 627.498
68.11000 659.474
68.28000 731.864
68.45000 896.495
68.62000 1256.038
68.79000 2544.400
68.96000 19011.709
69.13000 77772.195
69.30000 41451.906
69.47000 9323.315
69.64000 1242.989
69.81000 787.364
69.98000 623.983
70.00000 610.147