File: XRD/XRD/09-10-2025 Dep 8/XY Data/BTO_Mapping_Theta2Theta_09-10-2025_001_15_6-180_19-021.xy
20.00000 485.136
20.17000 494.929
20.34000 478.184
20.51000 468.368
20.68000 473.590
20.85000 475.234
21.02000 468.502
21.19000 477.896
21.36000 465.678
21.53000 486.484
21.70000 464.904
21.87000 521.817
22.04000 580.158
22.21000 584.019
22.38000 518.140
22.55000 475.768
22.72000 456.956
22.89000 426.699
23.06000 446.560
23.23000 435.824
23.40000 449.008
23.57000 434.067
23.74000 421.946
23.91000 417.345
24.08000 425.017
24.25000 411.664
24.42000 430.376
24.59000 427.373
24.76000 406.196
24.93000 402.750
25.10000 405.605
25.27000 409.327
25.44000 394.052
25.61000 395.139
25.78000 385.799
25.95000 384.208
26.12000 400.318
26.29000 394.783
26.46000 399.198
26.63000 397.083
26.80000 385.071
26.97000 382.382
27.14000 374.146
27.31000 388.488
27.48000 381.393
27.65000 381.050
27.82000 372.887
27.99000 372.953
28.16000 387.038
28.33000 391.080
28.50000 364.280
28.67000 366.392
28.84000 359.871
29.01000 370.541
29.18000 369.911
29.35000 358.619
29.52000 370.642
29.69000 365.529
29.86000 383.244
30.03000 432.236
30.20000 450.961
30.37000 404.164
30.54000 376.779
30.71000 412.363
30.88000 447.260
31.05000 537.990
31.22000 1265.666
31.39000 2861.032
31.56000 1965.599
31.73000 750.634
31.90000 463.940
32.07000 388.391
32.24000 349.111
32.41000 323.338
32.58000 338.984
32.75000 312.592
32.92000 320.631
33.09000 312.101
33.26000 302.432
33.43000 293.164
33.60000 306.209
33.77000 285.522
33.94000 305.641
34.11000 286.750
34.28000 293.915
34.45000 293.077
34.62000 281.961
34.79000 282.109
34.96000 283.524
35.13000 281.614
35.30000 283.588
35.47000 273.134
35.64000 270.898
35.81000 266.374
35.98000 270.320
36.15000 259.147
36.32000 270.906
36.49000 256.526
36.66000 251.998
36.83000 264.815
37.00000 266.369
37.17000 283.387
37.34000 264.000
37.51000 259.095
37.68000 275.457
37.85000 237.119
38.02000 267.277
38.19000 271.591
38.36000 302.270
38.53000 454.762
38.70000 963.635
38.87000 843.464
39.04000 374.062
39.21000 266.406
39.38000 229.156
39.55000 236.094
39.72000 225.205
39.89000 236.672
40.06000 226.268
40.23000 223.241
40.40000 223.146
40.57000 214.744
40.74000 218.898
40.91000 226.787
41.08000 219.103
41.25000 223.229
41.42000 208.218
41.59000 202.661
41.76000 207.969
41.93000 195.655
42.10000 200.712
42.27000 206.210
42.44000 203.048
42.61000 204.409
42.78000 207.623
42.95000 207.978
43.12000 205.264
43.29000 203.706
43.46000 194.031
43.63000 199.885
43.80000 203.535
43.97000 206.672
44.14000 193.101
44.31000 192.876
44.48000 200.508
44.65000 203.979
44.82000 216.708
44.99000 252.038
45.16000 301.494
45.33000 280.921
45.50000 248.446
45.67000 225.215
45.84000 212.777
46.01000 192.819
46.18000 182.595
46.35000 169.660
46.52000 169.000
46.69000 177.098
46.86000 156.266
47.03000 171.672
47.20000 170.966
47.37000 165.633
47.54000 170.298
47.71000 160.306
47.88000 165.461
48.05000 161.504
48.22000 154.656
48.39000 158.184
48.56000 166.108
48.73000 157.220
48.90000 168.201
49.07000 161.972
49.24000 155.523
49.41000 150.038
49.58000 153.082
49.75000 151.964
49.92000 150.832
50.09000 164.959
50.26000 157.532
50.43000 168.193
50.60000 199.996
50.77000 226.618
50.94000 204.256
51.11000 182.187
51.28000 173.210
51.45000 147.039
51.62000 140.617
51.79000 145.584
51.96000 143.060
52.13000 146.053
52.30000 137.694
52.47000 148.051
52.64000 141.311
52.81000 139.488
52.98000 133.629
53.15000 139.417
53.32000 148.120
53.49000 152.990
53.66000 137.879
53.83000 147.512
54.00000 143.250
54.17000 136.310
54.34000 131.843
54.51000 141.521
54.68000 145.895
54.85000 136.097
55.02000 142.424
55.19000 139.392
55.36000 147.921
55.53000 176.043
55.70000 243.279
55.87000 401.603
56.04000 563.513
56.21000 395.143
56.38000 245.226
56.55000 171.575
56.72000 151.039
56.89000 139.432
57.06000 138.987
57.23000 130.559
57.40000 125.393
57.57000 127.771
57.74000 123.923
57.91000 127.600
58.08000 128.856
58.25000 131.395
58.42000 119.594
58.59000 118.923
58.76000 119.839
58.93000 121.828
59.10000 111.379
59.27000 126.401
59.44000 119.416
59.61000 116.478
59.78000 127.112
59.95000 119.605
60.12000 118.295
60.29000 122.595
60.46000 112.704
60.63000 117.774
60.80000 113.818
60.97000 119.838
61.14000 122.976
61.31000 133.746
61.48000 139.512
61.65000 321.081
61.82000 199.250
61.99000 130.732
62.16000 135.389
62.33000 120.857
62.50000 132.096
62.67000 135.443
62.84000 124.200
63.01000 133.169
63.18000 122.946
63.35000 127.232
63.52000 141.950
63.69000 147.883
63.86000 139.231
64.03000 146.132
64.20000 150.152
64.37000 167.112
64.54000 166.168
64.71000 169.909
64.88000 205.832
65.05000 191.210
65.22000 236.918
65.39000 306.380
65.56000 479.397
65.73000 1304.458
65.90000 2318.770
66.07000 587.325
66.24000 453.932
66.41000 736.216
66.58000 467.776
66.75000 381.752
66.92000 394.184
67.09000 422.292
67.26000 417.017
67.43000 447.659
67.60000 477.810
67.77000 486.377
67.94000 535.579
68.11000 580.242
68.28000 629.654
68.45000 722.069
68.62000 1045.121
68.79000 1971.650
68.96000 12125.319
69.13000 55381.418
69.30000 29754.420
69.47000 7006.760
69.64000 1044.156
69.81000 681.864
69.98000 534.917
70.00000 549.611