File: XRD/XRD/09-10-2025 Dep 8/XY Data/BTO_Mapping_Theta2Theta_09-10-2025_001_36_-29-344_-6-237.xy
20.00000 512.445
20.17000 484.604
20.34000 482.362
20.51000 480.889
20.68000 466.373
20.85000 497.853
21.02000 480.008
21.19000 489.099
21.36000 497.687
21.53000 479.024
21.70000 528.677
21.87000 640.444
22.04000 733.813
22.21000 599.244
22.38000 520.133
22.55000 469.661
22.72000 464.909
22.89000 454.154
23.06000 452.488
23.23000 451.229
23.40000 445.962
23.57000 446.519
23.74000 436.926
23.91000 436.585
24.08000 423.763
24.25000 436.500
24.42000 418.635
24.59000 445.033
24.76000 415.308
24.93000 434.089
25.10000 414.441
25.27000 415.891
25.44000 409.087
25.61000 398.828
25.78000 409.684
25.95000 402.583
26.12000 397.090
26.29000 391.731
26.46000 385.626
26.63000 404.051
26.80000 396.054
26.97000 382.457
27.14000 385.734
27.31000 383.537
27.48000 378.645
27.65000 358.584
27.82000 393.861
27.99000 375.646
28.16000 379.723
28.33000 377.126
28.50000 378.662
28.67000 375.297
28.84000 376.034
29.01000 365.242
29.18000 364.534
29.35000 362.353
29.52000 381.918
29.69000 383.359
29.86000 460.415
30.03000 515.248
30.20000 472.410
30.37000 409.416
30.54000 397.748
30.71000 406.819
30.88000 448.847
31.05000 817.273
31.22000 2923.105
31.39000 4430.749
31.56000 1863.495
31.73000 666.561
31.90000 443.829
32.07000 375.085
32.24000 349.015
32.41000 356.141
32.58000 341.360
32.75000 333.813
32.92000 323.245
33.09000 314.006
33.26000 310.453
33.43000 307.469
33.60000 310.684
33.77000 299.460
33.94000 312.043
34.11000 288.624
34.28000 286.904
34.45000 276.911
34.62000 309.077
34.79000 290.977
34.96000 311.621
35.13000 285.613
35.30000 278.301
35.47000 273.525
35.64000 265.166
35.81000 266.072
35.98000 280.651
36.15000 267.860
36.32000 257.838
36.49000 268.964
36.66000 279.443
36.83000 282.517
37.00000 276.093
37.17000 275.212
37.34000 270.122
37.51000 267.607
37.68000 273.283
37.85000 274.025
38.02000 268.992
38.19000 305.854
38.36000 371.993
38.53000 550.640
38.70000 635.097
38.87000 444.838
39.04000 298.297
39.21000 257.219
39.38000 233.795
39.55000 246.580
39.72000 243.476
39.89000 235.890
40.06000 240.662
40.23000 231.314
40.40000 227.046
40.57000 221.152
40.74000 226.576
40.91000 228.767
41.08000 224.366
41.25000 229.344
41.42000 220.093
41.59000 209.946
41.76000 220.551
41.93000 208.679
42.10000 225.750
42.27000 205.899
42.44000 205.771
42.61000 208.251
42.78000 217.074
42.95000 213.084
43.12000 215.051
43.29000 192.639
43.46000 212.040
43.63000 206.775
43.80000 193.963
43.97000 193.730
44.14000 214.344
44.31000 209.806
44.48000 240.258
44.65000 290.668
44.82000 397.334
44.99000 428.360
45.16000 357.933
45.33000 294.071
45.50000 243.541
45.67000 209.270
45.84000 196.158
46.01000 199.602
46.18000 178.967
46.35000 175.397
46.52000 179.113
46.69000 169.437
46.86000 162.268
47.03000 163.994
47.20000 192.230
47.37000 168.293
47.54000 170.300
47.71000 176.249
47.88000 165.271
48.05000 167.156
48.22000 180.997
48.39000 159.341
48.56000 165.942
48.73000 171.738
48.90000 167.069
49.07000 146.230
49.24000 154.642
49.41000 156.983
49.58000 159.401
49.75000 178.353
49.92000 157.145
50.09000 166.264
50.26000 179.655
50.43000 221.607
50.60000 255.843
50.77000 234.099
50.94000 189.532
51.11000 174.948
51.28000 178.152
51.45000 156.911
51.62000 143.671
51.79000 161.234
51.96000 157.668
52.13000 153.728
52.30000 142.309
52.47000 150.670
52.64000 146.725
52.81000 150.971
52.98000 153.652
53.15000 158.280
53.32000 153.726
53.49000 160.876
53.66000 150.976
53.83000 150.940
54.00000 151.262
54.17000 137.269
54.34000 130.290
54.51000 148.411
54.68000 145.153
54.85000 140.509
55.02000 151.893
55.19000 162.876
55.36000 187.293
55.53000 266.743
55.70000 423.897
55.87000 527.908
56.04000 394.275
56.21000 266.149
56.38000 195.935
56.55000 165.152
56.72000 150.975
56.89000 141.179
57.06000 129.052
57.23000 137.380
57.40000 131.304
57.57000 132.468
57.74000 134.536
57.91000 125.765
58.08000 128.312
58.25000 112.225
58.42000 124.145
58.59000 126.808
58.76000 132.856
58.93000 131.889
59.10000 123.943
59.27000 121.294
59.44000 132.331
59.61000 120.694
59.78000 124.220
59.95000 119.985
60.12000 119.403
60.29000 126.862
60.46000 122.053
60.63000 124.009
60.80000 125.532
60.97000 123.622
61.14000 120.033
61.31000 128.448
61.48000 142.088
61.65000 420.723
61.82000 262.827
61.99000 137.403
62.16000 135.157
62.33000 148.383
62.50000 143.676
62.67000 137.262
62.84000 145.055
63.01000 127.010
63.18000 149.648
63.35000 141.715
63.52000 139.390
63.69000 148.575
63.86000 155.761
64.03000 156.443
64.20000 161.222
64.37000 176.860
64.54000 175.043
64.71000 184.430
64.88000 199.416
65.05000 242.211
65.22000 342.806
65.39000 505.551
65.56000 598.713
65.73000 1758.674
65.90000 3348.072
66.07000 765.454
66.24000 569.025
66.41000 965.952
66.58000 585.753
66.75000 453.891
66.92000 471.388
67.09000 480.536
67.26000 521.474
67.43000 538.419
67.60000 568.406
67.77000 587.141
67.94000 648.497
68.11000 684.893
68.28000 754.150
68.45000 858.701
68.62000 1286.394
68.79000 2562.183
68.96000 17315.629
69.13000 80981.828
69.30000 44389.738
69.47000 11125.323
69.64000 1298.988
69.81000 789.761
69.98000 617.263
70.00000 611.616