File: XRD/XRD/09-10-2025 Dep 8/XY Data/BTO_Mapping_Theta2Theta_09-10-2025_001_12_20-074_22-294.xy
20.00000 497.444
20.17000 490.280
20.34000 465.777
20.51000 481.712
20.68000 474.328
20.85000 481.869
21.02000 483.576
21.19000 465.047
21.36000 462.784
21.53000 482.674
21.70000 485.310
21.87000 505.179
22.04000 556.780
22.21000 587.239
22.38000 525.787
22.55000 477.846
22.72000 442.100
22.89000 447.962
23.06000 441.455
23.23000 431.146
23.40000 443.676
23.57000 438.562
23.74000 440.007
23.91000 462.615
24.08000 471.956
24.25000 429.920
24.42000 427.558
24.59000 412.773
24.76000 418.849
24.93000 405.226
25.10000 419.633
25.27000 400.433
25.44000 409.755
25.61000 413.595
25.78000 402.130
25.95000 399.992
26.12000 392.622
26.29000 386.863
26.46000 379.735
26.63000 387.680
26.80000 377.702
26.97000 385.968
27.14000 378.029
27.31000 375.269
27.48000 388.518
27.65000 364.786
27.82000 385.296
27.99000 377.107
28.16000 360.370
28.33000 369.531
28.50000 357.588
28.67000 362.893
28.84000 353.435
29.01000 361.484
29.18000 356.902
29.35000 358.150
29.52000 354.604
29.69000 352.730
29.86000 374.739
30.03000 399.994
30.20000 409.082
30.37000 401.509
30.54000 362.435
30.71000 391.282
30.88000 393.962
31.05000 483.253
31.22000 945.147
31.39000 2000.735
31.56000 1659.407
31.73000 738.660
31.90000 433.149
32.07000 345.622
32.24000 348.571
32.41000 332.194
32.58000 325.019
32.75000 326.265
32.92000 307.985
33.09000 313.985
33.26000 327.661
33.43000 285.584
33.60000 299.855
33.77000 280.170
33.94000 300.498
34.11000 314.043
34.28000 283.281
34.45000 278.318
34.62000 304.272
34.79000 270.752
34.96000 281.125
35.13000 279.528
35.30000 278.652
35.47000 262.335
35.64000 266.420
35.81000 256.505
35.98000 250.572
36.15000 251.764
36.32000 276.042
36.49000 261.090
36.66000 260.694
36.83000 258.505
37.00000 271.989
37.17000 273.241
37.34000 256.859
37.51000 260.014
37.68000 252.440
37.85000 249.441
38.02000 264.900
38.19000 266.417
38.36000 275.172
38.53000 417.862
38.70000 879.938
38.87000 855.772
39.04000 374.076
39.21000 282.374
39.38000 264.256
39.55000 235.834
39.72000 226.639
39.89000 224.985
40.06000 240.285
40.23000 222.618
40.40000 234.923
40.57000 226.611
40.74000 210.713
40.91000 214.142
41.08000 221.177
41.25000 215.096
41.42000 217.843
41.59000 220.496
41.76000 207.311
41.93000 216.113
42.10000 210.314
42.27000 191.505
42.44000 198.537
42.61000 196.765
42.78000 202.789
42.95000 204.366
43.12000 202.029
43.29000 201.926
43.46000 209.662
43.63000 185.589
43.80000 202.415
43.97000 196.363
44.14000 201.040
44.31000 202.850
44.48000 201.267
44.65000 207.057
44.82000 214.394
44.99000 238.134
45.16000 264.840
45.33000 266.428
45.50000 245.333
45.67000 224.359
45.84000 209.951
46.01000 179.445
46.18000 180.524
46.35000 179.826
46.52000 184.905
46.69000 170.638
46.86000 165.402
47.03000 165.098
47.20000 173.114
47.37000 170.290
47.54000 165.767
47.71000 162.481
47.88000 166.960
48.05000 176.817
48.22000 174.598
48.39000 149.900
48.56000 163.116
48.73000 158.440
48.90000 164.125
49.07000 155.688
49.24000 165.011
49.41000 149.673
49.58000 158.887
49.75000 160.549
49.92000 152.343
50.09000 168.187
50.26000 160.142
50.43000 160.222
50.60000 180.272
50.77000 211.204
50.94000 207.010
51.11000 169.046
51.28000 168.415
51.45000 151.075
51.62000 157.251
51.79000 148.468
51.96000 132.095
52.13000 139.169
52.30000 146.854
52.47000 135.358
52.64000 138.580
52.81000 150.352
52.98000 132.547
53.15000 149.101
53.32000 140.748
53.49000 166.453
53.66000 144.183
53.83000 144.139
54.00000 138.940
54.17000 138.366
54.34000 139.980
54.51000 133.231
54.68000 131.803
54.85000 138.673
55.02000 131.687
55.19000 147.695
55.36000 144.252
55.53000 170.434
55.70000 204.037
55.87000 390.371
56.04000 575.789
56.21000 454.199
56.38000 252.527
56.55000 178.195
56.72000 140.080
56.89000 143.897
57.06000 133.674
57.23000 127.081
57.40000 124.834
57.57000 123.945
57.74000 122.074
57.91000 119.404
58.08000 125.272
58.25000 128.484
58.42000 124.511
58.59000 114.597
58.76000 111.239
58.93000 119.160
59.10000 125.925
59.27000 121.984
59.44000 105.415
59.61000 124.303
59.78000 122.795
59.95000 114.930
60.12000 118.375
60.29000 119.802
60.46000 120.403
60.63000 118.913
60.80000 117.639
60.97000 120.854
61.14000 123.170
61.31000 120.954
61.48000 147.944
61.65000 299.371
61.82000 194.669
61.99000 138.469
62.16000 128.403
62.33000 122.151
62.50000 122.606
62.67000 122.740
62.84000 129.284
63.01000 135.611
63.18000 133.469
63.35000 136.340
63.52000 135.138
63.69000 146.667
63.86000 149.889
64.03000 143.985
64.20000 152.343
64.37000 159.306
64.54000 151.564
64.71000 168.279
64.88000 184.760
65.05000 196.303
65.22000 216.664
65.39000 264.761
65.56000 377.420
65.73000 1193.866
65.90000 2163.847
66.07000 543.581
66.24000 418.729
66.41000 671.749
66.58000 432.483
66.75000 369.468
66.92000 384.301
67.09000 402.523
67.26000 417.524
67.43000 425.074
67.60000 486.246
67.77000 486.486
67.94000 528.372
68.11000 548.588
68.28000 624.456
68.45000 689.722
68.62000 1001.326
68.79000 1824.521
68.96000 11507.115
69.13000 50837.703
69.30000 27341.904
69.47000 6376.675
69.64000 1028.289
69.81000 655.901
69.98000 535.706
70.00000 533.666