File: XRD/XRD/09-10-2025 Dep 8/XY Data/BTO_Mapping_Theta2Theta_09-10-2025_001_54_6-691_-7-431.xy
20.00000 469.441
20.17000 504.231
20.34000 495.801
20.51000 475.941
20.68000 492.950
20.85000 461.711
21.02000 489.028
21.19000 508.599
21.36000 454.053
21.53000 487.123
21.70000 461.701
21.87000 550.236
22.04000 623.635
22.21000 627.484
22.38000 528.648
22.55000 468.021
22.72000 444.495
22.89000 447.049
23.06000 461.667
23.23000 436.954
23.40000 432.124
23.57000 437.906
23.74000 429.254
23.91000 425.698
24.08000 414.663
24.25000 413.394
24.42000 431.791
24.59000 398.274
24.76000 429.186
24.93000 408.465
25.10000 402.500
25.27000 427.282
25.44000 403.970
25.61000 406.715
25.78000 402.478
25.95000 400.033
26.12000 399.628
26.29000 396.056
26.46000 385.653
26.63000 389.189
26.80000 385.958
26.97000 388.532
27.14000 381.553
27.31000 385.132
27.48000 379.042
27.65000 379.364
27.82000 380.393
27.99000 372.538
28.16000 363.840
28.33000 391.890
28.50000 371.092
28.67000 379.368
28.84000 352.158
29.01000 370.438
29.18000 364.577
29.35000 369.013
29.52000 369.680
29.69000 382.955
29.86000 409.576
30.03000 467.129
30.20000 478.728
30.37000 412.011
30.54000 397.319
30.71000 429.604
30.88000 470.378
31.05000 632.891
31.22000 1582.873
31.39000 3208.059
31.56000 1935.933
31.73000 738.958
31.90000 447.895
32.07000 385.941
32.24000 358.856
32.41000 341.671
32.58000 349.744
32.75000 342.353
32.92000 314.179
33.09000 319.902
33.26000 309.307
33.43000 304.976
33.60000 306.915
33.77000 286.967
33.94000 301.881
34.11000 291.488
34.28000 292.156
34.45000 282.492
34.62000 283.468
34.79000 280.455
34.96000 269.992
35.13000 275.441
35.30000 264.425
35.47000 261.455
35.64000 262.038
35.81000 276.781
35.98000 271.683
36.15000 263.297
36.32000 269.327
36.49000 261.843
36.66000 258.691
36.83000 272.677
37.00000 287.411
37.17000 286.148
37.34000 265.282
37.51000 252.904
37.68000 265.352
37.85000 259.283
38.02000 260.505
38.19000 285.850
38.36000 311.250
38.53000 565.895
38.70000 1103.927
38.87000 823.849
39.04000 363.490
39.21000 265.427
39.38000 247.829
39.55000 251.134
39.72000 239.595
39.89000 231.922
40.06000 237.759
40.23000 235.401
40.40000 225.665
40.57000 229.648
40.74000 220.649
40.91000 205.782
41.08000 213.457
41.25000 210.552
41.42000 210.913
41.59000 211.902
41.76000 225.067
41.93000 219.610
42.10000 203.751
42.27000 197.302
42.44000 211.702
42.61000 207.199
42.78000 205.226
42.95000 214.616
43.12000 202.295
43.29000 206.489
43.46000 204.443
43.63000 201.299
43.80000 202.992
43.97000 202.298
44.14000 189.664
44.31000 197.667
44.48000 203.764
44.65000 209.493
44.82000 214.715
44.99000 290.087
45.16000 325.487
45.33000 311.457
45.50000 251.404
45.67000 221.918
45.84000 203.852
46.01000 193.832
46.18000 192.207
46.35000 184.719
46.52000 179.046
46.69000 172.287
46.86000 174.277
47.03000 179.379
47.20000 171.256
47.37000 162.459
47.54000 164.569
47.71000 161.160
47.88000 171.022
48.05000 165.113
48.22000 159.837
48.39000 165.449
48.56000 166.401
48.73000 155.450
48.90000 164.338
49.07000 160.008
49.24000 150.440
49.41000 148.049
49.58000 151.947
49.75000 158.242
49.92000 143.772
50.09000 168.716
50.26000 160.130
50.43000 164.682
50.60000 195.774
50.77000 224.344
50.94000 198.358
51.11000 165.213
51.28000 168.927
51.45000 154.141
51.62000 141.112
51.79000 136.650
51.96000 155.795
52.13000 143.548
52.30000 143.209
52.47000 146.639
52.64000 141.073
52.81000 141.335
52.98000 148.345
53.15000 148.315
53.32000 148.015
53.49000 154.454
53.66000 142.045
53.83000 144.491
54.00000 141.172
54.17000 147.622
54.34000 138.115
54.51000 138.632
54.68000 144.383
54.85000 144.155
55.02000 138.974
55.19000 145.877
55.36000 178.932
55.53000 180.207
55.70000 250.059
55.87000 453.154
56.04000 554.238
56.21000 360.246
56.38000 236.978
56.55000 182.035
56.72000 161.921
56.89000 150.909
57.06000 136.859
57.23000 132.148
57.40000 136.000
57.57000 123.907
57.74000 125.875
57.91000 123.788
58.08000 128.802
58.25000 122.200
58.42000 115.802
58.59000 115.804
58.76000 114.991
58.93000 123.865
59.10000 133.324
59.27000 124.295
59.44000 124.705
59.61000 109.752
59.78000 115.903
59.95000 113.023
60.12000 114.644
60.29000 123.927
60.46000 117.675
60.63000 124.074
60.80000 124.159
60.97000 118.731
61.14000 117.582
61.31000 123.846
61.48000 138.058
61.65000 343.532
61.82000 213.494
61.99000 131.800
62.16000 136.476
62.33000 135.372
62.50000 138.184
62.67000 132.534
62.84000 139.077
63.01000 143.760
63.18000 141.099
63.35000 136.292
63.52000 136.050
63.69000 142.188
63.86000 148.703
64.03000 158.182
64.20000 150.965
64.37000 162.490
64.54000 169.915
64.71000 184.847
64.88000 190.166
65.05000 206.909
65.22000 259.544
65.39000 334.234
65.56000 494.320
65.73000 1448.435
65.90000 2483.103
66.07000 601.209
66.24000 470.777
66.41000 756.231
66.58000 484.260
66.75000 394.629
66.92000 406.775
67.09000 417.722
67.26000 435.189
67.43000 477.569
67.60000 489.312
67.77000 506.333
67.94000 545.658
68.11000 614.068
68.28000 634.560
68.45000 741.121
68.62000 1091.292
68.79000 2058.182
68.96000 13892.428
69.13000 60488.566
69.30000 32249.441
69.47000 7233.029
69.64000 1093.737
69.81000 707.084
69.98000 554.650
70.00000 566.491