File: XRD/XRD/09-10-2025 Dep 8/XY Data/BTO_Mapping_Theta2Theta_09-10-2025_001_45_-20-000_-34-641.xy
20.00000 480.544
20.17000 503.103
20.34000 495.411
20.51000 489.617
20.68000 481.471
20.85000 487.864
21.02000 505.062
21.19000 473.276
21.36000 495.883
21.53000 480.623
21.70000 507.597
21.87000 614.847
22.04000 698.470
22.21000 594.835
22.38000 506.496
22.55000 476.776
22.72000 468.263
22.89000 428.537
23.06000 443.563
23.23000 442.780
23.40000 416.912
23.57000 428.388
23.74000 437.394
23.91000 431.159
24.08000 412.263
24.25000 430.612
24.42000 431.733
24.59000 415.005
24.76000 408.430
24.93000 422.623
25.10000 425.306
25.27000 404.242
25.44000 416.958
25.61000 392.473
25.78000 410.450
25.95000 387.176
26.12000 408.190
26.29000 396.714
26.46000 415.841
26.63000 383.932
26.80000 396.586
26.97000 391.607
27.14000 385.631
27.31000 382.919
27.48000 367.210
27.65000 376.383
27.82000 375.406
27.99000 382.509
28.16000 396.649
28.33000 388.312
28.50000 383.320
28.67000 371.546
28.84000 351.275
29.01000 361.106
29.18000 371.826
29.35000 363.574
29.52000 354.309
29.69000 372.327
29.86000 461.664
30.03000 532.128
30.20000 481.410
30.37000 439.176
30.54000 408.591
30.71000 414.404
30.88000 459.604
31.05000 716.857
31.22000 2554.622
31.39000 4807.831
31.56000 2475.944
31.73000 769.439
31.90000 440.263
32.07000 390.698
32.24000 361.567
32.41000 334.071
32.58000 344.058
32.75000 336.465
32.92000 315.231
33.09000 307.012
33.26000 320.668
33.43000 315.552
33.60000 320.208
33.77000 308.455
33.94000 285.869
34.11000 294.775
34.28000 303.218
34.45000 291.841
34.62000 283.766
34.79000 285.572
34.96000 274.741
35.13000 281.715
35.30000 279.505
35.47000 283.093
35.64000 273.333
35.81000 268.067
35.98000 263.193
36.15000 261.138
36.32000 267.487
36.49000 269.265
36.66000 275.571
36.83000 262.286
37.00000 272.233
37.17000 284.883
37.34000 275.124
37.51000 269.703
37.68000 277.208
37.85000 268.653
38.02000 261.426
38.19000 290.509
38.36000 346.026
38.53000 518.638
38.70000 629.359
38.87000 480.766
39.04000 307.331
39.21000 256.327
39.38000 257.431
39.55000 241.459
39.72000 231.859
39.89000 241.206
40.06000 245.096
40.23000 232.222
40.40000 241.273
40.57000 228.849
40.74000 237.619
40.91000 234.396
41.08000 232.104
41.25000 231.089
41.42000 207.006
41.59000 218.578
41.76000 218.385
41.93000 198.545
42.10000 210.274
42.27000 207.277
42.44000 206.115
42.61000 211.035
42.78000 199.354
42.95000 210.248
43.12000 217.718
43.29000 202.941
43.46000 207.444
43.63000 212.416
43.80000 197.879
43.97000 204.065
44.14000 191.774
44.31000 203.147
44.48000 216.478
44.65000 267.718
44.82000 338.927
44.99000 392.439
45.16000 356.392
45.33000 290.155
45.50000 221.007
45.67000 218.347
45.84000 200.821
46.01000 192.763
46.18000 184.504
46.35000 170.665
46.52000 172.404
46.69000 167.833
46.86000 172.085
47.03000 172.382
47.20000 162.449
47.37000 175.071
47.54000 170.303
47.71000 164.760
47.88000 166.428
48.05000 173.821
48.22000 166.770
48.39000 172.014
48.56000 167.681
48.73000 162.850
48.90000 166.807
49.07000 160.246
49.24000 158.308
49.41000 158.154
49.58000 163.271
49.75000 151.292
49.92000 176.439
50.09000 171.379
50.26000 181.249
50.43000 209.932
50.60000 259.044
50.77000 247.057
50.94000 203.659
51.11000 181.523
51.28000 171.065
51.45000 161.583
51.62000 158.096
51.79000 157.213
51.96000 149.491
52.13000 141.728
52.30000 142.047
52.47000 154.239
52.64000 146.695
52.81000 151.000
52.98000 146.126
53.15000 160.628
53.32000 145.687
53.49000 151.604
53.66000 142.323
53.83000 142.423
54.00000 140.300
54.17000 150.187
54.34000 145.913
54.51000 143.429
54.68000 146.992
54.85000 152.023
55.02000 142.705
55.19000 159.827
55.36000 174.162
55.53000 235.171
55.70000 386.866
55.87000 513.282
56.04000 430.194
56.21000 269.448
56.38000 206.347
56.55000 157.235
56.72000 144.974
56.89000 144.140
57.06000 140.273
57.23000 120.286
57.40000 131.749
57.57000 124.976
57.74000 129.532
57.91000 127.143
58.08000 122.121
58.25000 130.170
58.42000 128.655
58.59000 123.765
58.76000 114.130
58.93000 122.421
59.10000 120.089
59.27000 123.462
59.44000 116.484
59.61000 118.129
59.78000 127.782
59.95000 113.234
60.12000 119.999
60.29000 108.321
60.46000 118.770
60.63000 113.968
60.80000 116.957
60.97000 122.649
61.14000 134.877
61.31000 132.633
61.48000 138.792
61.65000 420.169
61.82000 265.663
61.99000 140.135
62.16000 137.265
62.33000 145.706
62.50000 147.954
62.67000 147.823
62.84000 143.825
63.01000 136.429
63.18000 131.916
63.35000 144.902
63.52000 141.701
63.69000 147.223
63.86000 145.239
64.03000 157.766
64.20000 156.194
64.37000 176.103
64.54000 178.563
64.71000 181.902
64.88000 206.418
65.05000 237.516
65.22000 306.067
65.39000 478.037
65.56000 639.276
65.73000 1722.137
65.90000 3385.603
66.07000 790.842
66.24000 546.808
66.41000 929.181
66.58000 604.161
66.75000 478.394
66.92000 473.990
67.09000 471.961
67.26000 498.223
67.43000 527.941
67.60000 556.998
67.77000 604.862
67.94000 626.990
68.11000 673.341
68.28000 736.551
68.45000 894.294
68.62000 1266.297
68.79000 2506.245
68.96000 15491.552
69.13000 80877.016
69.30000 46122.863
69.47000 12388.065
69.64000 1358.228
69.81000 823.271
69.98000 624.368
70.00000 605.846