File: XRD/XRD/09-10-2025 Dep 8/XY Data/BTO_Mapping_Theta2Theta_09-10-2025_001_18_-1-045_9-945.xy
20.00000 501.854
20.17000 478.468
20.34000 481.564
20.51000 484.066
20.68000 496.270
20.85000 479.580
21.02000 480.443
21.19000 461.332
21.36000 458.489
21.53000 495.815
21.70000 490.218
21.87000 524.477
22.04000 616.086
22.21000 612.499
22.38000 524.967
22.55000 480.195
22.72000 443.488
22.89000 439.740
23.06000 446.998
23.23000 435.530
23.40000 441.615
23.57000 425.473
23.74000 434.453
23.91000 420.371
24.08000 440.598
24.25000 425.377
24.42000 441.015
24.59000 411.985
24.76000 418.470
24.93000 419.302
25.10000 422.908
25.27000 415.953
25.44000 420.163
25.61000 396.500
25.78000 411.425
25.95000 398.001
26.12000 394.336
26.29000 373.354
26.46000 393.343
26.63000 379.159
26.80000 401.423
26.97000 377.840
27.14000 389.934
27.31000 388.045
27.48000 364.581
27.65000 384.617
27.82000 374.290
27.99000 363.784
28.16000 374.723
28.33000 391.158
28.50000 356.384
28.67000 380.602
28.84000 368.778
29.01000 374.776
29.18000 364.152
29.35000 374.367
29.52000 355.395
29.69000 360.265
29.86000 408.066
30.03000 440.250
30.20000 423.901
30.37000 418.791
30.54000 397.335
30.71000 425.099
30.88000 458.383
31.05000 600.377
31.22000 1540.871
31.39000 3122.210
31.56000 1975.009
31.73000 733.420
31.90000 425.962
32.07000 399.456
32.24000 358.277
32.41000 347.206
32.58000 334.169
32.75000 339.208
32.92000 327.885
33.09000 300.214
33.26000 309.483
33.43000 320.028
33.60000 290.718
33.77000 292.982
33.94000 286.234
34.11000 294.456
34.28000 297.459
34.45000 284.217
34.62000 295.078
34.79000 286.917
34.96000 290.525
35.13000 279.263
35.30000 277.829
35.47000 275.408
35.64000 264.456
35.81000 268.055
35.98000 269.602
36.15000 284.643
36.32000 248.851
36.49000 273.566
36.66000 256.582
36.83000 265.753
37.00000 291.826
37.17000 275.045
37.34000 272.899
37.51000 261.138
37.68000 263.614
37.85000 256.165
38.02000 263.630
38.19000 266.231
38.36000 326.333
38.53000 557.192
38.70000 1058.384
38.87000 786.991
39.04000 345.272
39.21000 277.573
39.38000 250.452
39.55000 253.537
39.72000 244.173
39.89000 235.092
40.06000 224.810
40.23000 234.042
40.40000 224.622
40.57000 230.855
40.74000 214.489
40.91000 223.961
41.08000 215.852
41.25000 212.426
41.42000 221.968
41.59000 217.562
41.76000 206.641
41.93000 221.485
42.10000 202.121
42.27000 201.408
42.44000 195.711
42.61000 202.517
42.78000 205.104
42.95000 203.552
43.12000 202.797
43.29000 203.328
43.46000 194.163
43.63000 205.242
43.80000 203.722
43.97000 184.542
44.14000 191.338
44.31000 197.428
44.48000 199.695
44.65000 207.557
44.82000 236.167
44.99000 287.196
45.16000 325.361
45.33000 300.626
45.50000 262.528
45.67000 226.503
45.84000 203.696
46.01000 193.720
46.18000 191.460
46.35000 188.092
46.52000 169.888
46.69000 177.613
46.86000 164.845
47.03000 168.430
47.20000 174.076
47.37000 165.187
47.54000 160.405
47.71000 159.520
47.88000 155.909
48.05000 153.675
48.22000 158.316
48.39000 169.555
48.56000 168.632
48.73000 152.298
48.90000 153.763
49.07000 157.346
49.24000 156.648
49.41000 150.265
49.58000 147.322
49.75000 154.527
49.92000 161.969
50.09000 162.205
50.26000 168.991
50.43000 172.509
50.60000 200.568
50.77000 222.746
50.94000 206.858
51.11000 176.951
51.28000 168.695
51.45000 154.682
51.62000 151.977
51.79000 148.359
51.96000 136.967
52.13000 138.008
52.30000 143.040
52.47000 146.992
52.64000 131.596
52.81000 143.613
52.98000 146.718
53.15000 146.921
53.32000 154.351
53.49000 154.229
53.66000 144.865
53.83000 144.813
54.00000 139.746
54.17000 144.586
54.34000 140.297
54.51000 138.314
54.68000 134.297
54.85000 143.950
55.02000 145.883
55.19000 157.209
55.36000 148.811
55.53000 170.720
55.70000 242.336
55.87000 472.573
56.04000 540.771
56.21000 355.082
56.38000 239.620
56.55000 173.573
56.72000 143.509
56.89000 121.737
57.06000 127.822
57.23000 135.882
57.40000 128.534
57.57000 130.926
57.74000 127.709
57.91000 123.284
58.08000 122.738
58.25000 119.824
58.42000 123.306
58.59000 123.455
58.76000 125.966
58.93000 122.085
59.10000 113.401
59.27000 122.595
59.44000 114.313
59.61000 119.025
59.78000 113.352
59.95000 109.842
60.12000 122.625
60.29000 110.475
60.46000 127.488
60.63000 110.168
60.80000 124.140
60.97000 121.411
61.14000 121.829
61.31000 116.595
61.48000 142.537
61.65000 339.590
61.82000 213.577
61.99000 140.394
62.16000 134.250
62.33000 142.909
62.50000 131.858
62.67000 139.894
62.84000 135.026
63.01000 137.408
63.18000 144.841
63.35000 132.858
63.52000 141.961
63.69000 143.833
63.86000 140.511
64.03000 155.550
64.20000 146.696
64.37000 157.914
64.54000 176.238
64.71000 185.562
64.88000 192.144
65.05000 201.363
65.22000 246.305
65.39000 331.547
65.56000 493.937
65.73000 1483.376
65.90000 2544.076
66.07000 612.864
66.24000 469.509
66.41000 791.628
66.58000 477.844
66.75000 401.406
66.92000 429.962
67.09000 444.445
67.26000 457.301
67.43000 488.918
67.60000 494.920
67.77000 521.994
67.94000 569.790
68.11000 585.515
68.28000 670.048
68.45000 772.249
68.62000 1129.627
68.79000 2136.780
68.96000 14588.972
69.13000 62108.598
69.30000 32815.977
69.47000 7361.518
69.64000 1114.174
69.81000 718.384
69.98000 566.400
70.00000 546.221