File: XRD/XRD/09-10-2025 Dep 8/XY Data/BTO_Mapping_Theta2Theta_09-10-2025_001_10_6-691_7-431.xy
20.00000 484.686
20.17000 473.674
20.34000 475.467
20.51000 480.528
20.68000 466.891
20.85000 482.281
21.02000 473.011
21.19000 466.357
21.36000 510.596
21.53000 483.531
21.70000 463.610
21.87000 517.887
22.04000 607.394
22.21000 605.731
22.38000 532.938
22.55000 476.907
22.72000 446.184
22.89000 452.489
23.06000 440.375
23.23000 445.760
23.40000 434.795
23.57000 444.393
23.74000 414.588
23.91000 435.398
24.08000 421.170
24.25000 416.808
24.42000 418.346
24.59000 411.757
24.76000 410.808
24.93000 420.291
25.10000 411.005
25.27000 403.832
25.44000 399.260
25.61000 400.423
25.78000 417.357
25.95000 422.499
26.12000 390.454
26.29000 376.285
26.46000 362.872
26.63000 383.986
26.80000 388.677
26.97000 385.286
27.14000 377.996
27.31000 385.147
27.48000 367.206
27.65000 389.631
27.82000 358.666
27.99000 369.869
28.16000 385.013
28.33000 370.576
28.50000 381.183
28.67000 371.859
28.84000 371.583
29.01000 373.053
29.18000 377.894
29.35000 371.757
29.52000 364.295
29.69000 375.883
29.86000 404.601
30.03000 453.495
30.20000 443.118
30.37000 406.914
30.54000 408.906
30.71000 420.502
30.88000 448.928
31.05000 578.325
31.22000 1427.923
31.39000 3084.187
31.56000 1978.307
31.73000 719.534
31.90000 449.159
32.07000 388.043
32.24000 354.356
32.41000 344.774
32.58000 342.496
32.75000 324.976
32.92000 328.170
33.09000 300.538
33.26000 301.805
33.43000 294.898
33.60000 287.814
33.77000 290.849
33.94000 297.848
34.11000 293.479
34.28000 287.951
34.45000 286.210
34.62000 274.970
34.79000 275.725
34.96000 260.234
35.13000 275.982
35.30000 280.865
35.47000 268.530
35.64000 270.255
35.81000 265.893
35.98000 270.954
36.15000 272.276
36.32000 254.389
36.49000 252.153
36.66000 256.107
36.83000 263.681
37.00000 279.942
37.17000 285.788
37.34000 267.282
37.51000 265.345
37.68000 254.401
37.85000 260.453
38.02000 254.349
38.19000 279.988
38.36000 308.549
38.53000 497.031
38.70000 1008.235
38.87000 790.211
39.04000 342.233
39.21000 263.509
39.38000 261.396
39.55000 247.702
39.72000 239.529
39.89000 226.977
40.06000 243.076
40.23000 228.491
40.40000 207.638
40.57000 221.756
40.74000 227.883
40.91000 199.666
41.08000 218.654
41.25000 218.464
41.42000 220.187
41.59000 208.181
41.76000 207.174
41.93000 212.977
42.10000 213.463
42.27000 211.345
42.44000 203.612
42.61000 192.529
42.78000 202.415
42.95000 203.815
43.12000 201.243
43.29000 196.928
43.46000 195.988
43.63000 198.926
43.80000 201.222
43.97000 197.429
44.14000 196.416
44.31000 195.730
44.48000 197.506
44.65000 200.654
44.82000 227.692
44.99000 269.327
45.16000 307.083
45.33000 279.164
45.50000 266.094
45.67000 223.281
45.84000 211.712
46.01000 201.550
46.18000 188.209
46.35000 180.273
46.52000 177.083
46.69000 164.612
46.86000 169.367
47.03000 163.478
47.20000 163.605
47.37000 164.313
47.54000 168.907
47.71000 166.340
47.88000 171.047
48.05000 171.889
48.22000 155.969
48.39000 161.786
48.56000 157.906
48.73000 164.036
48.90000 151.286
49.07000 153.342
49.24000 150.456
49.41000 150.648
49.58000 144.778
49.75000 146.883
49.92000 162.526
50.09000 166.892
50.26000 158.623
50.43000 176.881
50.60000 201.659
50.77000 238.364
50.94000 191.966
51.11000 179.494
51.28000 153.869
51.45000 146.182
51.62000 143.400
51.79000 142.363
51.96000 148.781
52.13000 136.028
52.30000 129.162
52.47000 153.175
52.64000 134.587
52.81000 135.887
52.98000 136.335
53.15000 146.746
53.32000 157.148
53.49000 157.168
53.66000 153.276
53.83000 139.468
54.00000 147.258
54.17000 139.954
54.34000 134.226
54.51000 136.039
54.68000 144.302
54.85000 137.179
55.02000 142.311
55.19000 143.179
55.36000 149.119
55.53000 165.406
55.70000 239.196
55.87000 430.065
56.04000 550.640
56.21000 370.316
56.38000 229.134
56.55000 169.031
56.72000 142.860
56.89000 148.328
57.06000 132.554
57.23000 130.373
57.40000 138.092
57.57000 130.114
57.74000 135.136
57.91000 125.575
58.08000 133.929
58.25000 118.454
58.42000 132.889
58.59000 118.491
58.76000 123.391
58.93000 110.168
59.10000 120.508
59.27000 121.937
59.44000 122.496
59.61000 120.131
59.78000 121.042
59.95000 112.216
60.12000 112.352
60.29000 121.807
60.46000 116.089
60.63000 116.426
60.80000 118.997
60.97000 122.837
61.14000 129.201
61.31000 121.910
61.48000 142.547
61.65000 327.471
61.82000 211.484
61.99000 128.754
62.16000 127.138
62.33000 127.930
62.50000 148.814
62.67000 137.412
62.84000 122.577
63.01000 136.750
63.18000 150.883
63.35000 133.551
63.52000 139.671
63.69000 152.654
63.86000 144.885
64.03000 157.933
64.20000 147.448
64.37000 163.320
64.54000 161.382
64.71000 158.072
64.88000 179.170
65.05000 194.061
65.22000 236.920
65.39000 323.101
65.56000 484.206
65.73000 1346.336
65.90000 2376.825
66.07000 591.687
66.24000 441.338
66.41000 731.590
66.58000 439.282
66.75000 380.041
66.92000 386.294
67.09000 415.995
67.26000 417.022
67.43000 465.382
67.60000 454.994
67.77000 493.286
67.94000 525.584
68.11000 567.122
68.28000 626.088
68.45000 719.319
68.62000 1044.515
68.79000 1953.323
68.96000 13279.424
69.13000 56459.004
69.30000 29942.568
69.47000 6690.311
69.64000 1016.961
69.81000 664.894
69.98000 559.750
70.00000 546.709