File: XRD/XRD/09-10-2025 Dep 8/XY Data/BTO_Mapping_Theta2Theta_09-10-2025_001_44_-15-000_-25-981.xy
20.00000 497.185
20.17000 483.941
20.34000 475.944
20.51000 490.383
20.68000 489.899
20.85000 491.025
21.02000 501.189
21.19000 497.977
21.36000 505.720
21.53000 499.337
21.70000 529.075
21.87000 603.190
22.04000 703.979
22.21000 614.540
22.38000 496.109
22.55000 465.396
22.72000 454.045
22.89000 474.349
23.06000 438.230
23.23000 443.897
23.40000 446.326
23.57000 435.906
23.74000 436.902
23.91000 425.731
24.08000 414.202
24.25000 448.394
24.42000 431.688
24.59000 415.010
24.76000 412.274
24.93000 414.125
25.10000 415.445
25.27000 399.279
25.44000 396.014
25.61000 397.735
25.78000 409.874
25.95000 401.134
26.12000 399.922
26.29000 385.214
26.46000 403.471
26.63000 390.600
26.80000 408.511
26.97000 384.451
27.14000 375.559
27.31000 377.729
27.48000 379.608
27.65000 377.788
27.82000 380.147
27.99000 381.453
28.16000 379.558
28.33000 374.421
28.50000 377.132
28.67000 374.316
28.84000 359.687
29.01000 366.866
29.18000 356.258
29.35000 360.390
29.52000 366.428
29.69000 362.290
29.86000 395.576
30.03000 474.951
30.20000 448.391
30.37000 410.628
30.54000 381.884
30.71000 408.572
30.88000 457.220
31.05000 648.304
31.22000 1772.628
31.39000 3312.110
31.56000 1905.874
31.73000 696.289
31.90000 441.325
32.07000 369.787
32.24000 353.110
32.41000 349.058
32.58000 335.147
32.75000 329.493
32.92000 324.814
33.09000 312.226
33.26000 310.182
33.43000 300.913
33.60000 312.234
33.77000 295.672
33.94000 297.435
34.11000 297.729
34.28000 273.781
34.45000 299.336
34.62000 284.788
34.79000 282.950
34.96000 282.996
35.13000 267.402
35.30000 261.249
35.47000 285.187
35.64000 267.671
35.81000 272.722
35.98000 273.699
36.15000 272.976
36.32000 269.924
36.49000 284.202
36.66000 280.015
36.83000 273.642
37.00000 274.720
37.17000 265.170
37.34000 264.772
37.51000 263.923
37.68000 272.757
37.85000 271.643
38.02000 283.150
38.19000 293.719
38.36000 344.055
38.53000 561.210
38.70000 798.737
38.87000 548.244
39.04000 313.629
39.21000 265.460
39.38000 267.983
39.55000 257.994
39.72000 248.992
39.89000 245.488
40.06000 232.508
40.23000 237.364
40.40000 232.305
40.57000 228.671
40.74000 232.598
40.91000 223.741
41.08000 229.850
41.25000 218.059
41.42000 211.187
41.59000 211.714
41.76000 208.584
41.93000 202.004
42.10000 201.914
42.27000 210.162
42.44000 208.183
42.61000 213.736
42.78000 208.154
42.95000 207.070
43.12000 207.715
43.29000 209.767
43.46000 209.906
43.63000 197.474
43.80000 198.073
43.97000 215.021
44.14000 215.872
44.31000 211.207
44.48000 221.133
44.65000 256.872
44.82000 329.772
44.99000 418.204
45.16000 381.933
45.33000 296.068
45.50000 259.207
45.67000 220.481
45.84000 197.803
46.01000 190.648
46.18000 184.545
46.35000 186.569
46.52000 174.653
46.69000 173.599
46.86000 170.034
47.03000 166.112
47.20000 173.232
47.37000 167.954
47.54000 163.073
47.71000 159.520
47.88000 162.922
48.05000 164.902
48.22000 152.400
48.39000 166.534
48.56000 165.480
48.73000 167.632
48.90000 148.594
49.07000 161.879
49.24000 165.007
49.41000 161.786
49.58000 158.936
49.75000 154.774
49.92000 164.667
50.09000 164.459
50.26000 171.481
50.43000 188.682
50.60000 231.384
50.77000 248.163
50.94000 201.409
51.11000 175.514
51.28000 176.409
51.45000 157.641
51.62000 151.377
51.79000 142.243
51.96000 147.769
52.13000 141.864
52.30000 152.429
52.47000 135.999
52.64000 142.002
52.81000 145.595
52.98000 153.498
53.15000 142.139
53.32000 155.859
53.49000 156.532
53.66000 145.479
53.83000 138.310
54.00000 144.685
54.17000 134.452
54.34000 146.576
54.51000 146.238
54.68000 148.732
54.85000 137.179
55.02000 142.334
55.19000 152.174
55.36000 168.797
55.53000 219.288
55.70000 359.327
55.87000 542.406
56.04000 506.447
56.21000 321.272
56.38000 219.480
56.55000 166.694
56.72000 153.197
56.89000 133.569
57.06000 129.693
57.23000 136.156
57.40000 136.044
57.57000 131.919
57.74000 134.085
57.91000 122.267
58.08000 123.401
58.25000 124.076
58.42000 126.890
58.59000 119.134
58.76000 116.740
58.93000 120.643
59.10000 122.502
59.27000 122.776
59.44000 123.186
59.61000 123.141
59.78000 122.130
59.95000 118.843
60.12000 110.438
60.29000 120.886
60.46000 117.648
60.63000 118.044
60.80000 133.008
60.97000 126.356
61.14000 126.354
61.31000 130.072
61.48000 146.732
61.65000 418.949
61.82000 252.891
61.99000 141.368
62.16000 143.513
62.33000 144.357
62.50000 137.994
62.67000 140.751
62.84000 132.063
63.01000 142.485
63.18000 152.700
63.35000 146.910
63.52000 150.665
63.69000 148.830
63.86000 156.271
64.03000 158.878
64.20000 159.174
64.37000 167.140
64.54000 158.057
64.71000 189.358
64.88000 199.398
65.05000 231.741
65.22000 279.020
65.39000 383.409
65.56000 547.883
65.73000 1715.270
65.90000 3263.414
66.07000 760.777
66.24000 556.094
66.41000 939.081
66.58000 565.085
66.75000 448.450
66.92000 457.362
67.09000 486.659
67.26000 508.917
67.43000 570.318
67.60000 553.753
67.77000 587.433
67.94000 624.510
68.11000 662.635
68.28000 735.425
68.45000 860.894
68.62000 1295.006
68.79000 2593.813
68.96000 18012.395
69.13000 80462.617
69.30000 44094.266
69.47000 10654.404
69.64000 1310.628
69.81000 801.619
69.98000 617.135
70.00000 589.903