File: XRD/XRD/09-10-2025 Dep 8/XY Data/BTO_Mapping_Theta2Theta_09-10-2025_001_30_-9-781_2-079.xy
20.00000 487.743
20.17000 494.523
20.34000 495.061
20.51000 478.657
20.68000 494.806
20.85000 471.687
21.02000 482.726
21.19000 502.129
21.36000 479.851
21.53000 482.970
21.70000 504.399
21.87000 596.247
22.04000 686.194
22.21000 627.859
22.38000 515.663
22.55000 500.641
22.72000 453.021
22.89000 464.281
23.06000 456.936
23.23000 436.045
23.40000 443.637
23.57000 435.292
23.74000 445.096
23.91000 445.419
24.08000 413.218
24.25000 430.417
24.42000 407.072
24.59000 433.721
24.76000 409.446
24.93000 423.307
25.10000 423.740
25.27000 419.347
25.44000 413.046
25.61000 404.910
25.78000 398.038
25.95000 412.940
26.12000 404.024
26.29000 394.281
26.46000 395.767
26.63000 384.199
26.80000 369.402
26.97000 371.737
27.14000 385.026
27.31000 376.702
27.48000 395.445
27.65000 394.869
27.82000 372.994
27.99000 388.967
28.16000 379.549
28.33000 366.396
28.50000 366.405
28.67000 370.876
28.84000 369.165
29.01000 378.866
29.18000 355.657
29.35000 358.389
29.52000 359.378
29.69000 372.525
29.86000 422.615
30.03000 463.667
30.20000 420.556
30.37000 407.951
30.54000 396.803
30.71000 410.073
30.88000 466.325
31.05000 629.346
31.22000 1655.426
31.39000 3039.543
31.56000 1776.082
31.73000 675.484
31.90000 458.731
32.07000 381.839
32.24000 361.112
32.41000 346.656
32.58000 341.999
32.75000 329.839
32.92000 324.002
33.09000 314.907
33.26000 293.808
33.43000 307.608
33.60000 302.370
33.77000 289.499
33.94000 288.222
34.11000 291.289
34.28000 281.885
34.45000 285.864
34.62000 281.804
34.79000 284.465
34.96000 296.895
35.13000 287.721
35.30000 286.319
35.47000 282.243
35.64000 266.534
35.81000 270.719
35.98000 279.885
36.15000 272.070
36.32000 255.260
36.49000 264.167
36.66000 263.395
36.83000 265.139
37.00000 274.963
37.17000 274.487
37.34000 266.841
37.51000 269.009
37.68000 260.097
37.85000 267.037
38.02000 262.342
38.19000 294.484
38.36000 335.649
38.53000 589.362
38.70000 994.977
38.87000 645.948
39.04000 327.806
39.21000 266.156
39.38000 254.711
39.55000 250.440
39.72000 248.374
39.89000 239.516
40.06000 225.257
40.23000 217.963
40.40000 217.964
40.57000 233.014
40.74000 227.861
40.91000 222.496
41.08000 224.657
41.25000 226.641
41.42000 222.782
41.59000 217.797
41.76000 212.669
41.93000 206.853
42.10000 198.616
42.27000 205.906
42.44000 222.982
42.61000 202.147
42.78000 202.673
42.95000 218.691
43.12000 207.218
43.29000 203.833
43.46000 198.520
43.63000 201.197
43.80000 195.301
43.97000 189.021
44.14000 183.241
44.31000 211.667
44.48000 202.661
44.65000 220.350
44.82000 267.629
44.99000 339.189
45.16000 367.852
45.33000 317.331
45.50000 255.392
45.67000 224.267
45.84000 206.776
46.01000 184.647
46.18000 189.046
46.35000 178.818
46.52000 177.090
46.69000 163.941
46.86000 187.879
47.03000 165.120
47.20000 159.305
47.37000 171.925
47.54000 173.212
47.71000 166.961
47.88000 160.265
48.05000 159.429
48.22000 163.053
48.39000 154.901
48.56000 161.567
48.73000 147.963
48.90000 157.435
49.07000 156.068
49.24000 150.220
49.41000 163.071
49.58000 158.469
49.75000 154.523
49.92000 160.322
50.09000 156.828
50.26000 173.819
50.43000 176.480
50.60000 222.505
50.77000 232.696
50.94000 208.842
51.11000 171.618
51.28000 151.986
51.45000 158.810
51.62000 142.416
51.79000 144.307
51.96000 147.872
52.13000 152.004
52.30000 138.882
52.47000 148.872
52.64000 146.156
52.81000 142.222
52.98000 145.628
53.15000 147.191
53.32000 151.061
53.49000 149.098
53.66000 138.023
53.83000 143.867
54.00000 140.237
54.17000 146.230
54.34000 138.044
54.51000 137.814
54.68000 138.190
54.85000 147.420
55.02000 151.173
55.19000 148.621
55.36000 167.847
55.53000 189.843
55.70000 290.666
55.87000 531.996
56.04000 537.868
56.21000 344.056
56.38000 215.446
56.55000 169.871
56.72000 147.438
56.89000 132.801
57.06000 129.099
57.23000 129.108
57.40000 122.978
57.57000 128.503
57.74000 127.516
57.91000 132.399
58.08000 128.208
58.25000 131.163
58.42000 119.516
58.59000 134.656
58.76000 122.425
58.93000 126.080
59.10000 126.404
59.27000 122.422
59.44000 118.692
59.61000 127.535
59.78000 121.176
59.95000 118.409
60.12000 132.621
60.29000 117.248
60.46000 125.108
60.63000 122.343
60.80000 123.380
60.97000 117.937
61.14000 130.436
61.31000 127.202
61.48000 159.163
61.65000 400.418
61.82000 237.718
61.99000 130.456
62.16000 132.764
62.33000 126.148
62.50000 138.387
62.67000 138.872
62.84000 128.366
63.01000 135.500
63.18000 127.217
63.35000 146.811
63.52000 140.893
63.69000 154.208
63.86000 149.507
64.03000 155.165
64.20000 157.360
64.37000 157.728
64.54000 174.144
64.71000 183.722
64.88000 198.296
65.05000 219.015
65.22000 262.407
65.39000 355.925
65.56000 517.793
65.73000 1757.489
65.90000 3082.537
66.07000 690.864
66.24000 548.237
66.41000 921.117
66.58000 544.060
66.75000 478.636
66.92000 459.653
67.09000 473.580
67.26000 487.473
67.43000 528.903
67.60000 543.627
67.77000 556.678
67.94000 622.374
68.11000 661.446
68.28000 740.522
68.45000 844.627
68.62000 1252.976
68.79000 2483.420
68.96000 18288.432
69.13000 75610.305
69.30000 40220.926
69.47000 9036.596
69.64000 1238.750
69.81000 770.850
69.98000 608.230
70.00000 622.297