File: XRD/XRD/09-10-2025 Dep 8/XY Data/BTO_Mapping_Theta2Theta_09-10-2025_001_35_-19-563_-4-158.xy
20.00000 487.878
20.17000 479.112
20.34000 502.115
20.51000 487.031
20.68000 478.648
20.85000 483.256
21.02000 496.851
21.19000 495.810
21.36000 480.509
21.53000 491.728
21.70000 515.561
21.87000 630.865
22.04000 731.085
22.21000 610.515
22.38000 530.161
22.55000 474.185
22.72000 459.600
22.89000 438.737
23.06000 456.362
23.23000 448.858
23.40000 438.934
23.57000 443.314
23.74000 434.750
23.91000 433.057
24.08000 432.385
24.25000 413.597
24.42000 428.041
24.59000 430.340
24.76000 422.167
24.93000 398.157
25.10000 416.170
25.27000 407.671
25.44000 406.884
25.61000 404.195
25.78000 406.348
25.95000 396.993
26.12000 397.762
26.29000 393.408
26.46000 395.138
26.63000 402.182
26.80000 401.443
26.97000 388.059
27.14000 392.313
27.31000 372.499
27.48000 375.225
27.65000 391.479
27.82000 412.952
27.99000 385.729
28.16000 378.901
28.33000 361.498
28.50000 359.539
28.67000 373.297
28.84000 382.316
29.01000 342.327
29.18000 362.600
29.35000 366.093
29.52000 364.329
29.69000 375.848
29.86000 414.571
30.03000 456.432
30.20000 415.173
30.37000 405.354
30.54000 389.003
30.71000 423.008
30.88000 450.544
31.05000 646.171
31.22000 1716.584
31.39000 3117.116
31.56000 1768.257
31.73000 648.421
31.90000 423.395
32.07000 374.079
32.24000 341.042
32.41000 341.417
32.58000 337.091
32.75000 335.159
32.92000 308.595
33.09000 306.703
33.26000 321.342
33.43000 319.721
33.60000 309.379
33.77000 301.247
33.94000 280.858
34.11000 286.475
34.28000 289.921
34.45000 287.823
34.62000 288.545
34.79000 290.486
34.96000 284.564
35.13000 284.892
35.30000 277.784
35.47000 281.010
35.64000 272.476
35.81000 274.367
35.98000 265.633
36.15000 267.916
36.32000 283.007
36.49000 253.395
36.66000 269.748
36.83000 264.741
37.00000 280.364
37.17000 277.148
37.34000 272.791
37.51000 258.285
37.68000 257.955
37.85000 275.423
38.02000 265.891
38.19000 296.600
38.36000 335.044
38.53000 587.228
38.70000 838.683
38.87000 543.786
39.04000 314.330
39.21000 259.575
39.38000 254.863
39.55000 255.196
39.72000 246.197
39.89000 227.818
40.06000 236.047
40.23000 235.845
40.40000 223.673
40.57000 228.049
40.74000 236.727
40.91000 229.455
41.08000 228.347
41.25000 228.764
41.42000 220.232
41.59000 216.366
41.76000 223.189
41.93000 238.155
42.10000 205.767
42.27000 211.539
42.44000 199.987
42.61000 218.301
42.78000 205.534
42.95000 217.012
43.12000 218.838
43.29000 209.478
43.46000 207.438
43.63000 192.982
43.80000 203.056
43.97000 207.499
44.14000 201.146
44.31000 215.575
44.48000 220.801
44.65000 255.486
44.82000 327.607
44.99000 416.654
45.16000 394.279
45.33000 309.540
45.50000 246.853
45.67000 215.434
45.84000 203.301
46.01000 186.249
46.18000 183.413
46.35000 182.880
46.52000 186.032
46.69000 184.371
46.86000 164.012
47.03000 185.437
47.20000 162.684
47.37000 162.474
47.54000 164.181
47.71000 171.291
47.88000 167.782
48.05000 171.807
48.22000 157.505
48.39000 164.839
48.56000 166.345
48.73000 152.185
48.90000 161.429
49.07000 161.493
49.24000 157.715
49.41000 180.041
49.58000 167.991
49.75000 161.367
49.92000 161.508
50.09000 166.744
50.26000 166.482
50.43000 190.247
50.60000 231.091
50.77000 240.617
50.94000 193.229
51.11000 161.852
51.28000 163.216
51.45000 163.441
51.62000 158.094
51.79000 138.026
51.96000 158.072
52.13000 149.964
52.30000 144.370
52.47000 139.488
52.64000 137.089
52.81000 140.620
52.98000 141.788
53.15000 157.438
53.32000 157.725
53.49000 159.719
53.66000 153.010
53.83000 151.393
54.00000 141.156
54.17000 127.275
54.34000 140.827
54.51000 146.828
54.68000 142.194
54.85000 149.901
55.02000 166.129
55.19000 157.871
55.36000 166.719
55.53000 218.265
55.70000 381.157
55.87000 536.147
56.04000 520.010
56.21000 318.476
56.38000 212.877
56.55000 172.404
56.72000 152.904
56.89000 141.025
57.06000 143.642
57.23000 127.749
57.40000 129.995
57.57000 133.625
57.74000 128.627
57.91000 126.215
58.08000 134.030
58.25000 126.720
58.42000 125.092
58.59000 119.383
58.76000 120.579
58.93000 127.833
59.10000 129.419
59.27000 134.148
59.44000 121.666
59.61000 112.911
59.78000 124.216
59.95000 121.217
60.12000 110.729
60.29000 110.302
60.46000 122.463
60.63000 123.848
60.80000 122.058
60.97000 127.828
61.14000 139.455
61.31000 118.264
61.48000 142.157
61.65000 429.166
61.82000 263.896
61.99000 143.328
62.16000 132.787
62.33000 132.428
62.50000 135.557
62.67000 145.077
62.84000 140.206
63.01000 147.768
63.18000 148.114
63.35000 134.557
63.52000 146.110
63.69000 150.813
63.86000 153.937
64.03000 155.917
64.20000 160.352
64.37000 168.534
64.54000 182.868
64.71000 185.202
64.88000 195.681
65.05000 223.554
65.22000 265.842
65.39000 371.798
65.56000 533.545
65.73000 1850.561
65.90000 3352.867
66.07000 730.876
66.24000 557.550
66.41000 971.965
66.58000 575.661
66.75000 452.629
66.92000 474.455
67.09000 506.602
67.26000 496.300
67.43000 545.691
67.60000 556.846
67.77000 606.133
67.94000 628.153
68.11000 677.367
68.28000 762.099
68.45000 893.050
68.62000 1319.992
68.79000 2651.078
68.96000 19155.232
69.13000 82060.508
69.30000 44065.371
69.47000 10158.510
69.64000 1320.488
69.81000 812.647
69.98000 622.941
70.00000 623.738