File: XRD/XRD/09-10-2025 Dep 8/XY Data/BTO_Mapping_Theta2Theta_09-10-2025_001_48_-3-136_-29-836.xy
20.00000 503.451
20.17000 495.701
20.34000 494.139
20.51000 483.449
20.68000 485.359
20.85000 495.623
21.02000 485.770
21.19000 480.386
21.36000 478.631
21.53000 480.547
21.70000 493.974
21.87000 575.348
22.04000 677.133
22.21000 620.289
22.38000 528.373
22.55000 470.984
22.72000 453.655
22.89000 452.978
23.06000 437.152
23.23000 438.770
23.40000 445.303
23.57000 443.582
23.74000 433.039
23.91000 424.008
24.08000 426.168
24.25000 425.755
24.42000 434.369
24.59000 418.009
24.76000 420.563
24.93000 410.137
25.10000 402.148
25.27000 400.897
25.44000 415.759
25.61000 391.417
25.78000 393.753
25.95000 408.306
26.12000 397.599
26.29000 396.058
26.46000 400.561
26.63000 387.902
26.80000 386.515
26.97000 387.150
27.14000 391.118
27.31000 394.753
27.48000 375.246
27.65000 390.117
27.82000 371.283
27.99000 378.045
28.16000 367.306
28.33000 385.555
28.50000 363.475
28.67000 375.569
28.84000 350.408
29.01000 354.622
29.18000 360.350
29.35000 364.230
29.52000 359.018
29.69000 385.237
29.86000 404.752
30.03000 452.301
30.20000 437.651
30.37000 409.250
30.54000 409.265
30.71000 413.987
30.88000 432.021
31.05000 638.778
31.22000 1565.796
31.39000 3042.587
31.56000 1939.039
31.73000 752.621
31.90000 455.201
32.07000 379.423
32.24000 353.669
32.41000 340.844
32.58000 335.963
32.75000 323.181
32.92000 327.899
33.09000 315.397
33.26000 300.711
33.43000 309.672
33.60000 289.182
33.77000 297.913
33.94000 293.855
34.11000 292.794
34.28000 289.868
34.45000 313.609
34.62000 276.987
34.79000 292.408
34.96000 276.213
35.13000 273.349
35.30000 283.159
35.47000 279.184
35.64000 274.485
35.81000 273.730
35.98000 262.444
36.15000 270.767
36.32000 268.886
36.49000 269.275
36.66000 274.767
36.83000 264.624
37.00000 281.459
37.17000 278.472
37.34000 268.832
37.51000 258.498
37.68000 278.749
37.85000 260.933
38.02000 253.267
38.19000 283.809
38.36000 320.618
38.53000 564.557
38.70000 969.392
38.87000 672.438
39.04000 348.442
39.21000 293.849
39.38000 255.946
39.55000 249.485
39.72000 236.253
39.89000 227.694
40.06000 237.719
40.23000 222.032
40.40000 226.642
40.57000 226.567
40.74000 222.708
40.91000 212.063
41.08000 213.569
41.25000 214.684
41.42000 215.404
41.59000 209.073
41.76000 208.548
41.93000 198.596
42.10000 217.523
42.27000 200.364
42.44000 211.707
42.61000 213.452
42.78000 203.782
42.95000 197.738
43.12000 212.571
43.29000 208.239
43.46000 197.915
43.63000 200.644
43.80000 207.763
43.97000 197.778
44.14000 206.202
44.31000 210.835
44.48000 212.484
44.65000 235.836
44.82000 276.695
44.99000 382.425
45.16000 371.280
45.33000 293.803
45.50000 254.927
45.67000 212.752
45.84000 217.191
46.01000 198.372
46.18000 185.177
46.35000 183.664
46.52000 173.597
46.69000 183.250
46.86000 172.790
47.03000 175.121
47.20000 164.600
47.37000 166.438
47.54000 157.697
47.71000 161.079
47.88000 161.414
48.05000 178.161
48.22000 163.016
48.39000 175.300
48.56000 167.713
48.73000 162.870
48.90000 152.177
49.07000 157.739
49.24000 164.640
49.41000 150.009
49.58000 147.982
49.75000 162.223
49.92000 164.662
50.09000 160.375
50.26000 155.341
50.43000 180.665
50.60000 219.104
50.77000 249.772
50.94000 208.161
51.11000 171.548
51.28000 167.649
51.45000 160.606
51.62000 165.339
51.79000 147.919
51.96000 136.958
52.13000 145.127
52.30000 143.166
52.47000 142.940
52.64000 136.008
52.81000 138.537
52.98000 133.654
53.15000 147.219
53.32000 156.287
53.49000 159.812
53.66000 154.839
53.83000 135.300
54.00000 141.410
54.17000 153.083
54.34000 141.170
54.51000 141.825
54.68000 132.875
54.85000 143.276
55.02000 144.211
55.19000 143.585
55.36000 167.135
55.53000 195.944
55.70000 291.769
55.87000 506.989
56.04000 553.023
56.21000 358.813
56.38000 227.157
56.55000 159.809
56.72000 157.625
56.89000 137.527
57.06000 136.383
57.23000 124.154
57.40000 123.303
57.57000 128.189
57.74000 128.437
57.91000 119.642
58.08000 122.914
58.25000 138.064
58.42000 126.159
58.59000 127.203
58.76000 117.700
58.93000 124.730
59.10000 126.575
59.27000 112.403
59.44000 124.727
59.61000 128.432
59.78000 119.949
59.95000 123.103
60.12000 121.796
60.29000 119.299
60.46000 129.623
60.63000 119.404
60.80000 115.252
60.97000 115.932
61.14000 125.519
61.31000 127.788
61.48000 134.301
61.65000 385.051
61.82000 236.430
61.99000 134.479
62.16000 140.157
62.33000 130.296
62.50000 140.567
62.67000 138.766
62.84000 132.975
63.01000 138.601
63.18000 147.980
63.35000 141.980
63.52000 139.361
63.69000 146.155
63.86000 143.128
64.03000 150.170
64.20000 161.767
64.37000 165.568
64.54000 178.126
64.71000 182.693
64.88000 205.369
65.05000 210.314
65.22000 263.534
65.39000 344.091
65.56000 514.788
65.73000 1695.807
65.90000 3235.679
66.07000 738.128
66.24000 547.004
66.41000 921.767
66.58000 555.177
66.75000 452.173
66.92000 451.162
67.09000 470.156
67.26000 509.098
67.43000 507.492
67.60000 574.212
67.77000 597.610
67.94000 617.367
68.11000 662.577
68.28000 725.818
68.45000 846.742
68.62000 1286.003
68.79000 2522.833
68.96000 16927.211
69.13000 76797.125
69.30000 42071.750
69.47000 10235.464
69.64000 1265.564
69.81000 774.366
69.98000 628.720
70.00000 614.181