File: XRD/XRD/09-10-2025 Dep 8/XY Data/BTO_Mapping_Theta2Theta_09-10-2025_001_09_36-542_16-269.xy
20.00000 485.587
20.17000 482.541
20.34000 494.768
20.51000 487.751
20.68000 477.501
20.85000 487.743
21.02000 468.344
21.19000 477.757
21.36000 451.535
21.53000 453.511
21.70000 488.347
21.87000 500.793
22.04000 558.828
22.21000 567.348
22.38000 520.702
22.55000 461.915
22.72000 461.036
22.89000 451.520
23.06000 466.653
23.23000 436.376
23.40000 452.413
23.57000 448.455
23.74000 452.705
23.91000 452.526
24.08000 461.110
24.25000 438.013
24.42000 408.944
24.59000 422.080
24.76000 425.097
24.93000 413.085
25.10000 398.474
25.27000 406.136
25.44000 411.822
25.61000 409.729
25.78000 403.854
25.95000 396.937
26.12000 405.043
26.29000 405.878
26.46000 393.694
26.63000 398.671
26.80000 369.277
26.97000 370.144
27.14000 381.681
27.31000 377.672
27.48000 362.865
27.65000 371.468
27.82000 379.792
27.99000 392.137
28.16000 362.323
28.33000 367.460
28.50000 358.676
28.67000 350.164
28.84000 384.250
29.01000 363.765
29.18000 349.997
29.35000 347.629
29.52000 351.603
29.69000 353.727
29.86000 383.551
30.03000 398.372
30.20000 376.952
30.37000 377.905
30.54000 381.367
30.71000 371.976
30.88000 415.395
31.05000 457.642
31.22000 794.004
31.39000 1541.000
31.56000 1351.576
31.73000 655.332
31.90000 423.178
32.07000 356.493
32.24000 334.207
32.41000 351.772
32.58000 324.348
32.75000 319.954
32.92000 309.221
33.09000 306.628
33.26000 302.082
33.43000 291.280
33.60000 285.860
33.77000 297.663
33.94000 299.260
34.11000 291.091
34.28000 294.678
34.45000 287.242
34.62000 282.252
34.79000 287.506
34.96000 273.623
35.13000 267.205
35.30000 266.774
35.47000 274.886
35.64000 269.161
35.81000 273.106
35.98000 269.658
36.15000 261.300
36.32000 266.713
36.49000 262.122
36.66000 258.933
36.83000 275.492
37.00000 280.111
37.17000 261.151
37.34000 258.449
37.51000 258.732
37.68000 263.311
37.85000 250.939
38.02000 271.544
38.19000 263.831
38.36000 259.207
38.53000 341.652
38.70000 762.572
38.87000 824.175
39.04000 393.950
39.21000 265.914
39.38000 228.908
39.55000 236.962
39.72000 221.921
39.89000 234.524
40.06000 231.159
40.23000 218.767
40.40000 227.653
40.57000 225.637
40.74000 222.194
40.91000 218.662
41.08000 206.700
41.25000 218.145
41.42000 203.298
41.59000 207.312
41.76000 206.187
41.93000 212.685
42.10000 215.757
42.27000 205.432
42.44000 202.169
42.61000 198.592
42.78000 196.918
42.95000 207.573
43.12000 198.495
43.29000 203.747
43.46000 207.381
43.63000 191.678
43.80000 183.906
43.97000 188.817
44.14000 193.542
44.31000 184.193
44.48000 196.993
44.65000 203.644
44.82000 218.354
44.99000 247.854
45.16000 266.003
45.33000 252.385
45.50000 250.924
45.67000 225.721
45.84000 211.823
46.01000 196.097
46.18000 175.972
46.35000 187.107
46.52000 176.090
46.69000 182.729
46.86000 172.527
47.03000 173.768
47.20000 171.170
47.37000 174.730
47.54000 159.681
47.71000 158.411
47.88000 169.258
48.05000 165.207
48.22000 153.587
48.39000 165.892
48.56000 158.813
48.73000 155.559
48.90000 152.308
49.07000 150.139
49.24000 155.396
49.41000 152.386
49.58000 164.926
49.75000 160.121
49.92000 143.504
50.09000 157.331
50.26000 150.928
50.43000 157.276
50.60000 164.989
50.77000 191.979
50.94000 170.966
51.11000 170.700
51.28000 161.399
51.45000 153.062
51.62000 156.941
51.79000 144.855
51.96000 144.613
52.13000 142.760
52.30000 143.576
52.47000 153.773
52.64000 137.867
52.81000 140.701
52.98000 132.586
53.15000 136.498
53.32000 142.992
53.49000 154.640
53.66000 149.230
53.83000 148.863
54.00000 143.619
54.17000 138.469
54.34000 136.190
54.51000 136.282
54.68000 143.395
54.85000 140.354
55.02000 143.025
55.19000 136.793
55.36000 146.853
55.53000 158.168
55.70000 212.962
55.87000 379.316
56.04000 553.355
56.21000 477.439
56.38000 264.313
56.55000 184.451
56.72000 154.378
56.89000 134.287
57.06000 124.929
57.23000 129.782
57.40000 128.055
57.57000 133.274
57.74000 131.372
57.91000 131.554
58.08000 126.254
58.25000 119.812
58.42000 113.818
58.59000 134.564
58.76000 118.589
58.93000 123.957
59.10000 116.426
59.27000 111.972
59.44000 121.170
59.61000 120.555
59.78000 127.049
59.95000 121.256
60.12000 116.098
60.29000 123.237
60.46000 118.015
60.63000 123.264
60.80000 117.885
60.97000 126.366
61.14000 125.129
61.31000 124.249
61.48000 120.809
61.65000 279.096
61.82000 204.047
61.99000 129.541
62.16000 137.309
62.33000 122.916
62.50000 131.939
62.67000 140.483
62.84000 128.206
63.01000 139.924
63.18000 146.232
63.35000 140.615
63.52000 137.973
63.69000 135.326
63.86000 145.736
64.03000 150.819
64.20000 151.047
64.37000 156.880
64.54000 156.802
64.71000 176.248
64.88000 165.296
65.05000 196.813
65.22000 204.924
65.39000 241.216
65.56000 362.687
65.73000 1069.063
65.90000 1924.056
66.07000 515.018
66.24000 407.347
66.41000 639.956
66.58000 404.608
66.75000 349.748
66.92000 370.057
67.09000 380.214
67.26000 391.650
67.43000 402.720
67.60000 457.833
67.77000 468.762
67.94000 491.698
68.11000 530.363
68.28000 596.958
68.45000 678.878
68.62000 955.857
68.79000 1688.269
68.96000 10006.896
69.13000 46467.879
69.30000 25486.611
69.47000 6255.994
69.64000 979.110
69.81000 649.941
69.98000 516.307
70.00000 505.281