File: XRD/XRD/09-10-2025 Dep 8/XY Data/BTO_Mapping_Theta2Theta_09-10-2025_001_11_13-383_14-863.xy
20.00000 493.529
20.17000 477.931
20.34000 497.854
20.51000 483.394
20.68000 480.242
20.85000 468.190
21.02000 469.973
21.19000 465.668
21.36000 456.266
21.53000 494.906
21.70000 481.118
21.87000 498.019
22.04000 559.940
22.21000 614.364
22.38000 524.539
22.55000 473.292
22.72000 455.453
22.89000 470.308
23.06000 465.220
23.23000 443.208
23.40000 433.402
23.57000 421.453
23.74000 426.285
23.91000 422.499
24.08000 414.829
24.25000 446.681
24.42000 420.321
24.59000 434.218
24.76000 404.064
24.93000 419.400
25.10000 410.031
25.27000 410.878
25.44000 390.594
25.61000 415.452
25.78000 391.257
25.95000 392.195
26.12000 387.224
26.29000 396.270
26.46000 402.197
26.63000 387.902
26.80000 382.141
26.97000 383.972
27.14000 367.507
27.31000 383.323
27.48000 373.213
27.65000 370.428
27.82000 371.453
27.99000 364.975
28.16000 379.990
28.33000 383.622
28.50000 362.560
28.67000 357.234
28.84000 359.815
29.01000 358.293
29.18000 365.622
29.35000 364.775
29.52000 355.999
29.69000 378.324
29.86000 383.729
30.03000 431.480
30.20000 426.033
30.37000 386.792
30.54000 417.210
30.71000 400.725
30.88000 428.354
31.05000 541.016
31.22000 1199.365
31.39000 2667.314
31.56000 1898.941
31.73000 738.134
31.90000 412.406
32.07000 371.311
32.24000 355.486
32.41000 330.661
32.58000 328.984
32.75000 322.671
32.92000 317.488
33.09000 311.075
33.26000 298.138
33.43000 291.001
33.60000 299.492
33.77000 283.119
33.94000 286.792
34.11000 286.742
34.28000 292.122
34.45000 295.960
34.62000 271.701
34.79000 284.521
34.96000 267.176
35.13000 271.177
35.30000 273.563
35.47000 281.680
35.64000 268.047
35.81000 275.747
35.98000 270.715
36.15000 261.461
36.32000 263.667
36.49000 259.441
36.66000 257.939
36.83000 263.189
37.00000 278.906
37.17000 280.892
37.34000 284.406
37.51000 262.724
37.68000 262.477
37.85000 251.141
38.02000 253.028
38.19000 269.935
38.36000 297.773
38.53000 445.832
38.70000 916.779
38.87000 818.608
39.04000 357.704
39.21000 275.026
39.38000 242.771
39.55000 243.191
39.72000 231.576
39.89000 240.178
40.06000 230.299
40.23000 225.214
40.40000 233.173
40.57000 212.141
40.74000 232.053
40.91000 210.884
41.08000 215.870
41.25000 221.118
41.42000 214.455
41.59000 201.376
41.76000 210.168
41.93000 206.887
42.10000 205.068
42.27000 196.615
42.44000 218.816
42.61000 200.368
42.78000 205.201
42.95000 202.465
43.12000 200.172
43.29000 208.996
43.46000 196.616
43.63000 196.146
43.80000 204.147
43.97000 198.834
44.14000 191.471
44.31000 197.468
44.48000 194.699
44.65000 213.871
44.82000 219.638
44.99000 239.164
45.16000 292.086
45.33000 285.001
45.50000 260.217
45.67000 226.559
45.84000 221.705
46.01000 202.667
46.18000 188.485
46.35000 182.263
46.52000 158.542
46.69000 186.699
46.86000 180.002
47.03000 160.023
47.20000 174.517
47.37000 161.543
47.54000 171.339
47.71000 165.559
47.88000 161.061
48.05000 165.945
48.22000 154.435
48.39000 153.551
48.56000 163.345
48.73000 152.820
48.90000 150.811
49.07000 158.266
49.24000 163.230
49.41000 161.100
49.58000 155.116
49.75000 146.959
49.92000 159.072
50.09000 148.518
50.26000 155.088
50.43000 162.457
50.60000 193.256
50.77000 231.010
50.94000 209.297
51.11000 166.641
51.28000 164.157
51.45000 154.278
51.62000 152.427
51.79000 148.109
51.96000 144.963
52.13000 139.159
52.30000 139.046
52.47000 140.277
52.64000 146.561
52.81000 145.994
52.98000 144.784
53.15000 138.554
53.32000 146.061
53.49000 154.850
53.66000 150.687
53.83000 133.357
54.00000 139.595
54.17000 147.365
54.34000 138.759
54.51000 134.720
54.68000 139.268
54.85000 140.864
55.02000 145.326
55.19000 143.960
55.36000 150.214
55.53000 172.398
55.70000 209.621
55.87000 402.161
56.04000 552.204
56.21000 418.678
56.38000 237.368
56.55000 167.445
56.72000 154.159
56.89000 143.768
57.06000 136.184
57.23000 130.914
57.40000 124.893
57.57000 124.263
57.74000 124.953
57.91000 118.748
58.08000 124.559
58.25000 127.945
58.42000 119.377
58.59000 137.729
58.76000 117.335
58.93000 128.262
59.10000 122.686
59.27000 119.619
59.44000 116.471
59.61000 118.629
59.78000 117.778
59.95000 131.724
60.12000 125.473
60.29000 106.103
60.46000 120.333
60.63000 124.282
60.80000 121.896
60.97000 127.344
61.14000 117.967
61.31000 124.981
61.48000 130.294
61.65000 319.513
61.82000 184.961
61.99000 133.717
62.16000 133.436
62.33000 127.237
62.50000 141.962
62.67000 133.218
62.84000 140.936
63.01000 134.420
63.18000 127.281
63.35000 124.594
63.52000 142.193
63.69000 137.525
63.86000 143.128
64.03000 155.770
64.20000 148.164
64.37000 159.132
64.54000 154.037
64.71000 162.270
64.88000 175.005
65.05000 202.482
65.22000 227.254
65.39000 306.246
65.56000 454.832
65.73000 1284.818
65.90000 2250.749
66.07000 566.132
66.24000 432.061
66.41000 710.013
66.58000 450.490
66.75000 361.044
66.92000 382.522
67.09000 416.171
67.26000 413.800
67.43000 462.657
67.60000 468.795
67.77000 495.332
67.94000 514.913
68.11000 565.717
68.28000 595.566
68.45000 699.867
68.62000 1037.240
68.79000 1900.080
68.96000 12171.329
69.13000 53495.211
69.30000 28568.828
69.47000 6553.750
69.64000 995.671
69.81000 682.601
69.98000 521.535
70.00000 505.382