File: XRD/XRD/09-10-2025 Dep 8/XY Data/BTO_Mapping_Theta2Theta_09-10-2025_001_08_27-406_12-202.xy
20.00000 475.830
20.17000 482.021
20.34000 471.152
20.51000 477.749
20.68000 472.161
20.85000 461.839
21.02000 477.244
21.19000 485.788
21.36000 460.940
21.53000 458.868
21.70000 459.275
21.87000 513.253
22.04000 584.517
22.21000 574.322
22.38000 518.135
22.55000 481.681
22.72000 451.214
22.89000 433.629
23.06000 426.664
23.23000 449.772
23.40000 449.253
23.57000 440.360
23.74000 454.324
23.91000 445.800
24.08000 440.403
24.25000 428.474
24.42000 415.344
24.59000 415.318
24.76000 389.232
24.93000 426.136
25.10000 407.423
25.27000 418.464
25.44000 397.146
25.61000 408.155
25.78000 391.014
25.95000 390.499
26.12000 396.677
26.29000 392.340
26.46000 384.805
26.63000 396.733
26.80000 372.030
26.97000 386.509
27.14000 364.766
27.31000 388.799
27.48000 390.804
27.65000 377.338
27.82000 377.650
27.99000 386.132
28.16000 374.585
28.33000 380.674
28.50000 374.129
28.67000 360.960
28.84000 331.805
29.01000 346.766
29.18000 352.538
29.35000 345.919
29.52000 373.381
29.69000 351.803
29.86000 374.153
30.03000 414.765
30.20000 416.345
30.37000 389.117
30.54000 400.313
30.71000 378.353
30.88000 402.522
31.05000 494.221
31.22000 923.555
31.39000 1964.159
31.56000 1572.261
31.73000 683.684
31.90000 419.466
32.07000 362.313
32.24000 339.605
32.41000 345.897
32.58000 329.258
32.75000 327.856
32.92000 296.991
33.09000 313.528
33.26000 299.093
33.43000 294.776
33.60000 281.603
33.77000 293.803
33.94000 287.031
34.11000 293.984
34.28000 292.560
34.45000 302.285
34.62000 301.634
34.79000 277.009
34.96000 267.085
35.13000 279.023
35.30000 273.452
35.47000 259.789
35.64000 275.329
35.81000 251.476
35.98000 267.092
36.15000 274.731
36.32000 264.551
36.49000 254.823
36.66000 257.206
36.83000 265.149
37.00000 284.934
37.17000 284.741
37.34000 266.084
37.51000 262.315
37.68000 261.282
37.85000 254.723
38.02000 259.023
38.19000 254.582
38.36000 282.555
38.53000 396.783
38.70000 841.440
38.87000 818.451
39.04000 396.262
39.21000 268.508
39.38000 257.524
39.55000 240.407
39.72000 236.507
39.89000 230.132
40.06000 232.698
40.23000 224.893
40.40000 213.532
40.57000 213.586
40.74000 234.903
40.91000 216.182
41.08000 209.858
41.25000 216.511
41.42000 208.525
41.59000 214.115
41.76000 208.346
41.93000 215.158
42.10000 221.321
42.27000 204.864
42.44000 201.834
42.61000 203.502
42.78000 209.313
42.95000 200.003
43.12000 206.973
43.29000 199.017
43.46000 192.965
43.63000 201.066
43.80000 194.929
43.97000 187.089
44.14000 193.797
44.31000 191.229
44.48000 207.846
44.65000 206.262
44.82000 208.449
44.99000 243.631
45.16000 268.865
45.33000 254.751
45.50000 247.817
45.67000 216.766
45.84000 208.440
46.01000 197.501
46.18000 175.978
46.35000 173.203
46.52000 174.728
46.69000 176.300
46.86000 169.791
47.03000 169.689
47.20000 178.347
47.37000 169.578
47.54000 167.044
47.71000 164.915
47.88000 151.265
48.05000 175.260
48.22000 158.527
48.39000 164.045
48.56000 161.484
48.73000 154.914
48.90000 150.523
49.07000 165.114
49.24000 162.582
49.41000 141.609
49.58000 140.557
49.75000 152.222
49.92000 142.731
50.09000 157.078
50.26000 150.701
50.43000 167.877
50.60000 190.882
50.77000 191.560
50.94000 197.038
51.11000 166.782
51.28000 159.797
51.45000 143.290
51.62000 143.941
51.79000 138.942
51.96000 140.525
52.13000 143.416
52.30000 147.182
52.47000 131.076
52.64000 142.067
52.81000 141.964
52.98000 136.311
53.15000 143.593
53.32000 139.185
53.49000 151.188
53.66000 148.862
53.83000 149.296
54.00000 140.355
54.17000 134.976
54.34000 136.606
54.51000 130.364
54.68000 137.599
54.85000 136.259
55.02000 141.895
55.19000 141.530
55.36000 151.419
55.53000 162.581
55.70000 226.286
55.87000 393.359
56.04000 597.511
56.21000 449.837
56.38000 262.976
56.55000 176.802
56.72000 145.500
56.89000 143.364
57.06000 129.006
57.23000 136.489
57.40000 132.211
57.57000 127.395
57.74000 129.240
57.91000 127.541
58.08000 117.522
58.25000 121.938
58.42000 120.636
58.59000 125.416
58.76000 128.698
58.93000 115.782
59.10000 115.979
59.27000 113.999
59.44000 118.645
59.61000 115.085
59.78000 129.663
59.95000 117.980
60.12000 121.900
60.29000 113.449
60.46000 125.964
60.63000 128.278
60.80000 118.297
60.97000 125.357
61.14000 124.751
61.31000 118.795
61.48000 124.740
61.65000 278.575
61.82000 192.652
61.99000 128.346
62.16000 122.431
62.33000 132.565
62.50000 127.286
62.67000 136.364
62.84000 134.651
63.01000 140.220
63.18000 141.626
63.35000 136.130
63.52000 133.072
63.69000 135.292
63.86000 135.051
64.03000 142.782
64.20000 143.356
64.37000 154.554
64.54000 171.447
64.71000 160.209
64.88000 182.462
65.05000 197.260
65.22000 224.423
65.39000 268.485
65.56000 377.659
65.73000 1168.073
65.90000 2040.233
66.07000 504.069
66.24000 413.165
66.41000 646.880
66.58000 411.206
66.75000 365.771
66.92000 371.908
67.09000 375.534
67.26000 394.363
67.43000 421.617
67.60000 449.584
67.77000 492.808
67.94000 502.034
68.11000 524.779
68.28000 588.919
68.45000 689.957
68.62000 964.587
68.79000 1737.249
68.96000 11020.711
69.13000 48651.301
69.30000 26007.352
69.47000 6017.216
69.64000 986.842
69.81000 653.445
69.98000 533.993
70.00000 534.302