File: XRD/XRD/09-10-2025 Dep 8/XY Data/BTO_Mapping_Theta2Theta_09-10-2025_001_49_-4-181_-39-781.xy
20.00000 479.202
20.17000 484.974
20.34000 473.591
20.51000 496.124
20.68000 476.171
20.85000 468.432
21.02000 474.204
21.19000 478.455
21.36000 461.551
21.53000 484.626
21.70000 498.593
21.87000 560.278
22.04000 680.034
22.21000 609.754
22.38000 525.525
22.55000 487.858
22.72000 457.544
22.89000 428.078
23.06000 435.267
23.23000 437.880
23.40000 441.957
23.57000 428.486
23.74000 437.802
23.91000 420.224
24.08000 446.191
24.25000 388.005
24.42000 397.876
24.59000 438.658
24.76000 408.190
24.93000 416.413
25.10000 400.065
25.27000 394.754
25.44000 412.927
25.61000 409.742
25.78000 384.977
25.95000 406.712
26.12000 410.444
26.29000 392.901
26.46000 389.281
26.63000 384.298
26.80000 410.352
26.97000 378.401
27.14000 388.405
27.31000 381.100
27.48000 364.944
27.65000 375.640
27.82000 379.101
27.99000 379.263
28.16000 376.717
28.33000 377.502
28.50000 368.051
28.67000 354.513
28.84000 352.904
29.01000 370.677
29.18000 366.064
29.35000 372.672
29.52000 351.995
29.69000 377.541
29.86000 391.959
30.03000 467.220
30.20000 434.278
30.37000 427.815
30.54000 416.778
30.71000 409.748
30.88000 431.699
31.05000 605.153
31.22000 1486.066
31.39000 3063.767
31.56000 2173.668
31.73000 818.245
31.90000 473.160
32.07000 360.023
32.24000 359.173
32.41000 335.590
32.58000 330.984
32.75000 325.511
32.92000 329.716
33.09000 305.821
33.26000 294.812
33.43000 305.051
33.60000 294.607
33.77000 300.043
33.94000 281.977
34.11000 298.143
34.28000 274.443
34.45000 286.324
34.62000 277.843
34.79000 272.458
34.96000 273.714
35.13000 287.405
35.30000 271.170
35.47000 278.534
35.64000 270.718
35.81000 255.265
35.98000 263.910
36.15000 269.273
36.32000 253.741
36.49000 267.753
36.66000 272.999
36.83000 279.068
37.00000 291.014
37.17000 283.463
37.34000 266.553
37.51000 261.521
37.68000 278.215
37.85000 280.518
38.02000 267.892
38.19000 273.903
38.36000 320.047
38.53000 523.045
38.70000 914.898
38.87000 658.180
39.04000 353.844
39.21000 272.177
39.38000 251.474
39.55000 243.455
39.72000 248.399
39.89000 238.838
40.06000 221.990
40.23000 236.119
40.40000 225.257
40.57000 233.523
40.74000 226.707
40.91000 228.979
41.08000 216.170
41.25000 212.087
41.42000 223.762
41.59000 204.536
41.76000 216.497
41.93000 212.613
42.10000 215.605
42.27000 208.381
42.44000 216.375
42.61000 208.548
42.78000 198.754
42.95000 204.275
43.12000 217.406
43.29000 196.684
43.46000 199.751
43.63000 210.086
43.80000 196.639
43.97000 196.451
44.14000 198.891
44.31000 201.676
44.48000 207.415
44.65000 235.850
44.82000 285.709
44.99000 350.200
45.16000 381.786
45.33000 295.642
45.50000 253.404
45.67000 209.281
45.84000 200.582
46.01000 190.639
46.18000 177.145
46.35000 181.056
46.52000 184.280
46.69000 151.943
46.86000 165.371
47.03000 167.642
47.20000 178.816
47.37000 170.191
47.54000 162.058
47.71000 165.383
47.88000 155.278
48.05000 157.447
48.22000 171.192
48.39000 174.840
48.56000 158.973
48.73000 165.213
48.90000 164.823
49.07000 150.402
49.24000 157.844
49.41000 164.608
49.58000 160.186
49.75000 153.450
49.92000 156.384
50.09000 167.682
50.26000 158.862
50.43000 186.995
50.60000 227.663
50.77000 250.970
50.94000 226.883
51.11000 180.536
51.28000 162.772
51.45000 152.698
51.62000 152.514
51.79000 154.131
51.96000 150.413
52.13000 151.550
52.30000 147.452
52.47000 147.696
52.64000 137.967
52.81000 141.300
52.98000 134.773
53.15000 145.201
53.32000 156.803
53.49000 158.520
53.66000 144.307
53.83000 145.332
54.00000 134.950
54.17000 133.367
54.34000 129.909
54.51000 135.590
54.68000 140.315
54.85000 147.151
55.02000 136.433
55.19000 152.424
55.36000 157.809
55.53000 200.712
55.70000 292.308
55.87000 503.211
56.04000 578.091
56.21000 368.805
56.38000 223.897
56.55000 180.593
56.72000 153.103
56.89000 127.732
57.06000 136.329
57.23000 130.855
57.40000 130.421
57.57000 129.811
57.74000 122.131
57.91000 128.106
58.08000 121.488
58.25000 129.724
58.42000 119.723
58.59000 120.953
58.76000 110.329
58.93000 125.371
59.10000 120.909
59.27000 115.456
59.44000 120.797
59.61000 117.961
59.78000 113.683
59.95000 123.657
60.12000 117.946
60.29000 125.468
60.46000 109.303
60.63000 109.291
60.80000 120.762
60.97000 119.796
61.14000 129.659
61.31000 123.459
61.48000 139.717
61.65000 405.481
61.82000 262.010
61.99000 141.107
62.16000 132.267
62.33000 132.478
62.50000 148.921
62.67000 139.907
62.84000 138.607
63.01000 144.815
63.18000 129.921
63.35000 144.855
63.52000 135.884
63.69000 143.083
63.86000 142.966
64.03000 139.925
64.20000 157.939
64.37000 157.178
64.54000 170.809
64.71000 203.124
64.88000 196.005
65.05000 239.412
65.22000 263.921
65.39000 350.910
65.56000 521.557
65.73000 1655.180
65.90000 3256.363
66.07000 817.967
66.24000 548.409
66.41000 934.725
66.58000 591.166
66.75000 462.156
66.92000 465.670
67.09000 484.807
67.26000 483.758
67.43000 509.405
67.60000 577.510
67.77000 585.602
67.94000 624.178
68.11000 681.709
68.28000 735.370
68.45000 860.684
68.62000 1268.564
68.79000 2526.891
68.96000 15534.370
69.13000 78842.727
69.30000 44774.523
69.47000 11846.069
69.64000 1318.351
69.81000 792.476
69.98000 617.854
70.00000 607.128