File: XRD/XRD/07-10-2025 Dep 6/XY Data/BTO_Mapping_Theta2Theta_07-10-2025_001_24_-15-000_25-981.xy
20.00000 465.884
20.17000 439.489
20.34000 459.855
20.51000 469.145
20.68000 468.809
20.85000 465.740
21.02000 447.689
21.19000 459.469
21.36000 477.846
21.53000 451.631
21.70000 465.055
21.87000 489.429
22.04000 556.917
22.21000 526.978
22.38000 473.997
22.55000 449.879
22.72000 433.013
22.89000 432.683
23.06000 432.634
23.23000 418.517
23.40000 437.053
23.57000 433.278
23.74000 444.170
23.91000 463.961
24.08000 464.132
24.25000 440.855
24.42000 412.100
24.59000 392.946
24.76000 417.292
24.93000 404.721
25.10000 395.206
25.27000 398.981
25.44000 389.572
25.61000 388.926
25.78000 380.090
25.95000 386.192
26.12000 389.125
26.29000 384.270
26.46000 367.743
26.63000 378.623
26.80000 381.166
26.97000 380.276
27.14000 380.829
27.31000 382.094
27.48000 375.102
27.65000 374.029
27.82000 366.430
27.99000 350.857
28.16000 356.524
28.33000 350.243
28.50000 356.277
28.67000 343.321
28.84000 349.844
29.01000 337.954
29.18000 341.892
29.35000 342.269
29.52000 340.627
29.69000 340.632
29.86000 353.813
30.03000 360.118
30.20000 370.435
30.37000 340.241
30.54000 343.179
30.71000 336.524
30.88000 384.122
31.05000 465.029
31.22000 781.904
31.39000 1145.341
31.56000 755.121
31.73000 449.940
31.90000 351.538
32.07000 328.619
32.24000 322.215
32.41000 323.355
32.58000 328.091
32.75000 304.716
32.92000 480.666
33.09000 383.299
33.26000 300.432
33.43000 286.416
33.60000 295.212
33.77000 298.781
33.94000 300.852
34.11000 305.572
34.28000 327.935
34.45000 320.531
34.62000 292.625
34.79000 272.902
34.96000 276.576
35.13000 261.078
35.30000 251.637
35.47000 272.096
35.64000 257.654
35.81000 253.611
35.98000 262.260
36.15000 270.895
36.32000 247.418
36.49000 256.565
36.66000 250.731
36.83000 271.651
37.00000 273.359
37.17000 265.118
37.34000 247.845
37.51000 253.930
37.68000 245.001
37.85000 242.880
38.02000 236.372
38.19000 257.662
38.36000 299.125
38.53000 539.909
38.70000 902.497
38.87000 722.204
39.04000 320.734
39.21000 230.348
39.38000 242.409
39.55000 234.207
39.72000 226.624
39.89000 210.726
40.06000 224.406
40.23000 204.690
40.40000 218.186
40.57000 204.829
40.74000 218.650
40.91000 216.115
41.08000 197.643
41.25000 210.165
41.42000 203.348
41.59000 206.052
41.76000 189.095
41.93000 206.268
42.10000 212.880
42.27000 205.174
42.44000 215.974
42.61000 198.426
42.78000 193.598
42.95000 195.876
43.12000 190.771
43.29000 204.560
43.46000 194.308
43.63000 192.622
43.80000 181.202
43.97000 193.202
44.14000 176.156
44.31000 184.506
44.48000 197.072
44.65000 205.192
44.82000 225.160
44.99000 267.536
45.16000 267.742
45.33000 225.980
45.50000 218.761
45.67000 201.588
45.84000 203.347
46.01000 181.985
46.18000 177.925
46.35000 168.049
46.52000 165.739
46.69000 170.959
46.86000 157.430
47.03000 171.900
47.20000 152.254
47.37000 170.482
47.54000 158.107
47.71000 158.477
47.88000 165.027
48.05000 150.748
48.22000 145.300
48.39000 155.845
48.56000 156.812
48.73000 152.772
48.90000 152.783
49.07000 152.467
49.24000 144.961
49.41000 155.433
49.58000 155.445
49.75000 157.254
49.92000 148.417
50.09000 154.299
50.26000 143.241
50.43000 158.663
50.60000 183.132
50.77000 162.043
50.94000 148.803
51.11000 162.543
51.28000 151.202
51.45000 137.588
51.62000 135.449
51.79000 141.678
51.96000 135.937
52.13000 142.570
52.30000 138.527
52.47000 139.050
52.64000 132.731
52.81000 130.872
52.98000 136.933
53.15000 145.446
53.32000 146.262
53.49000 156.542
53.66000 145.247
53.83000 140.955
54.00000 139.913
54.17000 139.619
54.34000 132.694
54.51000 140.108
54.68000 149.672
54.85000 130.899
55.02000 134.535
55.19000 148.014
55.36000 158.425
55.53000 194.665
55.70000 309.440
55.87000 527.332
56.04000 531.384
56.21000 343.034
56.38000 190.679
56.55000 147.669
56.72000 138.842
56.89000 130.142
57.06000 129.006
57.23000 128.611
57.40000 124.872
57.57000 132.280
57.74000 122.159
57.91000 129.007
58.08000 119.164
58.25000 123.828
58.42000 119.926
58.59000 119.159
58.76000 113.250
58.93000 123.066
59.10000 128.580
59.27000 118.553
59.44000 115.403
59.61000 116.083
59.78000 103.528
59.95000 113.034
60.12000 113.696
60.29000 110.246
60.46000 112.234
60.63000 110.272
60.80000 123.588
60.97000 116.780
61.14000 117.557
61.31000 118.526
61.48000 137.101
61.65000 289.559
61.82000 191.759
61.99000 128.498
62.16000 134.844
62.33000 125.211
62.50000 118.863
62.67000 125.148
62.84000 127.713
63.01000 125.553
63.18000 129.422
63.35000 134.209
63.52000 125.706
63.69000 136.398
63.86000 143.835
64.03000 142.528
64.20000 149.807
64.37000 147.730
64.54000 163.215
64.71000 160.257
64.88000 173.534
65.05000 183.217
65.22000 218.982
65.39000 239.685
65.56000 319.375
65.73000 1110.437
65.90000 1938.793
66.07000 480.616
66.24000 399.196
66.41000 623.687
66.58000 409.061
66.75000 365.580
66.92000 355.735
67.09000 371.675
67.26000 381.198
67.43000 411.547
67.60000 436.713
67.77000 457.113
67.94000 474.932
68.11000 509.073
68.28000 565.040
68.45000 658.430
68.62000 925.199
68.79000 1605.772
68.96000 11165.212
69.13000 44553.859
69.30000 23226.848
69.47000 4977.296
69.64000 899.413
69.81000 593.532
69.98000 487.069
70.00000 481.382