File: XRD/XRD/07-10-2025 Dep 6/XY Data/BTO_Mapping_Theta2Theta_07-10-2025_001_55_13-383_-14-863.xy
20.00000 478.870
20.17000 448.644
20.34000 465.056
20.51000 466.115
20.68000 453.587
20.85000 481.037
21.02000 453.498
21.19000 458.243
21.36000 465.565
21.53000 452.775
21.70000 467.141
21.87000 479.722
22.04000 475.539
22.21000 483.571
22.38000 472.818
22.55000 444.785
22.72000 453.320
22.89000 455.743
23.06000 426.333
23.23000 439.968
23.40000 434.474
23.57000 436.269
23.74000 466.425
23.91000 508.052
24.08000 523.675
24.25000 452.023
24.42000 423.004
24.59000 397.277
24.76000 399.852
24.93000 412.395
25.10000 401.676
25.27000 397.377
25.44000 390.472
25.61000 392.740
25.78000 384.940
25.95000 397.368
26.12000 404.198
26.29000 396.676
26.46000 385.620
26.63000 387.898
26.80000 382.667
26.97000 390.394
27.14000 372.366
27.31000 382.586
27.48000 369.747
27.65000 357.066
27.82000 388.069
27.99000 369.593
28.16000 374.026
28.33000 352.821
28.50000 355.369
28.67000 345.201
28.84000 353.566
29.01000 358.953
29.18000 353.713
29.35000 352.565
29.52000 356.394
29.69000 350.397
29.86000 372.302
30.03000 377.846
30.20000 392.965
30.37000 369.581
30.54000 359.987
30.71000 387.981
30.88000 420.000
31.05000 484.662
31.22000 845.109
31.39000 1184.506
31.56000 824.955
31.73000 488.775
31.90000 382.482
32.07000 363.284
32.24000 345.876
32.41000 333.412
32.58000 316.612
32.75000 329.519
32.92000 497.700
33.09000 417.680
33.26000 296.244
33.43000 294.946
33.60000 280.565
33.77000 304.084
33.94000 307.917
34.11000 296.450
34.28000 311.507
34.45000 318.150
34.62000 306.618
34.79000 288.981
34.96000 270.507
35.13000 278.223
35.30000 256.521
35.47000 254.920
35.64000 255.483
35.81000 252.921
35.98000 264.540
36.15000 250.741
36.32000 265.596
36.49000 255.874
36.66000 252.664
36.83000 266.554
37.00000 274.021
37.17000 272.403
37.34000 260.001
37.51000 258.287
37.68000 249.813
37.85000 246.676
38.02000 245.930
38.19000 264.974
38.36000 297.012
38.53000 501.007
38.70000 816.522
38.87000 574.501
39.04000 308.484
39.21000 245.709
39.38000 244.001
39.55000 230.642
39.72000 243.927
39.89000 226.049
40.06000 232.723
40.23000 217.885
40.40000 212.285
40.57000 222.165
40.74000 223.359
40.91000 213.289
41.08000 200.768
41.25000 204.759
41.42000 192.647
41.59000 200.914
41.76000 202.695
41.93000 207.531
42.10000 211.207
42.27000 222.859
42.44000 209.537
42.61000 208.615
42.78000 208.146
42.95000 198.905
43.12000 210.466
43.29000 196.179
43.46000 192.869
43.63000 192.406
43.80000 188.405
43.97000 171.740
44.14000 197.179
44.31000 200.234
44.48000 212.031
44.65000 211.718
44.82000 224.716
44.99000 225.872
45.16000 223.208
45.33000 213.103
45.50000 207.563
45.67000 196.604
45.84000 178.610
46.01000 178.981
46.18000 181.147
46.35000 170.961
46.52000 172.277
46.69000 168.786
46.86000 174.833
47.03000 158.465
47.20000 150.832
47.37000 153.319
47.54000 165.107
47.71000 157.998
47.88000 162.972
48.05000 156.489
48.22000 155.233
48.39000 148.245
48.56000 152.387
48.73000 155.574
48.90000 160.528
49.07000 147.737
49.24000 149.836
49.41000 153.163
49.58000 152.021
49.75000 165.317
49.92000 144.733
50.09000 160.960
50.26000 154.228
50.43000 157.052
50.60000 165.924
50.77000 160.999
50.94000 152.685
51.11000 145.431
51.28000 151.157
51.45000 139.956
51.62000 142.692
51.79000 141.658
51.96000 145.695
52.13000 135.051
52.30000 140.355
52.47000 137.636
52.64000 136.702
52.81000 133.832
52.98000 140.931
53.15000 140.813
53.32000 154.156
53.49000 149.554
53.66000 151.238
53.83000 140.261
54.00000 139.615
54.17000 143.387
54.34000 127.638
54.51000 146.611
54.68000 144.889
54.85000 137.538
55.02000 148.407
55.19000 154.476
55.36000 160.130
55.53000 203.911
55.70000 275.128
55.87000 401.197
56.04000 424.461
56.21000 295.379
56.38000 192.377
56.55000 153.331
56.72000 140.359
56.89000 131.584
57.06000 129.666
57.23000 125.539
57.40000 123.762
57.57000 122.690
57.74000 123.030
57.91000 123.340
58.08000 120.402
58.25000 127.527
58.42000 124.409
58.59000 120.056
58.76000 117.436
58.93000 118.984
59.10000 116.142
59.27000 122.849
59.44000 112.681
59.61000 120.295
59.78000 113.261
59.95000 118.494
60.12000 120.000
60.29000 117.280
60.46000 122.269
60.63000 117.332
60.80000 126.770
60.97000 118.146
61.14000 128.101
61.31000 127.051
61.48000 122.782
61.65000 285.504
61.82000 194.328
61.99000 124.278
62.16000 141.487
62.33000 123.270
62.50000 136.857
62.67000 135.401
62.84000 130.616
63.01000 129.308
63.18000 126.736
63.35000 142.948
63.52000 141.200
63.69000 143.023
63.86000 143.916
64.03000 139.741
64.20000 144.894
64.37000 153.912
64.54000 155.168
64.71000 156.373
64.88000 177.124
65.05000 197.030
65.22000 216.083
65.39000 256.151
65.56000 308.850
65.73000 994.064
65.90000 1937.991
66.07000 504.645
66.24000 399.677
66.41000 642.246
66.58000 405.099
66.75000 353.076
66.92000 356.925
67.09000 375.838
67.26000 390.358
67.43000 414.051
67.60000 435.988
67.77000 457.942
67.94000 486.072
68.11000 503.413
68.28000 571.184
68.45000 633.412
68.62000 873.915
68.79000 1525.201
68.96000 8708.280
69.13000 43369.488
69.30000 23923.684
69.47000 5998.256
69.64000 908.087
69.81000 613.050
69.98000 491.079
70.00000 480.675