File: XRD/XRD/07-10-2025 Dep 6/XY Data/BTO_Mapping_Theta2Theta_07-10-2025_001_46_-1-045_-9-945.xy
20.00000 501.447
20.17000 472.418
20.34000 468.707
20.51000 477.579
20.68000 445.650
20.85000 467.347
21.02000 454.867
21.19000 454.652
21.36000 473.850
21.53000 446.653
21.70000 492.068
21.87000 498.328
22.04000 550.515
22.21000 510.974
22.38000 464.543
22.55000 446.220
22.72000 450.233
22.89000 435.635
23.06000 449.748
23.23000 437.488
23.40000 445.187
23.57000 425.947
23.74000 459.394
23.91000 471.366
24.08000 469.846
24.25000 426.514
24.42000 419.296
24.59000 415.012
24.76000 408.020
24.93000 404.009
25.10000 393.423
25.27000 390.227
25.44000 392.455
25.61000 400.279
25.78000 397.908
25.95000 407.629
26.12000 401.361
26.29000 380.759
26.46000 371.035
26.63000 370.204
26.80000 369.985
26.97000 367.187
27.14000 364.920
27.31000 384.473
27.48000 371.441
27.65000 367.671
27.82000 369.673
27.99000 353.075
28.16000 358.037
28.33000 357.077
28.50000 352.532
28.67000 342.798
28.84000 353.397
29.01000 346.188
29.18000 342.629
29.35000 349.617
29.52000 347.310
29.69000 349.932
29.86000 345.499
30.03000 366.904
30.20000 363.657
30.37000 344.472
30.54000 351.665
30.71000 354.818
30.88000 372.174
31.05000 473.172
31.22000 805.599
31.39000 1120.055
31.56000 758.948
31.73000 446.518
31.90000 374.061
32.07000 354.720
32.24000 330.986
32.41000 335.430
32.58000 302.542
32.75000 309.042
32.92000 478.463
33.09000 401.016
33.26000 286.777
33.43000 281.153
33.60000 298.371
33.77000 288.782
33.94000 298.623
34.11000 318.684
34.28000 326.176
34.45000 340.336
34.62000 304.547
34.79000 278.613
34.96000 285.392
35.13000 257.507
35.30000 255.560
35.47000 258.790
35.64000 269.618
35.81000 259.404
35.98000 255.073
36.15000 260.266
36.32000 251.045
36.49000 248.035
36.66000 247.322
36.83000 256.860
37.00000 285.004
37.17000 267.159
37.34000 254.487
37.51000 251.694
37.68000 257.771
37.85000 243.889
38.02000 257.678
38.19000 262.002
38.36000 312.117
38.53000 568.408
38.70000 1013.206
38.87000 746.376
39.04000 323.975
39.21000 251.265
39.38000 230.222
39.55000 237.904
39.72000 230.443
39.89000 230.934
40.06000 231.811
40.23000 223.895
40.40000 231.240
40.57000 215.669
40.74000 218.380
40.91000 210.090
41.08000 201.286
41.25000 207.314
41.42000 216.014
41.59000 201.478
41.76000 203.394
41.93000 205.255
42.10000 215.701
42.27000 211.924
42.44000 208.475
42.61000 205.257
42.78000 206.855
42.95000 210.699
43.12000 209.137
43.29000 194.999
43.46000 200.754
43.63000 187.427
43.80000 183.706
43.97000 193.798
44.14000 185.159
44.31000 189.876
44.48000 211.572
44.65000 210.222
44.82000 232.409
44.99000 256.416
45.16000 257.051
45.33000 228.855
45.50000 198.637
45.67000 198.787
45.84000 187.321
46.01000 172.866
46.18000 182.779
46.35000 176.575
46.52000 178.023
46.69000 167.027
46.86000 178.245
47.03000 155.784
47.20000 152.118
47.37000 152.893
47.54000 161.803
47.71000 163.075
47.88000 165.521
48.05000 150.729
48.22000 165.073
48.39000 138.395
48.56000 163.964
48.73000 161.807
48.90000 148.784
49.07000 158.928
49.24000 148.370
49.41000 152.517
49.58000 146.619
49.75000 149.217
49.92000 162.637
50.09000 145.085
50.26000 147.990
50.43000 156.528
50.60000 166.990
50.77000 167.648
50.94000 167.600
51.11000 144.819
51.28000 153.836
51.45000 141.821
51.62000 142.388
51.79000 136.713
51.96000 139.877
52.13000 144.778
52.30000 152.173
52.47000 135.732
52.64000 133.460
52.81000 130.813
52.98000 142.125
53.15000 154.518
53.32000 152.775
53.49000 156.931
53.66000 143.578
53.83000 135.091
54.00000 135.217
54.17000 126.687
54.34000 133.952
54.51000 132.992
54.68000 139.551
54.85000 133.863
55.02000 145.181
55.19000 150.272
55.36000 158.404
55.53000 212.719
55.70000 353.125
55.87000 554.943
56.04000 584.448
56.21000 342.586
56.38000 196.683
56.55000 153.435
56.72000 139.689
56.89000 135.857
57.06000 123.911
57.23000 122.484
57.40000 125.188
57.57000 128.519
57.74000 128.683
57.91000 131.481
58.08000 120.278
58.25000 114.940
58.42000 117.526
58.59000 122.062
58.76000 112.679
58.93000 110.705
59.10000 123.335
59.27000 123.984
59.44000 113.884
59.61000 118.949
59.78000 113.409
59.95000 122.239
60.12000 120.212
60.29000 123.570
60.46000 106.045
60.63000 116.626
60.80000 114.605
60.97000 111.555
61.14000 122.033
61.31000 115.243
61.48000 124.611
61.65000 271.142
61.82000 192.283
61.99000 125.464
62.16000 132.919
62.33000 128.129
62.50000 121.076
62.67000 131.390
62.84000 116.118
63.01000 126.931
63.18000 132.322
63.35000 123.611
63.52000 139.121
63.69000 133.622
63.86000 138.039
64.03000 139.202
64.20000 147.466
64.37000 153.188
64.54000 153.425
64.71000 162.576
64.88000 185.031
65.05000 194.119
65.22000 208.365
65.39000 244.928
65.56000 308.037
65.73000 1015.494
65.90000 1896.257
66.07000 479.810
66.24000 385.195
66.41000 611.670
66.58000 415.783
66.75000 351.093
66.92000 352.290
67.09000 376.075
67.26000 387.302
67.43000 397.540
67.60000 418.702
67.77000 438.360
67.94000 476.857
68.11000 522.682
68.28000 555.160
68.45000 642.970
68.62000 872.814
68.79000 1550.475
68.96000 9196.694
69.13000 43026.621
69.30000 23582.873
69.47000 5711.760
69.64000 890.923
69.81000 595.741
69.98000 503.924
70.00000 498.709