File: XRD/XRD/07-10-2025 Dep 6/XY Data/BTO_Mapping_Theta2Theta_07-10-2025_001_16_9-271_28-532.xy
20.00000 490.749
20.17000 463.330
20.34000 467.205
20.51000 447.047
20.68000 471.835
20.85000 447.694
21.02000 443.781
21.19000 456.426
21.36000 455.640
21.53000 453.281
21.70000 465.183
21.87000 468.943
22.04000 494.105
22.21000 484.619
22.38000 456.446
22.55000 447.893
22.72000 430.109
22.89000 425.139
23.06000 419.169
23.23000 420.597
23.40000 440.264
23.57000 449.761
23.74000 474.792
23.91000 486.293
24.08000 501.528
24.25000 444.564
24.42000 422.952
24.59000 395.863
24.76000 413.893
24.93000 424.431
25.10000 402.417
25.27000 384.154
25.44000 404.849
25.61000 394.116
25.78000 402.477
25.95000 366.716
26.12000 392.556
26.29000 366.049
26.46000 386.163
26.63000 375.248
26.80000 390.896
26.97000 367.535
27.14000 377.402
27.31000 357.663
27.48000 380.252
27.65000 388.591
27.82000 359.935
27.99000 372.531
28.16000 355.795
28.33000 363.856
28.50000 347.601
28.67000 363.026
28.84000 356.644
29.01000 351.656
29.18000 362.791
29.35000 354.915
29.52000 347.698
29.69000 347.528
29.86000 380.689
30.03000 361.034
30.20000 372.157
30.37000 387.541
30.54000 362.074
30.71000 384.043
30.88000 399.216
31.05000 484.568
31.22000 747.530
31.39000 1011.476
31.56000 742.007
31.73000 463.447
31.90000 382.859
32.07000 349.460
32.24000 347.935
32.41000 330.855
32.58000 316.684
32.75000 322.119
32.92000 505.465
33.09000 438.951
33.26000 285.329
33.43000 300.716
33.60000 287.417
33.77000 292.308
33.94000 294.189
34.11000 313.626
34.28000 314.985
34.45000 314.194
34.62000 305.196
34.79000 289.805
34.96000 264.124
35.13000 262.516
35.30000 276.218
35.47000 259.273
35.64000 256.058
35.81000 261.954
35.98000 250.230
36.15000 255.498
36.32000 248.907
36.49000 259.950
36.66000 241.328
36.83000 261.115
37.00000 254.553
37.17000 255.694
37.34000 257.473
37.51000 253.008
37.68000 251.034
37.85000 245.340
38.02000 257.890
38.19000 247.725
38.36000 295.340
38.53000 440.080
38.70000 688.803
38.87000 502.517
39.04000 293.937
39.21000 243.990
39.38000 229.793
39.55000 251.788
39.72000 234.114
39.89000 230.542
40.06000 220.982
40.23000 224.256
40.40000 211.378
40.57000 210.667
40.74000 221.829
40.91000 210.666
41.08000 215.108
41.25000 212.636
41.42000 203.508
41.59000 214.133
41.76000 205.344
41.93000 204.947
42.10000 222.247
42.27000 218.743
42.44000 216.706
42.61000 203.492
42.78000 200.297
42.95000 199.406
43.12000 192.969
43.29000 197.759
43.46000 180.088
43.63000 193.511
43.80000 177.847
43.97000 192.246
44.14000 175.198
44.31000 198.402
44.48000 201.164
44.65000 216.146
44.82000 221.635
44.99000 228.083
45.16000 212.920
45.33000 215.116
45.50000 204.555
45.67000 184.893
45.84000 182.771
46.01000 191.471
46.18000 176.737
46.35000 165.838
46.52000 181.134
46.69000 177.798
46.86000 165.274
47.03000 174.935
47.20000 177.196
47.37000 173.460
47.54000 163.659
47.71000 169.984
47.88000 158.105
48.05000 156.896
48.22000 160.662
48.39000 164.371
48.56000 147.943
48.73000 155.562
48.90000 153.774
49.07000 145.119
49.24000 160.288
49.41000 153.512
49.58000 152.138
49.75000 154.220
49.92000 153.948
50.09000 150.091
50.26000 150.629
50.43000 164.475
50.60000 165.092
50.77000 161.053
50.94000 150.981
51.11000 148.303
51.28000 153.064
51.45000 142.463
51.62000 144.443
51.79000 152.063
51.96000 134.813
52.13000 133.433
52.30000 139.662
52.47000 141.823
52.64000 135.162
52.81000 137.840
52.98000 137.450
53.15000 142.744
53.32000 133.558
53.49000 145.053
53.66000 136.793
53.83000 145.732
54.00000 139.989
54.17000 132.157
54.34000 137.571
54.51000 141.837
54.68000 149.738
54.85000 141.868
55.02000 142.503
55.19000 154.352
55.36000 156.896
55.53000 184.222
55.70000 222.598
55.87000 326.621
56.04000 319.216
56.21000 233.006
56.38000 179.548
56.55000 158.148
56.72000 133.362
56.89000 125.096
57.06000 125.088
57.23000 130.179
57.40000 115.430
57.57000 126.606
57.74000 120.955
57.91000 122.068
58.08000 126.902
58.25000 129.857
58.42000 119.069
58.59000 117.480
58.76000 123.138
58.93000 119.174
59.10000 115.013
59.27000 118.008
59.44000 124.186
59.61000 120.121
59.78000 125.748
59.95000 117.113
60.12000 118.516
60.29000 118.906
60.46000 132.644
60.63000 117.236
60.80000 111.809
60.97000 123.906
61.14000 128.904
61.31000 129.403
61.48000 134.554
61.65000 302.415
61.82000 190.779
61.99000 122.941
62.16000 125.853
62.33000 130.958
62.50000 132.629
62.67000 135.038
62.84000 132.793
63.01000 131.451
63.18000 137.815
63.35000 131.402
63.52000 133.446
63.69000 134.168
63.86000 143.565
64.03000 150.570
64.20000 145.100
64.37000 157.903
64.54000 160.465
64.71000 173.051
64.88000 170.988
65.05000 182.880
65.22000 218.239
65.39000 248.246
65.56000 308.205
65.73000 1012.755
65.90000 1958.334
66.07000 518.339
66.24000 409.047
66.41000 661.683
66.58000 422.980
66.75000 344.818
66.92000 365.112
67.09000 389.117
67.26000 405.222
67.43000 417.478
67.60000 445.629
67.77000 473.297
67.94000 509.685
68.11000 501.070
68.28000 582.931
68.45000 667.580
68.62000 901.780
68.79000 1590.614
68.96000 9173.051
69.13000 44687.313
69.30000 24680.189
69.47000 5996.436
69.64000 929.378
69.81000 624.711
69.98000 526.009
70.00000 511.971