File: XRD/XRD/07-10-2025 Dep 6/XY Data/BTO_Mapping_Theta2Theta_07-10-2025_001_12_20-074_22-294.xy
20.00000 480.650
20.17000 475.505
20.34000 466.663
20.51000 462.006
20.68000 477.981
20.85000 459.888
21.02000 470.752
21.19000 451.722
21.36000 466.651
21.53000 478.602
21.70000 463.560
21.87000 483.466
22.04000 498.311
22.21000 488.699
22.38000 476.695
22.55000 456.602
22.72000 445.122
22.89000 427.997
23.06000 400.367
23.23000 447.394
23.40000 451.049
23.57000 442.238
23.74000 450.532
23.91000 481.608
24.08000 499.525
24.25000 467.661
24.42000 410.963
24.59000 427.146
24.76000 408.374
24.93000 404.353
25.10000 398.744
25.27000 398.674
25.44000 404.196
25.61000 394.515
25.78000 398.433
25.95000 389.390
26.12000 414.687
26.29000 378.159
26.46000 381.126
26.63000 375.614
26.80000 399.539
26.97000 391.797
27.14000 364.155
27.31000 378.629
27.48000 374.811
27.65000 391.784
27.82000 360.261
27.99000 369.519
28.16000 365.530
28.33000 353.042
28.50000 369.867
28.67000 352.721
28.84000 364.610
29.01000 362.305
29.18000 354.592
29.35000 356.789
29.52000 359.567
29.69000 345.281
29.86000 367.070
30.03000 382.862
30.20000 371.432
30.37000 372.487
30.54000 369.687
30.71000 376.690
30.88000 392.575
31.05000 488.133
31.22000 721.031
31.39000 961.320
31.56000 715.270
31.73000 461.147
31.90000 393.246
32.07000 358.953
32.24000 347.290
32.41000 335.080
32.58000 323.040
32.75000 331.568
32.92000 496.543
33.09000 450.128
33.26000 305.310
33.43000 288.135
33.60000 293.584
33.77000 292.281
33.94000 304.398
34.11000 307.314
34.28000 323.800
34.45000 307.011
34.62000 276.342
34.79000 277.326
34.96000 272.481
35.13000 273.820
35.30000 266.941
35.47000 262.167
35.64000 256.606
35.81000 254.879
35.98000 268.842
36.15000 267.818
36.32000 257.686
36.49000 254.560
36.66000 256.978
36.83000 254.205
37.00000 274.602
37.17000 257.336
37.34000 253.157
37.51000 252.856
37.68000 246.866
37.85000 259.018
38.02000 270.342
38.19000 255.755
38.36000 277.762
38.53000 427.960
38.70000 609.631
38.87000 423.915
39.04000 280.065
39.21000 228.407
39.38000 244.160
39.55000 238.016
39.72000 228.055
39.89000 225.371
40.06000 213.517
40.23000 220.374
40.40000 227.783
40.57000 220.555
40.74000 216.880
40.91000 220.372
41.08000 213.297
41.25000 211.665
41.42000 209.566
41.59000 209.657
41.76000 208.611
41.93000 206.949
42.10000 207.239
42.27000 223.836
42.44000 214.515
42.61000 199.543
42.78000 205.343
42.95000 195.885
43.12000 190.250
43.29000 201.789
43.46000 199.437
43.63000 197.994
43.80000 201.420
43.97000 196.011
44.14000 183.839
44.31000 194.806
44.48000 209.204
44.65000 205.412
44.82000 205.088
44.99000 216.898
45.16000 203.550
45.33000 191.995
45.50000 189.014
45.67000 179.193
45.84000 172.849
46.01000 179.310
46.18000 174.853
46.35000 169.416
46.52000 183.605
46.69000 179.097
46.86000 171.490
47.03000 175.768
47.20000 170.638
47.37000 161.649
47.54000 165.127
47.71000 155.967
47.88000 158.795
48.05000 166.764
48.22000 155.730
48.39000 153.282
48.56000 164.248
48.73000 172.986
48.90000 153.182
49.07000 147.889
49.24000 147.764
49.41000 152.890
49.58000 150.668
49.75000 152.999
49.92000 150.221
50.09000 153.855
50.26000 142.618
50.43000 146.268
50.60000 165.617
50.77000 162.315
50.94000 163.702
51.11000 154.345
51.28000 151.078
51.45000 148.900
51.62000 148.977
51.79000 138.437
51.96000 140.796
52.13000 141.499
52.30000 140.033
52.47000 140.192
52.64000 141.806
52.81000 133.258
52.98000 131.968
53.15000 141.106
53.32000 137.270
53.49000 143.548
53.66000 140.391
53.83000 146.105
54.00000 138.563
54.17000 136.988
54.34000 145.286
54.51000 130.408
54.68000 132.768
54.85000 137.153
55.02000 140.407
55.19000 152.532
55.36000 155.923
55.53000 169.192
55.70000 207.934
55.87000 263.703
56.04000 269.358
56.21000 218.810
56.38000 177.930
56.55000 147.034
56.72000 140.780
56.89000 128.373
57.06000 129.822
57.23000 125.783
57.40000 133.003
57.57000 130.238
57.74000 130.791
57.91000 118.543
58.08000 119.635
58.25000 120.932
58.42000 124.039
58.59000 119.237
58.76000 123.266
58.93000 114.637
59.10000 117.429
59.27000 133.390
59.44000 116.917
59.61000 113.945
59.78000 118.723
59.95000 118.996
60.12000 109.948
60.29000 115.353
60.46000 120.640
60.63000 117.241
60.80000 122.904
60.97000 117.527
61.14000 130.078
61.31000 124.454
61.48000 143.167
61.65000 288.642
61.82000 203.400
61.99000 124.026
62.16000 115.584
62.33000 133.873
62.50000 130.344
62.67000 133.532
62.84000 134.988
63.01000 137.056
63.18000 134.439
63.35000 142.998
63.52000 130.961
63.69000 142.335
63.86000 146.278
64.03000 157.987
64.20000 148.652
64.37000 154.548
64.54000 153.493
64.71000 170.965
64.88000 188.651
65.05000 198.154
65.22000 206.152
65.39000 242.542
65.56000 304.391
65.73000 989.720
65.90000 1977.122
66.07000 510.630
66.24000 415.730
66.41000 650.222
66.58000 422.490
66.75000 368.072
66.92000 360.202
67.09000 383.022
67.26000 394.743
67.43000 432.436
67.60000 431.774
67.77000 474.724
67.94000 515.431
68.11000 506.921
68.28000 588.924
68.45000 694.262
68.62000 924.937
68.79000 1603.518
68.96000 8739.784
69.13000 45145.160
69.30000 24977.332
69.47000 6301.443
69.64000 929.184
69.81000 640.262
69.98000 505.679
70.00000 493.807