File: XRD/XRD/07-10-2025 Dep 6/XY Data/BTO_Mapping_Theta2Theta_07-10-2025_001_37_-39-126_-8-316.xy
20.00000 474.118
20.17000 478.751
20.34000 464.971
20.51000 458.774
20.68000 448.611
20.85000 473.878
21.02000 476.796
21.19000 487.619
21.36000 481.916
21.53000 492.617
21.70000 544.673
21.87000 747.472
22.04000 760.940
22.21000 568.961
22.38000 493.914
22.55000 454.113
22.72000 447.665
22.89000 432.208
23.06000 426.872
23.23000 414.619
23.40000 418.063
23.57000 406.866
23.74000 422.651
23.91000 405.683
24.08000 413.353
24.25000 412.294
24.42000 406.523
24.59000 428.172
24.76000 413.282
24.93000 397.797
25.10000 417.395
25.27000 387.507
25.44000 390.745
25.61000 421.059
25.78000 378.298
25.95000 381.583
26.12000 382.837
26.29000 369.521
26.46000 377.244
26.63000 380.296
26.80000 365.515
26.97000 374.591
27.14000 380.709
27.31000 370.150
27.48000 403.337
27.65000 363.660
27.82000 362.433
27.99000 365.457
28.16000 368.938
28.33000 366.345
28.50000 362.597
28.67000 348.637
28.84000 339.666
29.01000 343.538
29.18000 346.641
29.35000 344.764
29.52000 368.275
29.69000 376.895
29.86000 456.414
30.03000 495.497
30.20000 432.361
30.37000 416.819
30.54000 376.138
30.71000 421.420
30.88000 510.676
31.05000 1167.461
31.22000 3120.376
31.39000 3303.601
31.56000 1371.929
31.73000 577.254
31.90000 383.096
32.07000 343.292
32.24000 340.287
32.41000 320.463
32.58000 325.521
32.75000 314.222
32.92000 630.054
33.09000 482.088
33.26000 318.910
33.43000 283.734
33.60000 288.096
33.77000 291.039
33.94000 281.585
34.11000 278.653
34.28000 280.028
34.45000 278.799
34.62000 275.913
34.79000 287.936
34.96000 273.141
35.13000 265.032
35.30000 278.571
35.47000 263.132
35.64000 275.789
35.81000 255.191
35.98000 253.802
36.15000 250.106
36.32000 249.320
36.49000 239.495
36.66000 246.662
36.83000 259.376
37.00000 259.074
37.17000 258.489
37.34000 256.740
37.51000 249.839
37.68000 231.715
37.85000 261.307
38.02000 244.485
38.19000 256.510
38.36000 315.809
38.53000 415.448
38.70000 423.724
38.87000 320.109
39.04000 254.533
39.21000 241.343
39.38000 227.911
39.55000 220.309
39.72000 238.364
39.89000 227.597
40.06000 239.083
40.23000 212.731
40.40000 209.754
40.57000 218.937
40.74000 212.755
40.91000 210.655
41.08000 224.904
41.25000 211.845
41.42000 206.253
41.59000 207.398
41.76000 202.404
41.93000 204.999
42.10000 211.744
42.27000 193.848
42.44000 190.843
42.61000 198.806
42.78000 213.397
42.95000 200.742
43.12000 206.466
43.29000 202.751
43.46000 197.522
43.63000 193.027
43.80000 189.968
43.97000 198.559
44.14000 197.200
44.31000 214.614
44.48000 256.190
44.65000 359.673
44.82000 454.511
44.99000 438.144
45.16000 342.483
45.33000 258.846
45.50000 236.349
45.67000 201.661
45.84000 199.211
46.01000 189.753
46.18000 175.949
46.35000 177.807
46.52000 165.437
46.69000 171.101
46.86000 173.835
47.03000 169.084
47.20000 162.985
47.37000 159.623
47.54000 164.019
47.71000 161.066
47.88000 166.450
48.05000 163.311
48.22000 173.138
48.39000 157.906
48.56000 164.195
48.73000 152.078
48.90000 154.213
49.07000 156.572
49.24000 162.542
49.41000 159.685
49.58000 146.233
49.75000 165.027
49.92000 166.199
50.09000 179.157
50.26000 187.421
50.43000 232.891
50.60000 259.672
50.77000 217.852
50.94000 184.818
51.11000 154.558
51.28000 160.497
51.45000 135.494
51.62000 148.994
51.79000 144.744
51.96000 143.331
52.13000 143.061
52.30000 144.602
52.47000 138.572
52.64000 143.573
52.81000 132.595
52.98000 150.908
53.15000 150.159
53.32000 156.416
53.49000 140.610
53.66000 146.067
53.83000 136.788
54.00000 127.353
54.17000 131.123
54.34000 131.594
54.51000 136.924
54.68000 144.953
54.85000 145.578
55.02000 138.442
55.19000 159.046
55.36000 219.333
55.53000 342.069
55.70000 445.666
55.87000 481.672
56.04000 364.197
56.21000 233.784
56.38000 177.275
56.55000 140.160
56.72000 138.991
56.89000 134.691
57.06000 122.224
57.23000 133.037
57.40000 114.638
57.57000 130.943
57.74000 112.612
57.91000 119.943
58.08000 114.219
58.25000 117.984
58.42000 113.882
58.59000 115.309
58.76000 115.765
58.93000 117.098
59.10000 113.214
59.27000 111.121
59.44000 115.112
59.61000 115.955
59.78000 110.179
59.95000 119.142
60.12000 119.747
60.29000 104.102
60.46000 110.490
60.63000 115.401
60.80000 124.367
60.97000 114.022
61.14000 118.946
61.31000 118.809
61.48000 154.187
61.65000 377.501
61.82000 216.410
61.99000 132.687
62.16000 144.747
62.33000 132.028
62.50000 128.791
62.67000 134.866
62.84000 130.990
63.01000 136.827
63.18000 131.989
63.35000 129.039
63.52000 141.127
63.69000 157.675
63.86000 140.915
64.03000 157.617
64.20000 160.630
64.37000 170.094
64.54000 167.516
64.71000 196.682
64.88000 204.377
65.05000 277.369
65.22000 366.537
65.39000 450.883
65.56000 510.420
65.73000 1724.570
65.90000 2868.442
66.07000 670.718
66.24000 522.779
66.41000 830.958
66.58000 503.193
66.75000 436.521
66.92000 451.798
67.09000 434.361
67.26000 473.388
67.43000 496.388
67.60000 509.382
67.77000 534.404
67.94000 548.648
68.11000 624.934
68.28000 687.422
68.45000 789.529
68.62000 1166.734
68.79000 2337.290
68.96000 17996.137
69.13000 67976.406
69.30000 36351.590
69.47000 8206.946
69.64000 1101.090
69.81000 694.583
69.98000 547.870
70.00000 530.177