File: XRD/XRD/07-10-2025 Dep 6/XY Data/BTO_Mapping_Theta2Theta_07-10-2025_001_18_-1-045_9-945.xy
20.00000 472.073
20.17000 471.937
20.34000 466.557
20.51000 450.501
20.68000 474.035
20.85000 454.649
21.02000 465.134
21.19000 452.796
21.36000 479.368
21.53000 462.117
21.70000 465.086
21.87000 492.039
22.04000 527.950
22.21000 517.876
22.38000 469.260
22.55000 446.939
22.72000 446.115
22.89000 426.862
23.06000 428.206
23.23000 445.609
23.40000 425.423
23.57000 439.397
23.74000 444.878
23.91000 491.364
24.08000 479.574
24.25000 452.051
24.42000 427.607
24.59000 413.156
24.76000 408.390
24.93000 403.449
25.10000 388.232
25.27000 388.363
25.44000 401.542
25.61000 396.151
25.78000 394.935
25.95000 394.354
26.12000 398.143
26.29000 375.341
26.46000 376.395
26.63000 371.354
26.80000 376.381
26.97000 372.066
27.14000 375.670
27.31000 368.874
27.48000 385.464
27.65000 363.592
27.82000 379.532
27.99000 368.326
28.16000 356.172
28.33000 351.197
28.50000 355.151
28.67000 342.584
28.84000 363.182
29.01000 351.164
29.18000 337.867
29.35000 345.830
29.52000 364.238
29.69000 355.183
29.86000 357.222
30.03000 375.329
30.20000 381.514
30.37000 359.138
30.54000 364.003
30.71000 371.317
30.88000 383.510
31.05000 471.028
31.22000 823.339
31.39000 1185.494
31.56000 846.375
31.73000 467.356
31.90000 375.618
32.07000 336.969
32.24000 317.171
32.41000 318.673
32.58000 314.715
32.75000 307.416
32.92000 506.443
33.09000 416.268
33.26000 292.677
33.43000 289.539
33.60000 302.873
33.77000 289.443
33.94000 300.303
34.11000 309.672
34.28000 332.781
34.45000 322.532
34.62000 304.216
34.79000 285.678
34.96000 292.146
35.13000 263.756
35.30000 259.054
35.47000 254.416
35.64000 270.856
35.81000 258.071
35.98000 243.434
36.15000 258.066
36.32000 251.225
36.49000 251.694
36.66000 256.505
36.83000 272.077
37.00000 278.468
37.17000 272.138
37.34000 256.918
37.51000 256.854
37.68000 251.442
37.85000 254.085
38.02000 257.922
38.19000 239.582
38.36000 300.063
38.53000 513.770
38.70000 904.047
38.87000 695.429
39.04000 319.227
39.21000 258.450
39.38000 252.713
39.55000 232.950
39.72000 224.833
39.89000 234.696
40.06000 223.142
40.23000 216.565
40.40000 216.160
40.57000 212.304
40.74000 208.822
40.91000 210.280
41.08000 214.579
41.25000 199.461
41.42000 199.283
41.59000 210.312
41.76000 204.659
41.93000 206.727
42.10000 214.805
42.27000 198.170
42.44000 213.299
42.61000 204.457
42.78000 203.218
42.95000 195.155
43.12000 199.218
43.29000 199.818
43.46000 191.882
43.63000 199.575
43.80000 185.270
43.97000 197.082
44.14000 189.691
44.31000 187.410
44.48000 205.566
44.65000 219.751
44.82000 221.175
44.99000 247.554
45.16000 247.401
45.33000 223.978
45.50000 214.780
45.67000 196.839
45.84000 187.647
46.01000 176.271
46.18000 174.419
46.35000 175.213
46.52000 165.941
46.69000 176.122
46.86000 181.834
47.03000 182.863
47.20000 168.465
47.37000 163.503
47.54000 154.586
47.71000 150.730
47.88000 157.384
48.05000 155.590
48.22000 155.881
48.39000 161.896
48.56000 154.461
48.73000 158.861
48.90000 158.252
49.07000 154.876
49.24000 144.321
49.41000 151.789
49.58000 155.864
49.75000 158.177
49.92000 148.318
50.09000 147.338
50.26000 152.738
50.43000 160.134
50.60000 157.004
50.77000 164.673
50.94000 163.317
51.11000 150.622
51.28000 150.900
51.45000 151.638
51.62000 142.257
51.79000 151.624
51.96000 135.302
52.13000 139.403
52.30000 139.598
52.47000 144.222
52.64000 136.537
52.81000 137.552
52.98000 130.503
53.15000 140.184
53.32000 156.009
53.49000 157.922
53.66000 150.643
53.83000 140.036
54.00000 138.512
54.17000 139.431
54.34000 126.787
54.51000 140.106
54.68000 130.435
54.85000 132.446
55.02000 150.113
55.19000 149.156
55.36000 162.826
55.53000 200.363
55.70000 300.881
55.87000 490.181
56.04000 527.561
56.21000 312.362
56.38000 199.140
56.55000 157.780
56.72000 141.612
56.89000 130.508
57.06000 125.819
57.23000 124.570
57.40000 128.004
57.57000 130.974
57.74000 128.838
57.91000 130.455
58.08000 123.207
58.25000 124.397
58.42000 120.313
58.59000 122.516
58.76000 127.799
58.93000 118.432
59.10000 114.967
59.27000 113.544
59.44000 109.840
59.61000 114.194
59.78000 117.999
59.95000 126.659
60.12000 110.644
60.29000 114.159
60.46000 113.589
60.63000 100.799
60.80000 118.165
60.97000 118.080
61.14000 120.163
61.31000 126.024
61.48000 130.625
61.65000 281.152
61.82000 181.925
61.99000 118.536
62.16000 119.895
62.33000 125.871
62.50000 119.335
62.67000 126.362
62.84000 126.650
63.01000 137.835
63.18000 127.766
63.35000 135.455
63.52000 135.735
63.69000 128.732
63.86000 131.358
64.03000 147.274
64.20000 148.168
64.37000 146.779
64.54000 160.258
64.71000 171.577
64.88000 175.527
65.05000 190.383
65.22000 211.052
65.39000 243.008
65.56000 317.393
65.73000 1039.980
65.90000 1901.809
66.07000 476.977
66.24000 384.754
66.41000 617.144
66.58000 393.399
66.75000 338.025
66.92000 361.747
67.09000 374.498
67.26000 410.113
67.43000 417.984
67.60000 419.560
67.77000 462.731
67.94000 509.717
68.11000 512.128
68.28000 585.314
68.45000 646.115
68.62000 864.860
68.79000 1552.026
68.96000 9347.487
69.13000 43634.941
69.30000 23402.938
69.47000 5619.637
69.64000 904.299
69.81000 611.941
69.98000 511.119
70.00000 500.801