File: XRD/XRD/07-10-2025 Dep 6/XY Data/BTO_Mapping_Theta2Theta_07-10-2025_001_26_-8-090_5-878.xy
20.00000 474.511
20.17000 470.741
20.34000 477.625
20.51000 475.328
20.68000 466.489
20.85000 456.510
21.02000 465.283
21.19000 461.220
21.36000 433.820
21.53000 465.211
21.70000 475.802
21.87000 487.372
22.04000 553.173
22.21000 511.355
22.38000 497.129
22.55000 458.206
22.72000 453.620
22.89000 425.258
23.06000 434.223
23.23000 417.232
23.40000 417.303
23.57000 429.798
23.74000 447.823
23.91000 460.749
24.08000 463.109
24.25000 471.957
24.42000 407.172
24.59000 424.771
24.76000 410.786
24.93000 397.010
25.10000 400.239
25.27000 389.414
25.44000 400.518
25.61000 400.181
25.78000 402.798
25.95000 382.493
26.12000 374.712
26.29000 371.474
26.46000 377.433
26.63000 378.868
26.80000 383.913
26.97000 373.178
27.14000 367.026
27.31000 360.899
27.48000 382.299
27.65000 375.679
27.82000 356.948
27.99000 379.251
28.16000 352.456
28.33000 341.790
28.50000 348.259
28.67000 354.442
28.84000 354.520
29.01000 359.963
29.18000 362.834
29.35000 351.809
29.52000 342.941
29.69000 348.573
29.86000 368.465
30.03000 377.272
30.20000 365.719
30.37000 349.374
30.54000 357.992
30.71000 347.086
30.88000 378.067
31.05000 457.518
31.22000 841.267
31.39000 1180.065
31.56000 761.815
31.73000 451.814
31.90000 373.171
32.07000 359.607
32.24000 329.072
32.41000 323.492
32.58000 309.677
32.75000 305.201
32.92000 481.410
33.09000 396.871
33.26000 310.447
33.43000 274.159
33.60000 283.081
33.77000 290.536
33.94000 294.320
34.11000 309.445
34.28000 303.031
34.45000 320.564
34.62000 295.565
34.79000 296.466
34.96000 274.022
35.13000 270.056
35.30000 252.550
35.47000 275.794
35.64000 260.101
35.81000 258.134
35.98000 247.652
36.15000 252.541
36.32000 261.662
36.49000 259.373
36.66000 246.386
36.83000 257.418
37.00000 262.553
37.17000 266.894
37.34000 250.344
37.51000 261.205
37.68000 251.480
37.85000 235.844
38.02000 248.860
38.19000 254.478
38.36000 299.124
38.53000 581.772
38.70000 990.087
38.87000 743.165
39.04000 338.648
39.21000 237.636
39.38000 241.975
39.55000 243.819
39.72000 230.555
39.89000 225.312
40.06000 213.426
40.23000 209.151
40.40000 211.233
40.57000 209.402
40.74000 211.439
40.91000 214.826
41.08000 212.789
41.25000 204.712
41.42000 217.123
41.59000 202.260
41.76000 211.091
41.93000 207.420
42.10000 212.774
42.27000 200.484
42.44000 208.737
42.61000 207.997
42.78000 201.113
42.95000 203.510
43.12000 203.715
43.29000 186.686
43.46000 200.404
43.63000 183.701
43.80000 178.093
43.97000 185.058
44.14000 183.850
44.31000 194.828
44.48000 204.240
44.65000 208.455
44.82000 221.861
44.99000 256.276
45.16000 259.283
45.33000 227.659
45.50000 208.727
45.67000 211.372
45.84000 190.012
46.01000 189.634
46.18000 187.373
46.35000 181.906
46.52000 182.204
46.69000 175.822
46.86000 173.061
47.03000 162.024
47.20000 172.960
47.37000 160.174
47.54000 159.239
47.71000 158.835
47.88000 163.295
48.05000 159.900
48.22000 147.678
48.39000 156.746
48.56000 157.814
48.73000 154.993
48.90000 155.598
49.07000 157.335
49.24000 158.485
49.41000 148.378
49.58000 144.757
49.75000 136.668
49.92000 140.554
50.09000 148.150
50.26000 156.012
50.43000 161.131
50.60000 164.575
50.77000 169.240
50.94000 151.466
51.11000 146.279
51.28000 152.333
51.45000 139.953
51.62000 131.859
51.79000 145.286
51.96000 142.995
52.13000 147.509
52.30000 130.300
52.47000 131.883
52.64000 134.690
52.81000 140.213
52.98000 135.573
53.15000 147.249
53.32000 152.609
53.49000 154.165
53.66000 139.274
53.83000 142.601
54.00000 133.672
54.17000 137.451
54.34000 137.402
54.51000 140.682
54.68000 132.511
54.85000 135.878
55.02000 152.794
55.19000 150.894
55.36000 159.450
55.53000 207.883
55.70000 352.851
55.87000 580.182
56.04000 548.827
56.21000 336.014
56.38000 207.367
56.55000 153.386
56.72000 147.175
56.89000 127.457
57.06000 124.388
57.23000 133.653
57.40000 134.876
57.57000 130.525
57.74000 117.487
57.91000 125.233
58.08000 128.817
58.25000 121.417
58.42000 120.111
58.59000 115.523
58.76000 124.719
58.93000 112.634
59.10000 122.019
59.27000 127.601
59.44000 117.911
59.61000 114.730
59.78000 119.029
59.95000 113.836
60.12000 118.711
60.29000 118.732
60.46000 108.878
60.63000 118.121
60.80000 119.163
60.97000 122.363
61.14000 126.064
61.31000 109.671
61.48000 131.456
61.65000 278.692
61.82000 188.281
61.99000 132.567
62.16000 123.228
62.33000 126.203
62.50000 124.983
62.67000 114.791
62.84000 128.947
63.01000 124.478
63.18000 130.488
63.35000 126.661
63.52000 127.859
63.69000 135.529
63.86000 145.308
64.03000 151.253
64.20000 149.746
64.37000 147.375
64.54000 163.295
64.71000 165.394
64.88000 180.196
65.05000 197.777
65.22000 210.060
65.39000 233.594
65.56000 324.608
65.73000 1054.648
65.90000 1960.607
66.07000 490.604
66.24000 383.147
66.41000 606.882
66.58000 413.399
66.75000 349.090
66.92000 375.274
67.09000 366.353
67.26000 403.379
67.43000 412.422
67.60000 432.215
67.77000 455.257
67.94000 492.227
68.11000 540.006
68.28000 554.919
68.45000 667.813
68.62000 873.830
68.79000 1565.772
68.96000 10060.642
69.13000 44749.078
69.30000 23876.951
69.47000 5594.478
69.64000 885.848
69.81000 598.628
69.98000 514.555
70.00000 509.558