File: XRD/XRD/07-10-2025 Dep 6/XY Data/BTO_Mapping_Theta2Theta_07-10-2025_001_11_13-383_14-863.xy
20.00000 487.687
20.17000 453.505
20.34000 472.687
20.51000 468.371
20.68000 471.987
20.85000 464.901
21.02000 472.130
21.19000 458.643
21.36000 474.273
21.53000 445.464
21.70000 477.773
21.87000 477.578
22.04000 480.085
22.21000 490.206
22.38000 457.641
22.55000 444.826
22.72000 429.863
22.89000 453.779
23.06000 435.767
23.23000 437.411
23.40000 432.067
23.57000 456.242
23.74000 469.729
23.91000 493.339
24.08000 504.245
24.25000 443.602
24.42000 432.067
24.59000 430.887
24.76000 412.158
24.93000 392.887
25.10000 419.992
25.27000 400.849
25.44000 404.638
25.61000 387.101
25.78000 382.135
25.95000 376.794
26.12000 393.470
26.29000 387.145
26.46000 385.547
26.63000 380.152
26.80000 387.556
26.97000 375.523
27.14000 382.166
27.31000 389.527
27.48000 360.159
27.65000 370.188
27.82000 365.485
27.99000 364.899
28.16000 359.775
28.33000 368.734
28.50000 359.565
28.67000 357.988
28.84000 366.966
29.01000 376.438
29.18000 340.175
29.35000 357.670
29.52000 352.134
29.69000 372.704
29.86000 362.573
30.03000 376.635
30.20000 354.621
30.37000 367.838
30.54000 371.411
30.71000 375.393
30.88000 396.970
31.05000 490.709
31.22000 766.848
31.39000 1009.462
31.56000 743.180
31.73000 477.416
31.90000 388.953
32.07000 362.409
32.24000 317.776
32.41000 338.636
32.58000 320.389
32.75000 320.164
32.92000 488.703
33.09000 451.544
33.26000 300.823
33.43000 301.903
33.60000 287.235
33.77000 285.296
33.94000 299.035
34.11000 306.117
34.28000 324.855
34.45000 303.337
34.62000 300.429
34.79000 290.143
34.96000 263.565
35.13000 283.410
35.30000 250.997
35.47000 262.571
35.64000 272.497
35.81000 257.296
35.98000 257.023
36.15000 250.561
36.32000 258.114
36.49000 250.079
36.66000 261.162
36.83000 271.385
37.00000 265.221
37.17000 264.449
37.34000 248.960
37.51000 262.685
37.68000 245.306
37.85000 247.301
38.02000 256.483
38.19000 254.640
38.36000 294.252
38.53000 456.495
38.70000 685.518
38.87000 514.678
39.04000 282.197
39.21000 234.111
39.38000 233.621
39.55000 234.967
39.72000 226.920
39.89000 231.978
40.06000 226.250
40.23000 222.963
40.40000 211.167
40.57000 211.157
40.74000 221.177
40.91000 204.659
41.08000 201.047
41.25000 206.232
41.42000 210.954
41.59000 209.763
41.76000 207.822
41.93000 209.795
42.10000 224.786
42.27000 227.964
42.44000 213.288
42.61000 227.364
42.78000 200.479
42.95000 203.973
43.12000 195.062
43.29000 195.206
43.46000 194.555
43.63000 185.641
43.80000 193.114
43.97000 195.424
44.14000 191.108
44.31000 191.619
44.48000 203.309
44.65000 214.405
44.82000 209.185
44.99000 224.211
45.16000 226.420
45.33000 215.694
45.50000 209.892
45.67000 183.411
45.84000 191.854
46.01000 173.236
46.18000 174.493
46.35000 171.879
46.52000 172.152
46.69000 168.868
46.86000 175.247
47.03000 155.676
47.20000 167.360
47.37000 167.122
47.54000 169.566
47.71000 146.141
47.88000 168.127
48.05000 158.218
48.22000 160.963
48.39000 147.068
48.56000 158.991
48.73000 159.325
48.90000 154.601
49.07000 167.075
49.24000 150.835
49.41000 152.759
49.58000 161.258
49.75000 152.726
49.92000 162.525
50.09000 153.298
50.26000 158.910
50.43000 158.251
50.60000 168.102
50.77000 168.688
50.94000 150.150
51.11000 157.310
51.28000 148.017
51.45000 146.126
51.62000 143.824
51.79000 145.195
51.96000 137.778
52.13000 140.167
52.30000 138.414
52.47000 143.099
52.64000 155.214
52.81000 139.883
52.98000 134.636
53.15000 148.285
53.32000 152.590
53.49000 143.294
53.66000 144.120
53.83000 151.162
54.00000 145.859
54.17000 135.275
54.34000 139.475
54.51000 141.883
54.68000 137.721
54.85000 134.965
55.02000 141.264
55.19000 143.974
55.36000 165.273
55.53000 201.618
55.70000 242.879
55.87000 339.893
56.04000 336.795
56.21000 261.458
56.38000 179.517
56.55000 154.487
56.72000 137.241
56.89000 126.074
57.06000 130.131
57.23000 126.621
57.40000 131.470
57.57000 126.206
57.74000 130.013
57.91000 113.322
58.08000 123.912
58.25000 127.593
58.42000 113.341
58.59000 133.532
58.76000 130.516
58.93000 121.510
59.10000 122.287
59.27000 115.223
59.44000 114.840
59.61000 117.624
59.78000 116.519
59.95000 119.236
60.12000 115.805
60.29000 126.916
60.46000 116.572
60.63000 124.978
60.80000 117.147
60.97000 122.298
61.14000 123.871
61.31000 123.093
61.48000 133.783
61.65000 284.456
61.82000 195.658
61.99000 136.323
62.16000 125.847
62.33000 126.955
62.50000 126.558
62.67000 129.002
62.84000 131.301
63.01000 124.607
63.18000 137.948
63.35000 135.172
63.52000 148.866
63.69000 146.647
63.86000 142.384
64.03000 149.796
64.20000 136.097
64.37000 158.655
64.54000 161.983
64.71000 176.018
64.88000 180.968
65.05000 195.682
65.22000 213.324
65.39000 255.515
65.56000 302.733
65.73000 1007.217
65.90000 1981.183
66.07000 517.048
66.24000 397.096
66.41000 637.826
66.58000 427.890
66.75000 342.440
66.92000 374.531
67.09000 383.527
67.26000 404.789
67.43000 418.107
67.60000 426.569
67.77000 450.855
67.94000 502.901
68.11000 532.954
68.28000 576.776
68.45000 659.104
68.62000 908.285
68.79000 1597.944
68.96000 8751.393
69.13000 44371.758
69.30000 24393.441
69.47000 6141.018
69.64000 940.192
69.81000 628.860
69.98000 498.269
70.00000 501.463