File: XRD/XRD/07-10-2025 Dep 6/XY Data/BTO_Mapping_Theta2Theta_07-10-2025_001_54_6-691_-7-431.xy
20.00000 495.738
20.17000 469.464
20.34000 468.519
20.51000 475.281
20.68000 469.520
20.85000 455.062
21.02000 457.780
21.19000 476.409
21.36000 454.097
21.53000 458.097
21.70000 458.454
21.87000 503.209
22.04000 511.625
22.21000 506.403
22.38000 466.622
22.55000 438.812
22.72000 457.911
22.89000 437.534
23.06000 443.317
23.23000 430.440
23.40000 449.185
23.57000 432.434
23.74000 453.155
23.91000 491.488
24.08000 495.074
24.25000 454.020
24.42000 417.473
24.59000 422.149
24.76000 417.757
24.93000 404.873
25.10000 402.559
25.27000 401.537
25.44000 384.802
25.61000 390.308
25.78000 399.097
25.95000 389.593
26.12000 358.680
26.29000 371.737
26.46000 385.066
26.63000 372.632
26.80000 366.526
26.97000 375.397
27.14000 363.354
27.31000 367.654
27.48000 378.494
27.65000 358.525
27.82000 349.785
27.99000 360.867
28.16000 347.281
28.33000 359.445
28.50000 357.987
28.67000 353.448
28.84000 357.522
29.01000 345.516
29.18000 333.400
29.35000 335.703
29.52000 350.189
29.69000 370.039
29.86000 380.268
30.03000 374.982
30.20000 384.959
30.37000 358.296
30.54000 370.288
30.71000 373.298
30.88000 377.789
31.05000 478.011
31.22000 835.806
31.39000 1204.861
31.56000 857.837
31.73000 479.824
31.90000 385.542
32.07000 355.349
32.24000 355.367
32.41000 324.215
32.58000 309.888
32.75000 307.417
32.92000 495.689
33.09000 416.766
33.26000 296.372
33.43000 307.498
33.60000 288.656
33.77000 283.905
33.94000 300.897
34.11000 342.326
34.28000 320.486
34.45000 333.821
34.62000 315.139
34.79000 295.524
34.96000 274.351
35.13000 267.567
35.30000 272.382
35.47000 263.711
35.64000 259.717
35.81000 264.777
35.98000 255.600
36.15000 252.694
36.32000 261.786
36.49000 244.401
36.66000 258.029
36.83000 258.211
37.00000 277.956
37.17000 261.651
37.34000 271.199
37.51000 244.191
37.68000 247.516
37.85000 251.892
38.02000 257.746
38.19000 260.247
38.36000 290.039
38.53000 518.274
38.70000 907.626
38.87000 686.593
39.04000 323.728
39.21000 252.041
39.38000 253.682
39.55000 221.429
39.72000 233.540
39.89000 217.784
40.06000 236.562
40.23000 228.164
40.40000 205.950
40.57000 214.520
40.74000 214.393
40.91000 220.569
41.08000 206.492
41.25000 210.248
41.42000 212.148
41.59000 198.758
41.76000 208.730
41.93000 212.428
42.10000 207.381
42.27000 221.454
42.44000 237.024
42.61000 203.866
42.78000 204.237
42.95000 198.453
43.12000 201.603
43.29000 188.814
43.46000 186.454
43.63000 194.714
43.80000 186.734
43.97000 188.683
44.14000 188.177
44.31000 206.226
44.48000 203.773
44.65000 213.839
44.82000 223.738
44.99000 231.024
45.16000 224.595
45.33000 208.681
45.50000 216.958
45.67000 189.800
45.84000 183.222
46.01000 186.387
46.18000 175.014
46.35000 177.504
46.52000 176.100
46.69000 173.184
46.86000 173.969
47.03000 182.743
47.20000 166.345
47.37000 168.745
47.54000 161.702
47.71000 155.188
47.88000 153.901
48.05000 160.559
48.22000 151.756
48.39000 146.583
48.56000 156.018
48.73000 152.559
48.90000 159.503
49.07000 148.661
49.24000 151.246
49.41000 165.695
49.58000 147.573
49.75000 140.010
49.92000 168.236
50.09000 148.218
50.26000 148.242
50.43000 152.574
50.60000 159.469
50.77000 145.259
50.94000 153.552
51.11000 141.391
51.28000 147.082
51.45000 149.130
51.62000 140.535
51.79000 141.216
51.96000 139.887
52.13000 142.369
52.30000 138.292
52.47000 138.320
52.64000 140.150
52.81000 132.939
52.98000 151.808
53.15000 146.142
53.32000 153.021
53.49000 160.582
53.66000 147.933
53.83000 136.434
54.00000 134.405
54.17000 138.254
54.34000 133.033
54.51000 145.871
54.68000 142.838
54.85000 135.631
55.02000 140.811
55.19000 153.513
55.36000 155.546
55.53000 202.470
55.70000 319.339
55.87000 474.576
56.04000 487.664
56.21000 327.350
56.38000 166.268
56.55000 146.185
56.72000 137.623
56.89000 135.312
57.06000 127.808
57.23000 133.472
57.40000 124.885
57.57000 130.288
57.74000 123.805
57.91000 125.108
58.08000 123.477
58.25000 122.802
58.42000 121.111
58.59000 121.505
58.76000 119.028
58.93000 122.351
59.10000 119.298
59.27000 110.134
59.44000 114.665
59.61000 113.838
59.78000 112.514
59.95000 113.863
60.12000 113.518
60.29000 133.013
60.46000 121.631
60.63000 130.839
60.80000 116.767
60.97000 118.834
61.14000 128.933
61.31000 116.763
61.48000 132.827
61.65000 277.064
61.82000 190.545
61.99000 130.555
62.16000 122.683
62.33000 128.935
62.50000 120.568
62.67000 125.509
62.84000 132.182
63.01000 126.532
63.18000 121.815
63.35000 128.349
63.52000 140.665
63.69000 149.402
63.86000 132.719
64.03000 144.622
64.20000 154.025
64.37000 161.821
64.54000 159.277
64.71000 162.785
64.88000 170.006
65.05000 179.652
65.22000 219.940
65.39000 250.358
65.56000 324.658
65.73000 976.821
65.90000 1910.062
66.07000 500.880
66.24000 390.737
66.41000 621.552
66.58000 398.376
66.75000 362.506
66.92000 356.838
67.09000 370.173
67.26000 378.135
67.43000 417.032
67.60000 421.090
67.77000 463.663
67.94000 480.644
68.11000 520.267
68.28000 554.755
68.45000 649.272
68.62000 879.513
68.79000 1579.996
68.96000 8767.759
69.13000 43032.137
69.30000 23675.191
69.47000 5830.564
69.64000 902.065
69.81000 611.043
69.98000 513.100
70.00000 503.125