File: XRD/XRD/07-10-2025 Dep 6/XY Data/BTO_Mapping_Theta2Theta_07-10-2025_001_05_40-000_0-000.xy
20.00000 480.587
20.17000 491.628
20.34000 469.094
20.51000 450.156
20.68000 468.879
20.85000 467.684
21.02000 459.768
21.19000 458.078
21.36000 420.141
21.53000 486.183
21.70000 460.131
21.87000 473.729
22.04000 474.146
22.21000 469.750
22.38000 483.053
22.55000 439.488
22.72000 437.412
22.89000 445.122
23.06000 431.938
23.23000 417.457
23.40000 442.375
23.57000 446.467
23.74000 460.731
23.91000 483.946
24.08000 491.588
24.25000 433.224
24.42000 422.862
24.59000 423.543
24.76000 400.247
24.93000 417.892
25.10000 399.038
25.27000 392.895
25.44000 408.807
25.61000 387.332
25.78000 405.388
25.95000 398.335
26.12000 384.208
26.29000 395.617
26.46000 389.111
26.63000 372.975
26.80000 382.537
26.97000 376.112
27.14000 369.623
27.31000 361.363
27.48000 372.489
27.65000 377.766
27.82000 387.546
27.99000 361.626
28.16000 372.181
28.33000 379.483
28.50000 362.286
28.67000 364.499
28.84000 355.012
29.01000 367.109
29.18000 379.578
29.35000 361.289
29.52000 366.011
29.69000 359.388
29.86000 368.520
30.03000 377.732
30.20000 374.964
30.37000 362.961
30.54000 356.621
30.71000 382.813
30.88000 395.107
31.05000 477.602
31.22000 696.614
31.39000 854.533
31.56000 655.825
31.73000 457.552
31.90000 407.002
32.07000 374.267
32.24000 340.219
32.41000 331.394
32.58000 325.529
32.75000 312.523
32.92000 520.019
33.09000 445.523
33.26000 311.176
33.43000 300.290
33.60000 278.151
33.77000 321.235
33.94000 303.607
34.11000 297.240
34.28000 308.920
34.45000 318.254
34.62000 289.111
34.79000 277.340
34.96000 285.378
35.13000 257.111
35.30000 261.023
35.47000 255.542
35.64000 264.917
35.81000 259.732
35.98000 251.250
36.15000 244.967
36.32000 256.767
36.49000 268.116
36.66000 244.340
36.83000 257.607
37.00000 270.342
37.17000 244.082
37.34000 251.777
37.51000 256.318
37.68000 248.199
37.85000 260.351
38.02000 255.519
38.19000 254.355
38.36000 274.645
38.53000 394.355
38.70000 485.336
38.87000 361.125
39.04000 263.897
39.21000 243.013
39.38000 237.063
39.55000 242.903
39.72000 226.283
39.89000 229.643
40.06000 219.362
40.23000 226.511
40.40000 223.729
40.57000 217.452
40.74000 221.310
40.91000 194.324
41.08000 216.557
41.25000 217.157
41.42000 214.634
41.59000 208.535
41.76000 205.606
41.93000 204.362
42.10000 199.054
42.27000 216.473
42.44000 204.873
42.61000 200.952
42.78000 193.102
42.95000 204.369
43.12000 195.632
43.29000 202.155
43.46000 198.632
43.63000 184.992
43.80000 198.762
43.97000 191.688
44.14000 199.616
44.31000 199.066
44.48000 200.301
44.65000 205.008
44.82000 200.091
44.99000 201.976
45.16000 206.778
45.33000 206.990
45.50000 198.213
45.67000 180.713
45.84000 178.967
46.01000 179.363
46.18000 173.499
46.35000 176.411
46.52000 182.283
46.69000 180.145
46.86000 173.384
47.03000 164.710
47.20000 163.401
47.37000 165.145
47.54000 159.531
47.71000 166.854
47.88000 165.973
48.05000 158.175
48.22000 153.794
48.39000 163.650
48.56000 149.838
48.73000 150.948
48.90000 155.786
49.07000 160.326
49.24000 150.553
49.41000 164.044
49.58000 153.850
49.75000 148.825
49.92000 158.505
50.09000 151.887
50.26000 161.155
50.43000 171.160
50.60000 163.991
50.77000 168.628
50.94000 159.935
51.11000 154.274
51.28000 144.913
51.45000 138.658
51.62000 137.835
51.79000 131.803
51.96000 143.388
52.13000 148.622
52.30000 148.747
52.47000 144.858
52.64000 133.329
52.81000 150.771
52.98000 139.926
53.15000 140.105
53.32000 134.712
53.49000 145.743
53.66000 140.526
53.83000 129.466
54.00000 139.543
54.17000 137.706
54.34000 129.892
54.51000 130.924
54.68000 133.936
54.85000 131.414
55.02000 139.812
55.19000 147.846
55.36000 159.891
55.53000 167.540
55.70000 187.810
55.87000 212.204
56.04000 223.446
56.21000 173.272
56.38000 166.010
56.55000 137.585
56.72000 139.791
56.89000 131.418
57.06000 133.335
57.23000 131.223
57.40000 109.363
57.57000 128.830
57.74000 127.985
57.91000 127.581
58.08000 125.413
58.25000 117.246
58.42000 132.423
58.59000 123.347
58.76000 117.462
58.93000 112.342
59.10000 115.601
59.27000 121.810
59.44000 105.098
59.61000 119.177
59.78000 113.691
59.95000 119.401
60.12000 116.634
60.29000 112.685
60.46000 119.916
60.63000 121.568
60.80000 106.429
60.97000 114.490
61.14000 131.610
61.31000 126.789
61.48000 131.857
61.65000 296.562
61.82000 199.003
61.99000 142.757
62.16000 124.242
62.33000 135.010
62.50000 131.598
62.67000 137.417
62.84000 131.781
63.01000 134.424
63.18000 135.452
63.35000 138.201
63.52000 140.550
63.69000 139.914
63.86000 144.691
64.03000 146.085
64.20000 156.923
64.37000 147.804
64.54000 165.793
64.71000 183.647
64.88000 193.940
65.05000 199.942
65.22000 201.633
65.39000 245.757
65.56000 290.220
65.73000 957.433
65.90000 2012.898
66.07000 553.345
66.24000 388.582
66.41000 634.807
66.58000 468.152
66.75000 354.606
66.92000 369.341
67.09000 393.499
67.26000 410.262
67.43000 431.141
67.60000 443.189
67.77000 475.504
67.94000 511.339
68.11000 524.678
68.28000 574.911
68.45000 701.705
68.62000 905.383
68.79000 1620.417
68.96000 8051.635
69.13000 45587.008
69.30000 26010.623
69.47000 7025.366
69.64000 987.759
69.81000 639.121
69.98000 500.206
70.00000 498.737