File: XRD/XRD/07-10-2025 Dep 6/XY Data/BTO_Mapping_Theta2Theta_07-10-2025_001_07_18-271_8-135.xy
20.00000 471.272
20.17000 477.070
20.34000 472.300
20.51000 476.500
20.68000 459.800
20.85000 450.312
21.02000 460.236
21.19000 476.512
21.36000 473.244
21.53000 464.189
21.70000 462.255
21.87000 463.512
22.04000 500.152
22.21000 481.706
22.38000 476.420
22.55000 466.303
22.72000 444.202
22.89000 462.210
23.06000 431.392
23.23000 433.251
23.40000 443.027
23.57000 436.243
23.74000 462.571
23.91000 495.257
24.08000 497.970
24.25000 463.232
24.42000 430.267
24.59000 421.193
24.76000 410.133
24.93000 397.616
25.10000 414.463
25.27000 391.801
25.44000 395.897
25.61000 396.901
25.78000 403.547
25.95000 387.145
26.12000 381.050
26.29000 377.359
26.46000 384.088
26.63000 381.271
26.80000 367.974
26.97000 377.354
27.14000 367.768
27.31000 355.162
27.48000 370.184
27.65000 379.950
27.82000 366.819
27.99000 347.146
28.16000 371.174
28.33000 368.077
28.50000 368.611
28.67000 372.588
28.84000 359.165
29.01000 363.748
29.18000 354.204
29.35000 353.268
29.52000 360.031
29.69000 373.037
29.86000 372.070
30.03000 376.762
30.20000 363.446
30.37000 358.788
30.54000 361.136
30.71000 384.102
30.88000 392.109
31.05000 482.090
31.22000 778.756
31.39000 1005.208
31.56000 734.171
31.73000 477.664
31.90000 370.088
32.07000 346.060
32.24000 333.474
32.41000 323.496
32.58000 332.262
32.75000 309.042
32.92000 501.262
33.09000 442.918
33.26000 288.507
33.43000 298.415
33.60000 286.676
33.77000 288.836
33.94000 313.850
34.11000 315.389
34.28000 317.356
34.45000 292.749
34.62000 286.025
34.79000 292.884
34.96000 272.833
35.13000 271.234
35.30000 269.031
35.47000 269.590
35.64000 264.095
35.81000 261.937
35.98000 258.367
36.15000 260.024
36.32000 238.876
36.49000 264.921
36.66000 260.205
36.83000 278.478
37.00000 266.601
37.17000 254.332
37.34000 253.093
37.51000 239.710
37.68000 242.631
37.85000 252.838
38.02000 249.417
38.19000 260.680
38.36000 300.382
38.53000 467.870
38.70000 673.405
38.87000 482.148
39.04000 274.401
39.21000 256.272
39.38000 230.323
39.55000 248.974
39.72000 231.946
39.89000 217.348
40.06000 222.544
40.23000 219.748
40.40000 215.621
40.57000 212.088
40.74000 221.832
40.91000 208.244
41.08000 204.413
41.25000 190.727
41.42000 223.779
41.59000 207.657
41.76000 207.825
41.93000 217.243
42.10000 213.571
42.27000 223.015
42.44000 218.109
42.61000 210.872
42.78000 200.628
42.95000 190.807
43.12000 198.836
43.29000 200.121
43.46000 190.181
43.63000 199.507
43.80000 190.749
43.97000 202.997
44.14000 185.616
44.31000 181.659
44.48000 207.445
44.65000 212.112
44.82000 221.561
44.99000 231.120
45.16000 232.806
45.33000 212.460
45.50000 214.023
45.67000 183.131
45.84000 185.120
46.01000 182.846
46.18000 180.637
46.35000 177.968
46.52000 183.848
46.69000 186.332
46.86000 176.230
47.03000 182.535
47.20000 152.399
47.37000 170.757
47.54000 159.702
47.71000 163.299
47.88000 164.944
48.05000 153.262
48.22000 150.461
48.39000 159.922
48.56000 158.743
48.73000 163.588
48.90000 159.513
49.07000 151.237
49.24000 159.573
49.41000 140.483
49.58000 157.593
49.75000 144.606
49.92000 154.298
50.09000 156.649
50.26000 151.972
50.43000 153.183
50.60000 157.656
50.77000 166.789
50.94000 157.083
51.11000 142.615
51.28000 143.747
51.45000 148.612
51.62000 147.552
51.79000 140.494
51.96000 133.965
52.13000 139.886
52.30000 136.125
52.47000 128.874
52.64000 144.745
52.81000 138.008
52.98000 148.880
53.15000 146.728
53.32000 125.363
53.49000 143.483
53.66000 144.516
53.83000 132.533
54.00000 134.775
54.17000 137.342
54.34000 128.596
54.51000 142.774
54.68000 138.224
54.85000 144.118
55.02000 145.166
55.19000 146.378
55.36000 158.776
55.53000 179.994
55.70000 239.531
55.87000 317.908
56.04000 317.197
56.21000 238.330
56.38000 184.710
56.55000 147.302
56.72000 141.374
56.89000 139.707
57.06000 138.757
57.23000 128.379
57.40000 132.483
57.57000 124.243
57.74000 119.896
57.91000 124.069
58.08000 128.383
58.25000 125.278
58.42000 122.439
58.59000 125.607
58.76000 121.825
58.93000 114.453
59.10000 116.037
59.27000 107.350
59.44000 115.925
59.61000 111.302
59.78000 110.023
59.95000 119.662
60.12000 111.267
60.29000 117.604
60.46000 120.091
60.63000 119.531
60.80000 125.262
60.97000 124.552
61.14000 121.554
61.31000 123.383
61.48000 125.540
61.65000 278.922
61.82000 190.966
61.99000 127.991
62.16000 128.107
62.33000 134.028
62.50000 136.669
62.67000 134.564
62.84000 128.744
63.01000 140.095
63.18000 138.736
63.35000 133.242
63.52000 136.229
63.69000 136.182
63.86000 144.587
64.03000 139.025
64.20000 155.554
64.37000 155.814
64.54000 165.658
64.71000 172.319
64.88000 191.326
65.05000 195.009
65.22000 203.380
65.39000 234.448
65.56000 306.173
65.73000 985.624
65.90000 1967.373
66.07000 503.528
66.24000 385.368
66.41000 639.282
66.58000 428.402
66.75000 377.953
66.92000 356.605
67.09000 374.919
67.26000 396.380
67.43000 419.963
67.60000 442.171
67.77000 478.087
67.94000 492.350
68.11000 510.410
68.28000 612.906
68.45000 657.443
68.62000 885.352
68.79000 1589.077
68.96000 8733.451
69.13000 44470.422
69.30000 24565.189
69.47000 6178.712
69.64000 909.928
69.81000 626.917
69.98000 509.913
70.00000 503.345