File: XRD/XRD/07-10-2025 Dep 6/XY Data/BTO_Mapping_Theta2Theta_07-10-2025_001_21_-4-181_39-781.xy
20.00000 476.533
20.17000 456.612
20.34000 463.084
20.51000 471.204
20.68000 474.947
20.85000 462.109
21.02000 467.690
21.19000 476.365
21.36000 439.108
21.53000 459.019
21.70000 452.634
21.87000 477.150
22.04000 491.873
22.21000 502.093
22.38000 473.981
22.55000 448.219
22.72000 415.835
22.89000 437.014
23.06000 442.492
23.23000 431.968
23.40000 444.019
23.57000 431.672
23.74000 455.730
23.91000 504.298
24.08000 502.410
24.25000 449.586
24.42000 416.403
24.59000 413.026
24.76000 410.386
24.93000 410.756
25.10000 396.530
25.27000 396.554
25.44000 389.651
25.61000 393.493
25.78000 400.722
25.95000 389.769
26.12000 372.883
26.29000 383.173
26.46000 385.963
26.63000 388.011
26.80000 355.131
26.97000 364.372
27.14000 384.865
27.31000 377.853
27.48000 351.611
27.65000 368.685
27.82000 377.506
27.99000 357.910
28.16000 362.945
28.33000 349.521
28.50000 348.224
28.67000 356.997
28.84000 381.068
29.01000 356.501
29.18000 351.906
29.35000 358.358
29.52000 333.475
29.69000 357.053
29.86000 361.671
30.03000 380.875
30.20000 372.416
30.37000 366.390
30.54000 345.122
30.71000 368.329
30.88000 403.668
31.05000 472.799
31.22000 791.339
31.39000 1157.657
31.56000 823.319
31.73000 461.399
31.90000 394.507
32.07000 347.813
32.24000 351.470
32.41000 324.011
32.58000 322.901
32.75000 318.894
32.92000 515.169
33.09000 442.279
33.26000 290.057
33.43000 303.816
33.60000 303.282
33.77000 283.665
33.94000 294.745
34.11000 306.148
34.28000 305.452
34.45000 312.766
34.62000 290.196
34.79000 299.665
34.96000 290.062
35.13000 271.780
35.30000 256.529
35.47000 251.082
35.64000 259.795
35.81000 265.215
35.98000 256.366
36.15000 251.424
36.32000 253.284
36.49000 246.990
36.66000 252.550
36.83000 250.519
37.00000 283.917
37.17000 268.457
37.34000 255.240
37.51000 247.656
37.68000 250.241
37.85000 251.403
38.02000 256.800
38.19000 251.054
38.36000 275.511
38.53000 440.386
38.70000 714.648
38.87000 539.561
39.04000 303.973
39.21000 252.195
39.38000 220.135
39.55000 221.003
39.72000 238.398
39.89000 232.324
40.06000 222.419
40.23000 232.501
40.40000 216.827
40.57000 221.716
40.74000 204.890
40.91000 204.310
41.08000 212.109
41.25000 198.462
41.42000 211.731
41.59000 205.663
41.76000 196.491
41.93000 211.290
42.10000 207.824
42.27000 216.862
42.44000 206.418
42.61000 195.633
42.78000 203.258
42.95000 201.617
43.12000 193.569
43.29000 185.338
43.46000 192.908
43.63000 198.279
43.80000 182.653
43.97000 183.172
44.14000 183.540
44.31000 182.541
44.48000 201.561
44.65000 208.718
44.82000 209.454
44.99000 215.237
45.16000 230.315
45.33000 207.713
45.50000 205.043
45.67000 197.062
45.84000 191.538
46.01000 175.484
46.18000 177.124
46.35000 168.640
46.52000 173.412
46.69000 178.523
46.86000 174.640
47.03000 168.824
47.20000 171.888
47.37000 150.021
47.54000 163.466
47.71000 160.433
47.88000 150.618
48.05000 159.215
48.22000 166.099
48.39000 164.059
48.56000 160.878
48.73000 153.254
48.90000 158.399
49.07000 155.076
49.24000 154.246
49.41000 158.036
49.58000 157.630
49.75000 159.447
49.92000 146.401
50.09000 151.441
50.26000 157.507
50.43000 151.133
50.60000 166.036
50.77000 166.548
50.94000 147.718
51.11000 143.474
51.28000 138.052
51.45000 138.477
51.62000 137.006
51.79000 136.255
51.96000 128.763
52.13000 142.142
52.30000 136.306
52.47000 139.995
52.64000 145.237
52.81000 137.329
52.98000 141.145
53.15000 136.924
53.32000 143.459
53.49000 137.992
53.66000 135.631
53.83000 136.023
54.00000 136.313
54.17000 130.268
54.34000 136.818
54.51000 138.333
54.68000 134.913
54.85000 131.452
55.02000 141.538
55.19000 139.793
55.36000 158.852
55.53000 166.637
55.70000 256.823
55.87000 344.245
56.04000 356.132
56.21000 254.553
56.38000 186.660
56.55000 155.761
56.72000 133.042
56.89000 142.628
57.06000 130.097
57.23000 132.666
57.40000 122.276
57.57000 124.938
57.74000 129.590
57.91000 118.940
58.08000 120.774
58.25000 123.295
58.42000 117.652
58.59000 114.111
58.76000 115.239
58.93000 121.249
59.10000 124.774
59.27000 115.238
59.44000 118.785
59.61000 122.574
59.78000 114.639
59.95000 116.614
60.12000 122.499
60.29000 115.128
60.46000 117.153
60.63000 121.297
60.80000 124.215
60.97000 117.681
61.14000 124.905
61.31000 135.921
61.48000 140.177
61.65000 276.070
61.82000 190.920
61.99000 139.573
62.16000 128.189
62.33000 134.614
62.50000 121.677
62.67000 133.482
62.84000 143.969
63.01000 130.758
63.18000 130.726
63.35000 135.622
63.52000 136.576
63.69000 129.469
63.86000 142.968
64.03000 149.499
64.20000 152.936
64.37000 151.105
64.54000 165.632
64.71000 168.029
64.88000 173.550
65.05000 197.865
65.22000 218.062
65.39000 241.357
65.56000 335.242
65.73000 1080.407
65.90000 1946.537
66.07000 500.984
66.24000 412.576
66.41000 631.552
66.58000 423.567
66.75000 357.564
66.92000 350.432
67.09000 376.206
67.26000 397.634
67.43000 421.347
67.60000 447.610
67.77000 467.586
67.94000 509.685
68.11000 526.691
68.28000 575.118
68.45000 661.820
68.62000 924.214
68.79000 1636.345
68.96000 9940.112
69.13000 44783.805
69.30000 24005.328
69.47000 5651.860
69.64000 881.444
69.81000 599.881
69.98000 533.157
70.00000 519.969