File: XRD/XRD/07-10-2025 Dep 6/XY Data/BTO_Mapping_Theta2Theta_07-10-2025_001_53_12-361_-38-042.xy
20.00000 471.111
20.17000 473.535
20.34000 469.462
20.51000 440.831
20.68000 472.455
20.85000 461.989
21.02000 454.302
21.19000 464.716
21.36000 459.727
21.53000 449.334
21.70000 465.327
21.87000 488.059
22.04000 503.500
22.21000 494.412
22.38000 460.346
22.55000 442.679
22.72000 433.915
22.89000 458.027
23.06000 426.143
23.23000 419.612
23.40000 432.009
23.57000 437.395
23.74000 475.053
23.91000 504.515
24.08000 495.047
24.25000 457.248
24.42000 445.906
24.59000 410.117
24.76000 408.071
24.93000 405.374
25.10000 402.098
25.27000 394.502
25.44000 379.188
25.61000 420.069
25.78000 394.827
25.95000 378.024
26.12000 375.790
26.29000 379.727
26.46000 374.288
26.63000 391.390
26.80000 376.564
26.97000 372.976
27.14000 374.936
27.31000 367.877
27.48000 375.948
27.65000 366.531
27.82000 369.556
27.99000 368.246
28.16000 371.021
28.33000 351.553
28.50000 362.749
28.67000 360.989
28.84000 347.437
29.01000 349.032
29.18000 359.931
29.35000 351.055
29.52000 360.646
29.69000 343.755
29.86000 387.135
30.03000 381.399
30.20000 377.706
30.37000 370.044
30.54000 367.779
30.71000 380.085
30.88000 397.663
31.05000 479.575
31.22000 871.821
31.39000 1216.395
31.56000 856.463
31.73000 471.228
31.90000 388.958
32.07000 340.419
32.24000 353.566
32.41000 339.572
32.58000 315.367
32.75000 313.510
32.92000 478.952
33.09000 429.702
33.26000 309.756
33.43000 291.213
33.60000 292.603
33.77000 282.653
33.94000 317.887
34.11000 321.044
34.28000 320.340
34.45000 325.845
34.62000 297.591
34.79000 285.383
34.96000 282.843
35.13000 272.615
35.30000 260.050
35.47000 264.629
35.64000 255.486
35.81000 258.881
35.98000 261.527
36.15000 262.305
36.32000 258.586
36.49000 250.001
36.66000 256.966
36.83000 261.428
37.00000 279.937
37.17000 267.031
37.34000 242.557
37.51000 243.169
37.68000 252.717
37.85000 252.973
38.02000 255.158
38.19000 260.506
38.36000 300.802
38.53000 495.549
38.70000 861.979
38.87000 661.917
39.04000 301.739
39.21000 247.403
39.38000 246.143
39.55000 255.237
39.72000 240.619
39.89000 226.931
40.06000 241.506
40.23000 227.646
40.40000 224.843
40.57000 220.105
40.74000 220.266
40.91000 199.536
41.08000 198.265
41.25000 205.639
41.42000 201.073
41.59000 201.867
41.76000 205.009
41.93000 203.670
42.10000 219.845
42.27000 218.342
42.44000 207.006
42.61000 208.032
42.78000 217.749
42.95000 192.040
43.12000 206.840
43.29000 199.101
43.46000 189.202
43.63000 189.537
43.80000 196.478
43.97000 195.061
44.14000 199.512
44.31000 189.943
44.48000 192.029
44.65000 227.583
44.82000 220.496
44.99000 229.138
45.16000 232.202
45.33000 215.527
45.50000 203.623
45.67000 191.028
45.84000 194.788
46.01000 166.892
46.18000 168.615
46.35000 170.843
46.52000 169.140
46.69000 177.905
46.86000 172.089
47.03000 169.554
47.20000 170.309
47.37000 161.740
47.54000 172.521
47.71000 159.142
47.88000 149.356
48.05000 164.767
48.22000 170.149
48.39000 138.027
48.56000 166.049
48.73000 159.841
48.90000 161.729
49.07000 154.336
49.24000 153.771
49.41000 152.389
49.58000 150.233
49.75000 149.273
49.92000 153.620
50.09000 161.064
50.26000 163.004
50.43000 161.743
50.60000 160.929
50.77000 154.585
50.94000 164.298
51.11000 135.003
51.28000 143.590
51.45000 155.000
51.62000 129.061
51.79000 145.830
51.96000 142.738
52.13000 130.652
52.30000 145.378
52.47000 147.856
52.64000 139.417
52.81000 148.654
52.98000 138.675
53.15000 133.901
53.32000 146.443
53.49000 153.006
53.66000 136.748
53.83000 133.533
54.00000 144.262
54.17000 133.287
54.34000 138.623
54.51000 134.774
54.68000 138.448
54.85000 134.685
55.02000 148.078
55.19000 141.573
55.36000 163.448
55.53000 199.047
55.70000 300.400
55.87000 461.777
56.04000 464.155
56.21000 293.850
56.38000 188.458
56.55000 153.955
56.72000 135.426
56.89000 136.723
57.06000 133.506
57.23000 129.083
57.40000 134.482
57.57000 139.321
57.74000 122.710
57.91000 125.939
58.08000 118.605
58.25000 123.371
58.42000 117.096
58.59000 116.541
58.76000 132.716
58.93000 114.292
59.10000 112.646
59.27000 117.708
59.44000 112.924
59.61000 117.528
59.78000 116.558
59.95000 113.810
60.12000 114.260
60.29000 112.067
60.46000 115.503
60.63000 116.812
60.80000 122.343
60.97000 125.468
61.14000 119.185
61.31000 116.684
61.48000 130.959
61.65000 282.756
61.82000 177.595
61.99000 130.838
62.16000 118.264
62.33000 123.672
62.50000 122.997
62.67000 126.264
62.84000 127.636
63.01000 127.234
63.18000 140.057
63.35000 137.541
63.52000 149.459
63.69000 148.928
63.86000 149.435
64.03000 150.441
64.20000 153.017
64.37000 156.787
64.54000 155.604
64.71000 162.541
64.88000 177.927
65.05000 201.808
65.22000 214.477
65.39000 250.264
65.56000 323.849
65.73000 968.102
65.90000 1943.600
66.07000 514.785
66.24000 385.987
66.41000 630.562
66.58000 400.892
66.75000 329.977
66.92000 356.045
67.09000 388.672
67.26000 390.452
67.43000 414.014
67.60000 430.622
67.77000 467.206
67.94000 483.069
68.11000 526.435
68.28000 575.866
68.45000 634.518
68.62000 885.816
68.79000 1569.910
68.96000 8529.522
69.13000 43246.000
69.30000 23952.352
69.47000 6024.280
69.64000 890.867
69.81000 635.569
69.98000 501.732
70.00000 504.498