File: XRD/XRD/07-10-2025 Dep 6/XY Data/BTO_Mapping_Theta2Theta_07-10-2025_001_06_9-135_4-067.xy
20.00000 477.766
20.17000 484.861
20.34000 466.970
20.51000 453.626
20.68000 459.111
20.85000 459.048
21.02000 474.114
21.19000 455.932
21.36000 469.066
21.53000 456.463
21.70000 455.947
21.87000 497.154
22.04000 502.251
22.21000 508.386
22.38000 482.923
22.55000 468.963
22.72000 435.888
22.89000 462.874
23.06000 428.389
23.23000 438.095
23.40000 443.170
23.57000 450.990
23.74000 459.922
23.91000 498.519
24.08000 499.640
24.25000 443.629
24.42000 404.975
24.59000 405.200
24.76000 402.715
24.93000 416.113
25.10000 401.133
25.27000 404.801
25.44000 386.230
25.61000 392.272
25.78000 397.133
25.95000 395.177
26.12000 395.350
26.29000 377.904
26.46000 379.650
26.63000 372.083
26.80000 373.109
26.97000 381.790
27.14000 358.043
27.31000 378.171
27.48000 379.924
27.65000 358.290
27.82000 361.127
27.99000 363.018
28.16000 356.418
28.33000 359.242
28.50000 351.280
28.67000 341.927
28.84000 361.674
29.01000 357.543
29.18000 340.361
29.35000 334.278
29.52000 342.696
29.69000 344.519
29.86000 373.511
30.03000 387.560
30.20000 380.108
30.37000 376.889
30.54000 395.808
30.71000 390.967
30.88000 406.066
31.05000 507.770
31.22000 821.228
31.39000 1189.119
31.56000 838.238
31.73000 494.171
31.90000 362.380
32.07000 355.114
32.24000 336.236
32.41000 332.047
32.58000 329.746
32.75000 331.683
32.92000 491.238
33.09000 419.714
33.26000 300.230
33.43000 298.445
33.60000 309.240
33.77000 293.644
33.94000 305.159
34.11000 316.406
34.28000 324.510
34.45000 326.046
34.62000 299.895
34.79000 308.957
34.96000 266.094
35.13000 289.909
35.30000 267.945
35.47000 267.492
35.64000 262.501
35.81000 275.309
35.98000 258.904
36.15000 261.695
36.32000 249.343
36.49000 238.733
36.66000 258.552
36.83000 269.987
37.00000 264.982
37.17000 263.825
37.34000 252.279
37.51000 249.707
37.68000 254.196
37.85000 248.738
38.02000 247.851
38.19000 228.392
38.36000 291.077
38.53000 480.987
38.70000 802.023
38.87000 603.514
39.04000 309.773
39.21000 237.777
39.38000 238.255
39.55000 245.667
39.72000 245.794
39.89000 239.005
40.06000 223.691
40.23000 216.014
40.40000 213.416
40.57000 215.616
40.74000 202.987
40.91000 214.603
41.08000 221.386
41.25000 235.908
41.42000 214.860
41.59000 206.281
41.76000 207.767
41.93000 220.639
42.10000 219.220
42.27000 205.921
42.44000 209.120
42.61000 198.976
42.78000 199.768
42.95000 195.102
43.12000 196.970
43.29000 191.423
43.46000 194.322
43.63000 191.481
43.80000 186.240
43.97000 175.336
44.14000 191.665
44.31000 202.009
44.48000 201.603
44.65000 200.857
44.82000 214.195
44.99000 229.239
45.16000 231.220
45.33000 210.753
45.50000 210.918
45.67000 197.626
45.84000 175.147
46.01000 177.447
46.18000 181.580
46.35000 175.057
46.52000 180.206
46.69000 166.849
46.86000 169.290
47.03000 150.270
47.20000 166.916
47.37000 163.530
47.54000 168.615
47.71000 158.698
47.88000 164.559
48.05000 156.151
48.22000 165.004
48.39000 147.069
48.56000 159.531
48.73000 149.249
48.90000 168.464
49.07000 155.004
49.24000 154.186
49.41000 152.431
49.58000 144.265
49.75000 155.597
49.92000 154.393
50.09000 155.069
50.26000 157.099
50.43000 160.115
50.60000 161.442
50.77000 155.097
50.94000 153.279
51.11000 138.282
51.28000 148.088
51.45000 141.049
51.62000 146.854
51.79000 135.201
51.96000 143.237
52.13000 138.575
52.30000 131.403
52.47000 143.531
52.64000 134.560
52.81000 144.052
52.98000 154.641
53.15000 137.739
53.32000 148.740
53.49000 146.769
53.66000 140.725
53.83000 142.063
54.00000 139.341
54.17000 136.885
54.34000 131.252
54.51000 140.522
54.68000 137.412
54.85000 146.172
55.02000 140.389
55.19000 147.258
55.36000 157.899
55.53000 206.832
55.70000 272.947
55.87000 391.326
56.04000 425.107
56.21000 296.027
56.38000 198.546
56.55000 149.421
56.72000 136.343
56.89000 134.483
57.06000 134.425
57.23000 126.739
57.40000 128.975
57.57000 135.864
57.74000 124.895
57.91000 121.846
58.08000 123.397
58.25000 130.543
58.42000 123.542
58.59000 117.142
58.76000 113.086
58.93000 114.420
59.10000 116.606
59.27000 120.986
59.44000 119.229
59.61000 113.920
59.78000 112.280
59.95000 121.265
60.12000 124.260
60.29000 112.444
60.46000 117.132
60.63000 119.639
60.80000 121.441
60.97000 118.601
61.14000 120.703
61.31000 128.636
61.48000 138.409
61.65000 276.941
61.82000 207.924
61.99000 126.400
62.16000 128.074
62.33000 122.929
62.50000 118.724
62.67000 136.184
62.84000 130.873
63.01000 127.774
63.18000 125.393
63.35000 122.194
63.52000 152.763
63.69000 140.264
63.86000 139.971
64.03000 145.696
64.20000 146.874
64.37000 155.558
64.54000 168.861
64.71000 166.520
64.88000 175.564
65.05000 204.547
65.22000 204.802
65.39000 267.833
65.56000 316.435
65.73000 997.351
65.90000 1921.994
66.07000 488.495
66.24000 385.586
66.41000 613.838
66.58000 404.558
66.75000 347.205
66.92000 354.795
67.09000 372.655
67.26000 381.026
67.43000 427.352
67.60000 444.502
67.77000 439.757
67.94000 485.449
68.11000 519.916
68.28000 580.913
68.45000 643.718
68.62000 870.360
68.79000 1573.158
68.96000 8768.833
69.13000 43453.609
69.30000 23969.121
69.47000 5988.918
69.64000 923.848
69.81000 607.202
69.98000 509.894
70.00000 496.892