File: XRD/XRD/07-10-2025 Dep 6/XY Data/BTO_Mapping_Theta2Theta_07-10-2025_001_52_9-271_-28-532.xy
20.00000 484.135
20.17000 461.588
20.34000 475.306
20.51000 467.358
20.68000 476.006
20.85000 473.236
21.02000 479.533
21.19000 457.823
21.36000 469.551
21.53000 473.401
21.70000 478.592
21.87000 495.213
22.04000 517.686
22.21000 502.249
22.38000 489.486
22.55000 440.570
22.72000 452.072
22.89000 444.846
23.06000 420.933
23.23000 423.860
23.40000 409.869
23.57000 439.993
23.74000 472.449
23.91000 493.534
24.08000 502.198
24.25000 450.868
24.42000 426.426
24.59000 411.994
24.76000 399.016
24.93000 400.600
25.10000 420.862
25.27000 410.531
25.44000 405.185
25.61000 383.759
25.78000 400.211
25.95000 389.798
26.12000 392.374
26.29000 367.446
26.46000 375.144
26.63000 376.098
26.80000 379.173
26.97000 377.192
27.14000 365.286
27.31000 375.038
27.48000 358.380
27.65000 354.734
27.82000 368.337
27.99000 357.413
28.16000 347.140
28.33000 368.347
28.50000 347.734
28.67000 345.887
28.84000 338.752
29.01000 353.162
29.18000 338.956
29.35000 351.351
29.52000 356.039
29.69000 350.850
29.86000 358.844
30.03000 384.358
30.20000 366.321
30.37000 368.232
30.54000 351.248
30.71000 377.852
30.88000 388.580
31.05000 499.444
31.22000 864.878
31.39000 1244.307
31.56000 869.640
31.73000 492.107
31.90000 391.257
32.07000 353.208
32.24000 338.000
32.41000 334.245
32.58000 337.721
32.75000 322.484
32.92000 466.872
33.09000 421.086
33.26000 300.611
33.43000 301.363
33.60000 286.660
33.77000 298.660
33.94000 289.679
34.11000 316.656
34.28000 328.816
34.45000 319.633
34.62000 303.419
34.79000 291.439
34.96000 273.121
35.13000 254.132
35.30000 257.130
35.47000 262.047
35.64000 260.591
35.81000 269.122
35.98000 262.489
36.15000 268.107
36.32000 271.689
36.49000 248.604
36.66000 266.736
36.83000 262.140
37.00000 269.451
37.17000 265.659
37.34000 272.824
37.51000 240.779
37.68000 244.346
37.85000 261.992
38.02000 261.080
38.19000 259.544
38.36000 302.024
38.53000 518.903
38.70000 892.372
38.87000 686.408
39.04000 310.966
39.21000 247.370
39.38000 229.113
39.55000 234.639
39.72000 224.487
39.89000 231.695
40.06000 235.540
40.23000 220.109
40.40000 224.288
40.57000 216.861
40.74000 232.572
40.91000 206.354
41.08000 222.953
41.25000 207.090
41.42000 195.416
41.59000 206.662
41.76000 201.148
41.93000 214.813
42.10000 215.863
42.27000 221.979
42.44000 223.421
42.61000 219.345
42.78000 198.768
42.95000 193.527
43.12000 198.075
43.29000 190.492
43.46000 197.012
43.63000 196.284
43.80000 195.899
43.97000 180.000
44.14000 187.457
44.31000 187.611
44.48000 201.313
44.65000 211.820
44.82000 220.032
44.99000 245.745
45.16000 240.801
45.33000 217.747
45.50000 206.518
45.67000 196.170
45.84000 189.774
46.01000 179.407
46.18000 174.843
46.35000 169.670
46.52000 165.401
46.69000 171.648
46.86000 155.998
47.03000 167.663
47.20000 162.331
47.37000 162.556
47.54000 172.174
47.71000 162.212
47.88000 164.608
48.05000 160.065
48.22000 146.980
48.39000 160.388
48.56000 149.852
48.73000 149.549
48.90000 165.318
49.07000 146.097
49.24000 161.524
49.41000 151.394
49.58000 164.856
49.75000 157.495
49.92000 148.824
50.09000 134.905
50.26000 162.437
50.43000 149.653
50.60000 156.838
50.77000 156.362
50.94000 163.480
51.11000 151.143
51.28000 149.340
51.45000 144.295
51.62000 136.878
51.79000 134.643
51.96000 140.917
52.13000 135.049
52.30000 134.788
52.47000 147.094
52.64000 123.698
52.81000 142.960
52.98000 140.755
53.15000 156.382
53.32000 149.445
53.49000 146.232
53.66000 141.003
53.83000 147.772
54.00000 136.972
54.17000 135.156
54.34000 145.362
54.51000 137.091
54.68000 137.701
54.85000 148.761
55.02000 144.520
55.19000 143.264
55.36000 162.005
55.53000 208.397
55.70000 322.247
55.87000 490.426
56.04000 495.639
56.21000 321.342
56.38000 206.398
56.55000 160.965
56.72000 137.414
56.89000 136.944
57.06000 136.521
57.23000 127.463
57.40000 124.963
57.57000 129.470
57.74000 135.547
57.91000 123.820
58.08000 123.003
58.25000 127.248
58.42000 128.759
58.59000 125.401
58.76000 120.411
58.93000 115.693
59.10000 118.937
59.27000 122.190
59.44000 128.090
59.61000 114.384
59.78000 115.936
59.95000 113.854
60.12000 112.150
60.29000 120.652
60.46000 114.932
60.63000 110.104
60.80000 107.854
60.97000 120.763
61.14000 118.508
61.31000 125.524
61.48000 132.068
61.65000 282.468
61.82000 206.360
61.99000 129.686
62.16000 122.323
62.33000 119.546
62.50000 128.519
62.67000 126.668
62.84000 136.223
63.01000 125.534
63.18000 131.318
63.35000 130.063
63.52000 129.525
63.69000 128.937
63.86000 136.091
64.03000 150.242
64.20000 148.944
64.37000 149.134
64.54000 164.423
64.71000 162.006
64.88000 183.907
65.05000 186.404
65.22000 217.593
65.39000 255.607
65.56000 331.893
65.73000 980.565
65.90000 1903.573
66.07000 511.438
66.24000 382.922
66.41000 610.066
66.58000 393.424
66.75000 356.423
66.92000 352.105
67.09000 356.349
67.26000 392.330
67.43000 408.923
67.60000 422.900
67.77000 463.508
67.94000 503.437
68.11000 517.006
68.28000 573.283
68.45000 638.896
68.62000 856.891
68.79000 1538.078
68.96000 8686.005
69.13000 42813.652
69.30000 23752.279
69.47000 5836.056
69.64000 876.927
69.81000 614.422
69.98000 507.465
70.00000 497.189