File: XRD/XRD/07-10-2025 Dep 6/XY Data/BTO_Mapping_Theta2Theta_07-10-2025_001_02_10-000_0-000.xy
20.00000 492.407
20.17000 477.194
20.34000 450.869
20.51000 463.715
20.68000 473.937
20.85000 468.531
21.02000 465.856
21.19000 467.805
21.36000 455.001
21.53000 460.671
21.70000 452.680
21.87000 510.645
22.04000 514.107
22.21000 505.588
22.38000 470.908
22.55000 441.467
22.72000 448.663
22.89000 449.632
23.06000 443.896
23.23000 413.178
23.40000 434.583
23.57000 456.962
23.74000 464.800
23.91000 493.868
24.08000 489.525
24.25000 463.884
24.42000 417.590
24.59000 400.472
24.76000 408.260
24.93000 401.525
25.10000 399.610
25.27000 400.374
25.44000 392.530
25.61000 394.737
25.78000 407.282
25.95000 390.471
26.12000 387.042
26.29000 386.281
26.46000 386.636
26.63000 366.445
26.80000 370.504
26.97000 362.895
27.14000 357.242
27.31000 368.874
27.48000 347.835
27.65000 353.444
27.82000 361.698
27.99000 367.411
28.16000 354.257
28.33000 370.164
28.50000 364.590
28.67000 352.057
28.84000 363.617
29.01000 339.000
29.18000 350.228
29.35000 345.407
29.52000 353.142
29.69000 358.434
29.86000 369.618
30.03000 383.498
30.20000 371.065
30.37000 359.806
30.54000 373.611
30.71000 387.619
30.88000 402.373
31.05000 529.413
31.22000 840.902
31.39000 1179.570
31.56000 831.009
31.73000 485.929
31.90000 389.518
32.07000 346.848
32.24000 340.220
32.41000 357.338
32.58000 329.270
32.75000 319.128
32.92000 525.407
33.09000 417.233
33.26000 284.827
33.43000 287.229
33.60000 294.522
33.77000 301.227
33.94000 306.496
34.11000 319.068
34.28000 325.470
34.45000 335.210
34.62000 308.992
34.79000 282.331
34.96000 265.618
35.13000 255.091
35.30000 263.507
35.47000 263.680
35.64000 277.992
35.81000 256.047
35.98000 250.569
36.15000 255.797
36.32000 261.304
36.49000 255.393
36.66000 247.095
36.83000 265.143
37.00000 273.481
37.17000 275.180
37.34000 237.304
37.51000 249.262
37.68000 252.589
37.85000 240.160
38.02000 252.569
38.19000 252.771
38.36000 291.227
38.53000 490.305
38.70000 801.245
38.87000 575.244
39.04000 303.080
39.21000 242.023
39.38000 227.937
39.55000 244.157
39.72000 242.157
39.89000 229.682
40.06000 224.559
40.23000 222.468
40.40000 223.441
40.57000 213.104
40.74000 209.346
40.91000 211.137
41.08000 206.604
41.25000 199.520
41.42000 215.260
41.59000 201.807
41.76000 216.664
41.93000 215.355
42.10000 210.027
42.27000 206.893
42.44000 212.619
42.61000 212.826
42.78000 189.155
42.95000 201.340
43.12000 206.435
43.29000 198.172
43.46000 186.363
43.63000 202.373
43.80000 205.739
43.97000 203.745
44.14000 204.190
44.31000 215.799
44.48000 212.108
44.65000 205.265
44.82000 223.478
44.99000 225.047
45.16000 238.428
45.33000 208.348
45.50000 211.702
45.67000 191.321
45.84000 180.910
46.01000 183.936
46.18000 177.776
46.35000 174.712
46.52000 177.510
46.69000 176.311
46.86000 175.893
47.03000 163.142
47.20000 168.659
47.37000 162.365
47.54000 171.326
47.71000 164.232
47.88000 154.200
48.05000 156.383
48.22000 161.782
48.39000 158.115
48.56000 166.718
48.73000 150.520
48.90000 158.031
49.07000 161.585
49.24000 155.408
49.41000 150.652
49.58000 155.850
49.75000 148.840
49.92000 144.068
50.09000 147.876
50.26000 144.714
50.43000 150.607
50.60000 160.528
50.77000 163.956
50.94000 162.366
51.11000 151.869
51.28000 146.984
51.45000 150.707
51.62000 139.294
51.79000 137.331
51.96000 142.905
52.13000 136.286
52.30000 144.573
52.47000 132.332
52.64000 136.714
52.81000 133.239
52.98000 140.063
53.15000 128.643
53.32000 142.451
53.49000 146.345
53.66000 147.738
53.83000 145.907
54.00000 129.209
54.17000 133.854
54.34000 149.034
54.51000 142.470
54.68000 137.488
54.85000 143.247
55.02000 148.365
55.19000 149.675
55.36000 157.969
55.53000 201.040
55.70000 277.136
55.87000 429.327
56.04000 417.880
56.21000 288.539
56.38000 182.018
56.55000 159.144
56.72000 135.558
56.89000 135.074
57.06000 135.208
57.23000 123.974
57.40000 123.784
57.57000 126.693
57.74000 131.518
57.91000 122.716
58.08000 126.431
58.25000 118.335
58.42000 117.990
58.59000 123.247
58.76000 118.504
58.93000 112.332
59.10000 129.227
59.27000 117.489
59.44000 118.197
59.61000 116.484
59.78000 110.109
59.95000 128.155
60.12000 120.329
60.29000 120.672
60.46000 115.401
60.63000 120.243
60.80000 121.643
60.97000 112.982
61.14000 139.741
61.31000 122.161
61.48000 133.959
61.65000 283.219
61.82000 197.648
61.99000 131.133
62.16000 123.060
62.33000 124.121
62.50000 125.167
62.67000 133.665
62.84000 128.286
63.01000 139.801
63.18000 125.528
63.35000 139.733
63.52000 133.933
63.69000 132.665
63.86000 139.557
64.03000 149.832
64.20000 154.251
64.37000 149.570
64.54000 164.304
64.71000 178.753
64.88000 187.733
65.05000 183.351
65.22000 212.610
65.39000 271.536
65.56000 321.644
65.73000 996.799
65.90000 1890.155
66.07000 512.451
66.24000 400.238
66.41000 624.679
66.58000 399.233
66.75000 345.504
66.92000 365.941
67.09000 375.706
67.26000 389.440
67.43000 408.791
67.60000 434.885
67.77000 469.189
67.94000 475.328
68.11000 536.245
68.28000 546.644
68.45000 642.974
68.62000 869.065
68.79000 1594.115
68.96000 8965.217
69.13000 43670.402
69.30000 23819.576
69.47000 5775.259
69.64000 909.954
69.81000 613.161
69.98000 496.510
70.00000 491.198