File: XRD/XRD/07-10-2025 Dep 6/XY Data/BTO_Mapping_Theta2Theta_07-10-2025_001_58_9-135_-4-067.xy
20.00000 490.751
20.17000 462.599
20.34000 474.674
20.51000 486.818
20.68000 465.078
20.85000 480.005
21.02000 473.746
21.19000 463.414
21.36000 462.482
21.53000 472.927
21.70000 467.151
21.87000 475.714
22.04000 522.173
22.21000 506.116
22.38000 454.837
22.55000 434.281
22.72000 439.934
22.89000 417.649
23.06000 430.006
23.23000 432.266
23.40000 438.058
23.57000 432.564
23.74000 459.547
23.91000 510.499
24.08000 490.726
24.25000 453.617
24.42000 418.430
24.59000 412.954
24.76000 409.543
24.93000 429.747
25.10000 402.643
25.27000 401.977
25.44000 378.134
25.61000 392.091
25.78000 399.563
25.95000 398.362
26.12000 382.501
26.29000 369.912
26.46000 381.803
26.63000 382.067
26.80000 373.283
26.97000 376.646
27.14000 372.695
27.31000 374.011
27.48000 388.527
27.65000 365.063
27.82000 375.250
27.99000 366.598
28.16000 369.752
28.33000 366.855
28.50000 364.001
28.67000 347.069
28.84000 346.138
29.01000 338.833
29.18000 335.775
29.35000 357.133
29.52000 357.063
29.69000 348.304
29.86000 358.028
30.03000 379.991
30.20000 368.173
30.37000 347.037
30.54000 385.550
30.71000 390.836
30.88000 388.365
31.05000 506.377
31.22000 860.201
31.39000 1181.715
31.56000 845.001
31.73000 484.654
31.90000 381.887
32.07000 354.236
32.24000 349.777
32.41000 325.809
32.58000 325.545
32.75000 312.538
32.92000 496.001
33.09000 420.129
33.26000 306.481
33.43000 310.974
33.60000 302.183
33.77000 293.623
33.94000 300.294
34.11000 306.643
34.28000 325.884
34.45000 343.127
34.62000 311.323
34.79000 290.626
34.96000 269.721
35.13000 279.649
35.30000 260.656
35.47000 263.295
35.64000 267.172
35.81000 266.060
35.98000 269.447
36.15000 252.474
36.32000 250.139
36.49000 254.067
36.66000 257.106
36.83000 272.480
37.00000 269.100
37.17000 265.155
37.34000 253.764
37.51000 257.313
37.68000 247.523
37.85000 245.638
38.02000 257.837
38.19000 249.169
38.36000 305.862
38.53000 484.174
38.70000 848.438
38.87000 628.359
39.04000 309.694
39.21000 248.802
39.38000 248.475
39.55000 225.038
39.72000 230.767
39.89000 204.697
40.06000 222.683
40.23000 231.556
40.40000 211.409
40.57000 204.734
40.74000 207.459
40.91000 205.018
41.08000 207.567
41.25000 196.921
41.42000 213.100
41.59000 205.789
41.76000 208.502
41.93000 204.296
42.10000 203.115
42.27000 221.069
42.44000 210.815
42.61000 205.907
42.78000 203.888
42.95000 219.822
43.12000 202.560
43.29000 198.332
43.46000 181.029
43.63000 183.336
43.80000 183.186
43.97000 169.765
44.14000 184.876
44.31000 200.229
44.48000 202.010
44.65000 222.104
44.82000 214.547
44.99000 235.862
45.16000 235.419
45.33000 204.479
45.50000 212.218
45.67000 190.341
45.84000 179.845
46.01000 167.938
46.18000 182.008
46.35000 170.116
46.52000 173.243
46.69000 181.003
46.86000 171.229
47.03000 164.318
47.20000 168.522
47.37000 158.998
47.54000 169.939
47.71000 158.018
47.88000 151.702
48.05000 150.124
48.22000 156.954
48.39000 164.604
48.56000 156.122
48.73000 151.591
48.90000 146.365
49.07000 151.569
49.24000 156.321
49.41000 152.196
49.58000 152.145
49.75000 142.617
49.92000 160.406
50.09000 152.154
50.26000 155.851
50.43000 162.118
50.60000 163.173
50.77000 157.961
50.94000 149.944
51.11000 142.402
51.28000 144.775
51.45000 138.886
51.62000 132.374
51.79000 137.565
51.96000 138.641
52.13000 136.439
52.30000 139.062
52.47000 135.428
52.64000 133.540
52.81000 139.794
52.98000 149.872
53.15000 140.793
53.32000 149.685
53.49000 147.506
53.66000 144.511
53.83000 146.919
54.00000 138.449
54.17000 137.939
54.34000 143.104
54.51000 132.933
54.68000 135.041
54.85000 143.026
55.02000 141.427
55.19000 153.595
55.36000 160.582
55.53000 200.501
55.70000 293.041
55.87000 440.934
56.04000 437.142
56.21000 304.329
56.38000 189.510
56.55000 149.256
56.72000 146.169
56.89000 133.172
57.06000 119.584
57.23000 129.031
57.40000 129.237
57.57000 128.435
57.74000 122.176
57.91000 114.969
58.08000 129.128
58.25000 121.445
58.42000 123.812
58.59000 123.772
58.76000 130.617
58.93000 130.119
59.10000 114.935
59.27000 125.983
59.44000 113.477
59.61000 121.754
59.78000 115.534
59.95000 128.029
60.12000 110.939
60.29000 114.730
60.46000 114.820
60.63000 113.556
60.80000 119.030
60.97000 124.837
61.14000 125.180
61.31000 127.413
61.48000 143.140
61.65000 283.486
61.82000 195.473
61.99000 138.472
62.16000 128.384
62.33000 127.297
62.50000 137.208
62.67000 133.987
62.84000 120.699
63.01000 121.031
63.18000 140.255
63.35000 133.504
63.52000 141.245
63.69000 143.738
63.86000 149.085
64.03000 145.670
64.20000 153.647
64.37000 158.528
64.54000 149.851
64.71000 170.513
64.88000 170.181
65.05000 196.107
65.22000 209.383
65.39000 245.011
65.56000 327.381
65.73000 955.764
65.90000 1974.573
66.07000 503.724
66.24000 392.483
66.41000 631.526
66.58000 401.108
66.75000 345.346
66.92000 369.489
67.09000 360.899
67.26000 400.385
67.43000 409.094
67.60000 426.100
67.77000 454.461
67.94000 493.075
68.11000 533.657
68.28000 575.851
68.45000 650.919
68.62000 866.602
68.79000 1546.578
68.96000 8600.212
69.13000 43373.723
69.30000 23945.939
69.47000 5896.939
69.64000 880.978
69.81000 612.337
69.98000 503.990
70.00000 493.590