File: XRD/XRD/07-10-2025 Dep 6/XY Data/BTO_Mapping_Theta2Theta_07-10-2025_001_33_-39-126_8-316.xy
20.00000 481.341
20.17000 471.794
20.34000 473.797
20.51000 461.038
20.68000 467.519
20.85000 475.822
21.02000 459.971
21.19000 465.010
21.36000 484.242
21.53000 474.718
21.70000 534.739
21.87000 665.441
22.04000 787.791
22.21000 612.589
22.38000 506.794
22.55000 443.488
22.72000 429.297
22.89000 422.951
23.06000 437.990
23.23000 426.919
23.40000 420.680
23.57000 434.566
23.74000 416.095
23.91000 429.684
24.08000 414.606
24.25000 411.233
24.42000 397.286
24.59000 387.638
24.76000 401.314
24.93000 404.990
25.10000 392.010
25.27000 382.456
25.44000 401.519
25.61000 379.885
25.78000 408.356
25.95000 368.759
26.12000 377.404
26.29000 372.183
26.46000 380.918
26.63000 383.499
26.80000 377.051
26.97000 378.414
27.14000 363.202
27.31000 370.198
27.48000 368.905
27.65000 382.329
27.82000 353.637
27.99000 358.850
28.16000 369.011
28.33000 368.737
28.50000 362.295
28.67000 352.457
28.84000 358.319
29.01000 355.945
29.18000 352.092
29.35000 359.663
29.52000 343.091
29.69000 368.509
29.86000 432.613
30.03000 470.840
30.20000 422.858
30.37000 378.925
30.54000 395.637
30.71000 398.365
30.88000 477.089
31.05000 866.740
31.22000 2385.148
31.39000 3031.684
31.56000 1436.655
31.73000 540.456
31.90000 377.865
32.07000 342.464
32.24000 327.655
32.41000 326.449
32.58000 311.971
32.75000 321.946
32.92000 566.618
33.09000 447.146
33.26000 293.120
33.43000 305.043
33.60000 289.333
33.77000 289.925
33.94000 274.223
34.11000 279.455
34.28000 286.481
34.45000 279.381
34.62000 278.480
34.79000 281.134
34.96000 271.186
35.13000 262.763
35.30000 279.868
35.47000 252.348
35.64000 265.068
35.81000 276.094
35.98000 268.597
36.15000 250.573
36.32000 263.583
36.49000 246.083
36.66000 253.213
36.83000 251.636
37.00000 274.725
37.17000 255.736
37.34000 242.462
37.51000 245.905
37.68000 233.285
37.85000 245.997
38.02000 239.324
38.19000 259.233
38.36000 307.917
38.53000 433.885
38.70000 507.649
38.87000 388.667
39.04000 257.376
39.21000 233.565
39.38000 221.276
39.55000 232.153
39.72000 210.113
39.89000 219.369
40.06000 223.828
40.23000 215.409
40.40000 214.112
40.57000 209.454
40.74000 219.134
40.91000 203.083
41.08000 196.714
41.25000 201.864
41.42000 193.742
41.59000 208.359
41.76000 199.015
41.93000 204.903
42.10000 193.765
42.27000 200.477
42.44000 208.125
42.61000 202.017
42.78000 199.014
42.95000 200.765
43.12000 206.316
43.29000 200.486
43.46000 197.125
43.63000 198.401
43.80000 189.022
43.97000 190.132
44.14000 189.077
44.31000 211.592
44.48000 223.779
44.65000 278.779
44.82000 410.195
44.99000 441.968
45.16000 357.539
45.33000 281.932
45.50000 240.095
45.67000 207.683
45.84000 194.949
46.01000 190.672
46.18000 170.438
46.35000 180.351
46.52000 161.808
46.69000 167.708
46.86000 176.662
47.03000 168.772
47.20000 158.271
47.37000 164.505
47.54000 164.824
47.71000 162.594
47.88000 151.424
48.05000 156.395
48.22000 157.964
48.39000 155.561
48.56000 157.875
48.73000 172.784
48.90000 166.194
49.07000 154.653
49.24000 154.386
49.41000 151.035
49.58000 143.640
49.75000 159.533
49.92000 154.393
50.09000 156.425
50.26000 178.514
50.43000 206.992
50.60000 238.497
50.77000 215.886
50.94000 178.010
51.11000 162.350
51.28000 149.972
51.45000 147.181
51.62000 143.271
51.79000 144.871
51.96000 132.426
52.13000 132.419
52.30000 141.289
52.47000 141.516
52.64000 139.749
52.81000 144.521
52.98000 132.596
53.15000 142.373
53.32000 152.840
53.49000 153.810
53.66000 145.591
53.83000 142.498
54.00000 140.475
54.17000 143.053
54.34000 144.888
54.51000 144.651
54.68000 136.222
54.85000 132.794
55.02000 127.950
55.19000 146.844
55.36000 194.399
55.53000 284.932
55.70000 414.185
55.87000 483.424
56.04000 392.412
56.21000 243.266
56.38000 180.813
56.55000 147.545
56.72000 141.384
56.89000 120.454
57.06000 129.776
57.23000 115.615
57.40000 125.500
57.57000 117.421
57.74000 119.027
57.91000 114.953
58.08000 121.548
58.25000 123.208
58.42000 114.669
58.59000 118.973
58.76000 120.065
58.93000 120.946
59.10000 117.150
59.27000 118.184
59.44000 108.231
59.61000 114.727
59.78000 111.492
59.95000 111.886
60.12000 122.160
60.29000 107.669
60.46000 112.542
60.63000 114.853
60.80000 118.929
60.97000 123.110
61.14000 128.111
61.31000 132.087
61.48000 145.441
61.65000 347.873
61.82000 218.121
61.99000 130.338
62.16000 141.254
62.33000 127.310
62.50000 139.371
62.67000 129.428
62.84000 126.272
63.01000 137.076
63.18000 131.602
63.35000 142.215
63.52000 127.436
63.69000 139.758
63.86000 152.253
64.03000 149.460
64.20000 153.598
64.37000 149.622
64.54000 173.103
64.71000 181.636
64.88000 199.313
65.05000 238.710
65.22000 304.713
65.39000 379.791
65.56000 499.372
65.73000 1541.082
65.90000 2583.223
66.07000 604.047
66.24000 486.351
66.41000 786.884
66.58000 442.704
66.75000 387.774
66.92000 383.960
67.09000 432.241
67.26000 456.535
67.43000 467.876
67.60000 493.044
67.77000 513.555
67.94000 571.775
68.11000 585.786
68.28000 665.242
68.45000 746.517
68.62000 1099.151
68.79000 2146.675
68.96000 16267.025
69.13000 60808.551
69.30000 32101.646
69.47000 7077.609
69.64000 1068.897
69.81000 669.424
69.98000 535.742
70.00000 533.387