File: XRD/XRD/07-10-2025 Dep 6/XY Data/BTO_Mapping_Theta2Theta_07-10-2025_001_01_0-000_0-000.xy
20.00000 473.711
20.17000 465.723
20.34000 448.509
20.51000 463.491
20.68000 465.184
20.85000 465.350
21.02000 473.289
21.19000 456.165
21.36000 447.942
21.53000 472.531
21.70000 455.874
21.87000 490.396
22.04000 513.259
22.21000 511.650
22.38000 475.405
22.55000 447.731
22.72000 441.271
22.89000 421.040
23.06000 428.131
23.23000 434.719
23.40000 427.575
23.57000 420.501
23.74000 451.456
23.91000 497.062
24.08000 490.305
24.25000 441.705
24.42000 418.320
24.59000 425.874
24.76000 401.233
24.93000 397.304
25.10000 397.606
25.27000 400.593
25.44000 396.217
25.61000 381.813
25.78000 385.041
25.95000 379.543
26.12000 390.458
26.29000 374.883
26.46000 375.406
26.63000 368.170
26.80000 391.236
26.97000 382.910
27.14000 379.294
27.31000 351.941
27.48000 385.620
27.65000 380.290
27.82000 391.217
27.99000 365.719
28.16000 364.438
28.33000 348.974
28.50000 350.344
28.67000 360.457
28.84000 344.063
29.01000 366.479
29.18000 339.851
29.35000 355.998
29.52000 343.562
29.69000 354.521
29.86000 390.560
30.03000 371.861
30.20000 364.341
30.37000 349.823
30.54000 360.768
30.71000 374.063
30.88000 373.667
31.05000 480.143
31.22000 808.837
31.39000 1135.782
31.56000 791.628
31.73000 447.809
31.90000 367.307
32.07000 341.539
32.24000 329.703
32.41000 319.649
32.58000 305.744
32.75000 320.717
32.92000 511.248
33.09000 389.839
33.26000 307.000
33.43000 302.602
33.60000 298.152
33.77000 299.700
33.94000 301.290
34.11000 306.241
34.28000 327.822
34.45000 335.728
34.62000 317.950
34.79000 283.756
34.96000 274.488
35.13000 278.037
35.30000 258.268
35.47000 255.900
35.64000 254.479
35.81000 259.410
35.98000 259.979
36.15000 264.100
36.32000 243.937
36.49000 256.757
36.66000 256.778
36.83000 259.776
37.00000 281.294
37.17000 262.378
37.34000 252.128
37.51000 255.510
37.68000 242.793
37.85000 250.202
38.02000 239.303
38.19000 256.989
38.36000 301.499
38.53000 529.665
38.70000 958.236
38.87000 701.286
39.04000 310.325
39.21000 244.893
39.38000 226.073
39.55000 246.521
39.72000 229.676
39.89000 227.858
40.06000 219.647
40.23000 227.091
40.40000 232.553
40.57000 208.270
40.74000 214.546
40.91000 212.936
41.08000 204.428
41.25000 197.115
41.42000 196.288
41.59000 202.167
41.76000 209.997
41.93000 213.599
42.10000 220.124
42.27000 201.207
42.44000 193.156
42.61000 211.307
42.78000 190.233
42.95000 194.801
43.12000 191.397
43.29000 192.978
43.46000 195.614
43.63000 198.533
43.80000 195.047
43.97000 199.074
44.14000 180.734
44.31000 203.674
44.48000 216.179
44.65000 219.802
44.82000 238.903
44.99000 246.511
45.16000 251.053
45.33000 215.323
45.50000 204.941
45.67000 203.980
45.84000 192.506
46.01000 178.081
46.18000 177.127
46.35000 178.727
46.52000 176.094
46.69000 171.418
46.86000 167.879
47.03000 176.076
47.20000 171.373
47.37000 174.171
47.54000 165.336
47.71000 166.900
47.88000 148.497
48.05000 154.626
48.22000 155.747
48.39000 152.508
48.56000 160.221
48.73000 151.540
48.90000 158.006
49.07000 155.046
49.24000 151.567
49.41000 155.008
49.58000 145.188
49.75000 144.081
49.92000 151.350
50.09000 145.541
50.26000 152.255
50.43000 155.525
50.60000 163.242
50.77000 158.814
50.94000 158.546
51.11000 141.154
51.28000 153.628
51.45000 141.186
51.62000 138.792
51.79000 127.590
51.96000 132.082
52.13000 142.219
52.30000 142.040
52.47000 133.659
52.64000 144.730
52.81000 142.654
52.98000 144.824
53.15000 146.506
53.32000 152.097
53.49000 151.410
53.66000 145.699
53.83000 138.276
54.00000 135.667
54.17000 141.163
54.34000 144.628
54.51000 136.392
54.68000 143.564
54.85000 140.126
55.02000 145.561
55.19000 145.767
55.36000 163.029
55.53000 200.955
55.70000 332.413
55.87000 534.155
56.04000 535.178
56.21000 344.939
56.38000 203.696
56.55000 150.091
56.72000 136.521
56.89000 128.161
57.06000 131.931
57.23000 129.745
57.40000 121.427
57.57000 120.525
57.74000 122.925
57.91000 114.568
58.08000 126.355
58.25000 118.648
58.42000 116.793
58.59000 119.148
58.76000 119.466
58.93000 117.085
59.10000 112.508
59.27000 114.584
59.44000 110.539
59.61000 113.339
59.78000 113.020
59.95000 121.984
60.12000 114.266
60.29000 111.795
60.46000 112.775
60.63000 114.276
60.80000 117.663
60.97000 116.924
61.14000 124.412
61.31000 123.920
61.48000 135.095
61.65000 281.316
61.82000 183.844
61.99000 122.054
62.16000 130.461
62.33000 130.299
62.50000 130.284
62.67000 132.857
62.84000 130.720
63.01000 138.323
63.18000 128.179
63.35000 126.020
63.52000 132.451
63.69000 132.408
63.86000 154.825
64.03000 143.430
64.20000 153.065
64.37000 153.097
64.54000 160.848
64.71000 164.693
64.88000 183.166
65.05000 175.525
65.22000 213.404
65.39000 257.685
65.56000 320.567
65.73000 1029.605
65.90000 1913.309
66.07000 477.816
66.24000 399.072
66.41000 614.655
66.58000 397.074
66.75000 349.390
66.92000 356.384
67.09000 372.901
67.26000 401.481
67.43000 400.440
67.60000 427.427
67.77000 441.075
67.94000 470.529
68.11000 513.020
68.28000 573.257
68.45000 632.862
68.62000 889.827
68.79000 1572.956
68.96000 9651.257
69.13000 43609.363
69.30000 23499.367
69.47000 5548.665
69.64000 871.513
69.81000 626.119
69.98000 479.746
70.00000 482.716