File: XRD/XRD/07-10-2025 Dep 6/XY Data/BTO_Mapping_Theta2Theta_07-10-2025_001_47_-2-091_-19-890.xy
20.00000 492.876
20.17000 478.101
20.34000 472.030
20.51000 471.441
20.68000 474.048
20.85000 459.462
21.02000 452.102
21.19000 465.756
21.36000 451.612
21.53000 452.007
21.70000 462.085
21.87000 496.238
22.04000 538.244
22.21000 512.139
22.38000 479.489
22.55000 437.253
22.72000 431.753
22.89000 421.781
23.06000 423.199
23.23000 412.994
23.40000 445.640
23.57000 430.423
23.74000 453.895
23.91000 479.576
24.08000 482.770
24.25000 431.957
24.42000 397.283
24.59000 419.560
24.76000 396.065
24.93000 419.951
25.10000 396.855
25.27000 407.852
25.44000 395.286
25.61000 390.785
25.78000 402.449
25.95000 380.827
26.12000 379.033
26.29000 388.613
26.46000 380.686
26.63000 365.829
26.80000 375.376
26.97000 360.591
27.14000 369.729
27.31000 368.731
27.48000 359.296
27.65000 375.648
27.82000 370.697
27.99000 366.192
28.16000 366.204
28.33000 347.905
28.50000 354.012
28.67000 357.191
28.84000 352.545
29.01000 335.576
29.18000 345.539
29.35000 354.220
29.52000 345.055
29.69000 338.433
29.86000 355.652
30.03000 388.040
30.20000 358.189
30.37000 336.599
30.54000 356.736
30.71000 338.877
30.88000 376.503
31.05000 486.359
31.22000 836.148
31.39000 1143.816
31.56000 743.250
31.73000 434.854
31.90000 366.934
32.07000 342.091
32.24000 324.249
32.41000 325.900
32.58000 322.540
32.75000 331.295
32.92000 474.023
33.09000 409.921
33.26000 302.656
33.43000 286.735
33.60000 278.892
33.77000 297.846
33.94000 289.396
34.11000 310.873
34.28000 319.277
34.45000 325.543
34.62000 298.496
34.79000 273.415
34.96000 274.502
35.13000 265.395
35.30000 265.834
35.47000 257.764
35.64000 263.995
35.81000 259.454
35.98000 261.764
36.15000 262.758
36.32000 242.110
36.49000 255.248
36.66000 245.468
36.83000 246.848
37.00000 276.334
37.17000 274.722
37.34000 271.363
37.51000 241.543
37.68000 234.389
37.85000 244.986
38.02000 237.051
38.19000 266.245
38.36000 318.946
38.53000 635.177
38.70000 1057.574
38.87000 765.662
39.04000 344.183
39.21000 253.537
39.38000 237.491
39.55000 225.734
39.72000 232.069
39.89000 243.122
40.06000 230.011
40.23000 226.871
40.40000 218.834
40.57000 212.787
40.74000 215.993
40.91000 206.865
41.08000 202.714
41.25000 204.059
41.42000 211.729
41.59000 200.521
41.76000 203.638
41.93000 204.084
42.10000 224.312
42.27000 216.673
42.44000 211.542
42.61000 213.322
42.78000 194.466
42.95000 202.407
43.12000 187.820
43.29000 204.008
43.46000 191.106
43.63000 190.158
43.80000 175.403
43.97000 191.795
44.14000 189.299
44.31000 186.918
44.48000 206.419
44.65000 205.312
44.82000 230.738
44.99000 274.148
45.16000 254.483
45.33000 215.655
45.50000 215.484
45.67000 193.919
45.84000 201.892
46.01000 185.837
46.18000 181.574
46.35000 169.690
46.52000 175.431
46.69000 178.224
46.86000 175.301
47.03000 177.591
47.20000 154.936
47.37000 166.642
47.54000 160.607
47.71000 153.116
47.88000 168.171
48.05000 158.616
48.22000 163.120
48.39000 158.227
48.56000 154.671
48.73000 155.929
48.90000 149.040
49.07000 149.505
49.24000 156.844
49.41000 160.504
49.58000 154.230
49.75000 140.213
49.92000 157.634
50.09000 143.985
50.26000 154.284
50.43000 166.657
50.60000 178.824
50.77000 163.117
50.94000 152.309
51.11000 155.115
51.28000 144.741
51.45000 148.831
51.62000 151.484
51.79000 154.217
51.96000 135.653
52.13000 141.793
52.30000 134.644
52.47000 137.953
52.64000 132.623
52.81000 142.185
52.98000 156.717
53.15000 141.915
53.32000 143.500
53.49000 159.445
53.66000 143.970
53.83000 148.202
54.00000 144.648
54.17000 145.773
54.34000 126.283
54.51000 143.042
54.68000 137.174
54.85000 138.623
55.02000 135.322
55.19000 142.749
55.36000 160.503
55.53000 217.089
55.70000 373.396
55.87000 612.735
56.04000 584.315
56.21000 354.757
56.38000 209.586
56.55000 147.368
56.72000 136.559
56.89000 123.266
57.06000 126.047
57.23000 119.578
57.40000 126.709
57.57000 128.629
57.74000 123.950
57.91000 122.570
58.08000 115.041
58.25000 127.586
58.42000 114.240
58.59000 120.105
58.76000 120.336
58.93000 117.650
59.10000 122.080
59.27000 110.229
59.44000 122.244
59.61000 111.704
59.78000 121.896
59.95000 112.899
60.12000 124.759
60.29000 114.553
60.46000 120.879
60.63000 118.968
60.80000 115.970
60.97000 122.126
61.14000 124.289
61.31000 122.363
61.48000 137.796
61.65000 274.364
61.82000 191.871
61.99000 119.646
62.16000 125.591
62.33000 129.397
62.50000 122.553
62.67000 125.908
62.84000 129.650
63.01000 129.177
63.18000 130.897
63.35000 128.411
63.52000 140.771
63.69000 135.583
63.86000 142.858
64.03000 138.814
64.20000 146.728
64.37000 150.800
64.54000 159.332
64.71000 168.478
64.88000 159.922
65.05000 188.950
65.22000 204.535
65.39000 246.794
65.56000 318.573
65.73000 998.615
65.90000 1905.560
66.07000 498.614
66.24000 385.916
66.41000 629.581
66.58000 395.703
66.75000 356.314
66.92000 362.840
67.09000 390.786
67.26000 389.879
67.43000 404.814
67.60000 433.942
67.77000 432.405
67.94000 486.177
68.11000 507.902
68.28000 561.943
68.45000 641.035
68.62000 867.990
68.79000 1549.216
68.96000 9232.598
69.13000 43088.938
69.30000 23545.975
69.47000 5711.947
69.64000 898.061
69.81000 605.532
69.98000 499.464
70.00000 496.323