File: XRD/XRD/07-10-2025 Dep 6/XY Data/BTO_Mapping_Theta2Theta_07-10-2025_001_44_-15-000_-25-981.xy
20.00000 477.172
20.17000 476.546
20.34000 457.146
20.51000 453.483
20.68000 457.432
20.85000 466.152
21.02000 476.567
21.19000 471.958
21.36000 461.586
21.53000 480.199
21.70000 473.686
21.87000 537.306
22.04000 588.523
22.21000 527.758
22.38000 461.705
22.55000 451.801
22.72000 438.626
22.89000 444.028
23.06000 435.504
23.23000 418.406
23.40000 429.046
23.57000 426.307
23.74000 445.120
23.91000 440.891
24.08000 430.948
24.25000 419.770
24.42000 417.128
24.59000 402.158
24.76000 413.607
24.93000 406.175
25.10000 382.774
25.27000 379.509
25.44000 405.305
25.61000 380.194
25.78000 386.589
25.95000 399.336
26.12000 386.772
26.29000 371.755
26.46000 376.641
26.63000 359.831
26.80000 374.307
26.97000 369.321
27.14000 371.587
27.31000 371.033
27.48000 378.994
27.65000 372.398
27.82000 350.145
27.99000 374.193
28.16000 355.249
28.33000 373.854
28.50000 351.931
28.67000 355.752
28.84000 351.842
29.01000 350.429
29.18000 347.094
29.35000 344.478
29.52000 348.881
29.69000 363.838
29.86000 394.947
30.03000 431.347
30.20000 400.917
30.37000 361.582
30.54000 368.417
30.71000 379.357
30.88000 427.937
31.05000 712.910
31.22000 1716.917
31.39000 2247.852
31.56000 1093.800
31.73000 468.821
31.90000 375.295
32.07000 344.671
32.24000 323.348
32.41000 320.922
32.58000 316.013
32.75000 312.032
32.92000 484.842
33.09000 419.137
33.26000 308.388
33.43000 276.212
33.60000 295.156
33.77000 284.745
33.94000 301.562
34.11000 307.634
34.28000 302.647
34.45000 313.681
34.62000 300.195
34.79000 297.218
34.96000 276.158
35.13000 265.324
35.30000 270.735
35.47000 261.981
35.64000 262.404
35.81000 257.759
35.98000 259.330
36.15000 267.201
36.32000 251.206
36.49000 265.319
36.66000 276.853
36.83000 266.882
37.00000 272.888
37.17000 269.560
37.34000 257.231
37.51000 248.660
37.68000 259.713
37.85000 245.704
38.02000 253.425
38.19000 269.060
38.36000 382.074
38.53000 678.483
38.70000 951.681
38.87000 657.670
39.04000 327.652
39.21000 251.671
39.38000 248.265
39.55000 219.318
39.72000 223.024
39.89000 222.842
40.06000 216.054
40.23000 218.235
40.40000 229.724
40.57000 221.950
40.74000 218.011
40.91000 218.136
41.08000 220.393
41.25000 201.844
41.42000 216.103
41.59000 206.966
41.76000 200.269
41.93000 208.259
42.10000 203.657
42.27000 198.730
42.44000 201.762
42.61000 197.543
42.78000 200.814
42.95000 198.045
43.12000 194.429
43.29000 191.580
43.46000 200.852
43.63000 188.176
43.80000 187.737
43.97000 191.439
44.14000 198.240
44.31000 202.725
44.48000 202.330
44.65000 218.363
44.82000 259.286
44.99000 286.331
45.16000 269.132
45.33000 234.807
45.50000 214.619
45.67000 216.327
45.84000 183.825
46.01000 174.821
46.18000 184.184
46.35000 178.138
46.52000 167.173
46.69000 170.233
46.86000 180.195
47.03000 188.439
47.20000 148.769
47.37000 160.884
47.54000 170.103
47.71000 151.807
47.88000 148.915
48.05000 156.979
48.22000 159.958
48.39000 156.001
48.56000 152.401
48.73000 158.162
48.90000 152.665
49.07000 155.169
49.24000 155.972
49.41000 153.266
49.58000 149.734
49.75000 165.136
49.92000 160.144
50.09000 156.092
50.26000 175.729
50.43000 188.746
50.60000 209.638
50.77000 189.380
50.94000 176.021
51.11000 158.061
51.28000 141.881
51.45000 136.985
51.62000 136.706
51.79000 142.241
51.96000 136.733
52.13000 150.378
52.30000 142.230
52.47000 130.876
52.64000 139.191
52.81000 135.062
52.98000 150.161
53.15000 146.636
53.32000 163.609
53.49000 157.878
53.66000 134.023
53.83000 142.501
54.00000 132.493
54.17000 130.866
54.34000 130.396
54.51000 131.083
54.68000 134.604
54.85000 137.811
55.02000 139.566
55.19000 158.147
55.36000 188.022
55.53000 288.603
55.70000 501.317
55.87000 644.430
56.04000 486.317
56.21000 262.895
56.38000 171.751
56.55000 148.482
56.72000 121.226
56.89000 132.706
57.06000 129.365
57.23000 122.497
57.40000 128.322
57.57000 132.329
57.74000 127.279
57.91000 118.318
58.08000 120.785
58.25000 111.519
58.42000 113.449
58.59000 111.689
58.76000 109.301
58.93000 115.908
59.10000 121.621
59.27000 108.366
59.44000 117.552
59.61000 114.549
59.78000 121.936
59.95000 113.090
60.12000 115.966
60.29000 122.682
60.46000 115.781
60.63000 103.541
60.80000 108.897
60.97000 110.450
61.14000 125.260
61.31000 127.932
61.48000 139.081
61.65000 293.946
61.82000 194.752
61.99000 135.414
62.16000 130.049
62.33000 132.435
62.50000 126.839
62.67000 124.397
62.84000 120.552
63.01000 135.592
63.18000 130.680
63.35000 131.228
63.52000 120.251
63.69000 138.879
63.86000 136.594
64.03000 139.268
64.20000 148.969
64.37000 163.884
64.54000 161.217
64.71000 173.477
64.88000 191.855
65.05000 221.532
65.22000 250.530
65.39000 323.911
65.56000 391.267
65.73000 1166.828
65.90000 2133.609
66.07000 542.006
66.24000 416.787
66.41000 673.389
66.58000 433.138
66.75000 360.138
66.92000 372.420
67.09000 392.988
67.26000 393.168
67.43000 424.326
67.60000 452.158
67.77000 459.665
67.94000 504.684
68.11000 532.185
68.28000 588.504
68.45000 655.737
68.62000 913.721
68.79000 1691.563
68.96000 11107.204
69.13000 49344.707
69.30000 26527.084
69.47000 6249.770
69.64000 898.732
69.81000 607.492
69.98000 513.681
70.00000 500.969