File: XRD/XRD/07-10-2025 Dep 6/XY Data/BTO_Mapping_Theta2Theta_07-10-2025_001_25_-20-000_34-641.xy
20.00000 476.575
20.17000 474.973
20.34000 459.608
20.51000 452.599
20.68000 464.398
20.85000 459.134
21.02000 464.273
21.19000 465.689
21.36000 465.896
21.53000 454.865
21.70000 453.156
21.87000 490.232
22.04000 551.086
22.21000 531.259
22.38000 475.671
22.55000 452.394
22.72000 433.763
22.89000 437.832
23.06000 431.408
23.23000 425.476
23.40000 416.087
23.57000 421.006
23.74000 448.020
23.91000 465.318
24.08000 465.423
24.25000 429.534
24.42000 420.883
24.59000 404.945
24.76000 402.469
24.93000 388.990
25.10000 386.768
25.27000 403.238
25.44000 386.953
25.61000 389.866
25.78000 379.744
25.95000 368.159
26.12000 391.600
26.29000 371.653
26.46000 374.113
26.63000 370.290
26.80000 374.164
26.97000 373.184
27.14000 367.453
27.31000 350.215
27.48000 359.711
27.65000 353.158
27.82000 353.024
27.99000 359.642
28.16000 356.130
28.33000 365.247
28.50000 352.141
28.67000 345.983
28.84000 337.883
29.01000 349.391
29.18000 344.661
29.35000 346.896
29.52000 357.170
29.69000 356.734
29.86000 355.020
30.03000 376.941
30.20000 360.391
30.37000 372.882
30.54000 332.927
30.71000 369.602
30.88000 374.319
31.05000 455.179
31.22000 797.802
31.39000 1198.334
31.56000 865.596
31.73000 466.939
31.90000 374.610
32.07000 324.400
32.24000 342.926
32.41000 330.452
32.58000 316.715
32.75000 323.278
32.92000 505.134
33.09000 418.704
33.26000 302.366
33.43000 291.864
33.60000 289.961
33.77000 282.032
33.94000 304.738
34.11000 313.813
34.28000 315.903
34.45000 306.182
34.62000 308.475
34.79000 282.613
34.96000 268.377
35.13000 275.563
35.30000 259.280
35.47000 268.013
35.64000 258.741
35.81000 258.947
35.98000 264.077
36.15000 258.839
36.32000 246.117
36.49000 260.039
36.66000 250.209
36.83000 262.063
37.00000 261.365
37.17000 272.532
37.34000 259.255
37.51000 243.564
37.68000 262.298
37.85000 247.132
38.02000 245.953
38.19000 254.411
38.36000 291.662
38.53000 486.883
38.70000 890.904
38.87000 691.652
39.04000 317.967
39.21000 237.409
39.38000 215.673
39.55000 236.630
39.72000 237.663
39.89000 223.521
40.06000 223.387
40.23000 210.900
40.40000 216.067
40.57000 214.320
40.74000 204.670
40.91000 213.764
41.08000 207.173
41.25000 207.489
41.42000 217.017
41.59000 213.758
41.76000 201.416
41.93000 200.392
42.10000 199.301
42.27000 210.363
42.44000 208.462
42.61000 207.328
42.78000 195.074
42.95000 194.422
43.12000 203.587
43.29000 199.456
43.46000 212.871
43.63000 201.046
43.80000 188.247
43.97000 181.746
44.14000 180.823
44.31000 204.641
44.48000 198.760
44.65000 199.439
44.82000 237.440
44.99000 262.878
45.16000 263.370
45.33000 229.249
45.50000 208.384
45.67000 213.751
45.84000 180.267
46.01000 171.694
46.18000 183.023
46.35000 172.422
46.52000 173.803
46.69000 181.338
46.86000 162.396
47.03000 171.919
47.20000 173.344
47.37000 167.536
47.54000 156.284
47.71000 154.021
47.88000 164.903
48.05000 145.921
48.22000 152.474
48.39000 137.469
48.56000 163.303
48.73000 165.625
48.90000 152.603
49.07000 153.557
49.24000 140.675
49.41000 143.369
49.58000 146.325
49.75000 147.220
49.92000 137.435
50.09000 142.925
50.26000 152.058
50.43000 150.042
50.60000 161.816
50.77000 158.091
50.94000 156.485
51.11000 156.493
51.28000 145.588
51.45000 138.187
51.62000 150.751
51.79000 141.786
51.96000 134.646
52.13000 144.166
52.30000 143.109
52.47000 137.099
52.64000 142.182
52.81000 135.541
52.98000 138.099
53.15000 141.040
53.32000 153.807
53.49000 142.030
53.66000 141.442
53.83000 133.264
54.00000 138.433
54.17000 139.885
54.34000 135.524
54.51000 135.697
54.68000 143.750
54.85000 136.542
55.02000 144.162
55.19000 141.311
55.36000 152.787
55.53000 190.880
55.70000 313.680
55.87000 502.684
56.04000 550.550
56.21000 348.201
56.38000 196.818
56.55000 150.090
56.72000 137.419
56.89000 134.358
57.06000 121.964
57.23000 108.420
57.40000 127.897
57.57000 130.032
57.74000 126.124
57.91000 118.510
58.08000 116.880
58.25000 118.407
58.42000 112.686
58.59000 116.928
58.76000 114.268
58.93000 119.574
59.10000 121.910
59.27000 121.161
59.44000 119.940
59.61000 116.950
59.78000 124.980
59.95000 116.342
60.12000 104.610
60.29000 118.796
60.46000 107.490
60.63000 114.003
60.80000 115.511
60.97000 127.406
61.14000 110.411
61.31000 119.577
61.48000 127.559
61.65000 282.000
61.82000 186.824
61.99000 135.966
62.16000 125.453
62.33000 117.411
62.50000 122.366
62.67000 141.149
62.84000 125.403
63.01000 128.844
63.18000 132.925
63.35000 141.864
63.52000 137.358
63.69000 142.923
63.86000 145.762
64.03000 135.510
64.20000 149.044
64.37000 154.192
64.54000 165.533
64.71000 165.138
64.88000 168.749
65.05000 182.085
65.22000 224.400
65.39000 247.616
65.56000 322.171
65.73000 1067.733
65.90000 1905.223
66.07000 488.101
66.24000 387.332
66.41000 628.528
66.58000 421.754
66.75000 347.397
66.92000 373.510
67.09000 368.813
67.26000 393.563
67.43000 398.488
67.60000 434.263
67.77000 461.260
67.94000 503.074
68.11000 510.552
68.28000 556.123
68.45000 655.486
68.62000 905.837
68.79000 1641.274
68.96000 10309.438
69.13000 44199.105
69.30000 23465.432
69.47000 5438.304
69.64000 915.882
69.81000 613.374
69.98000 494.316
70.00000 484.109