File: XRD/XRD/07-10-2025 Dep 6/XY Data/BTO_Mapping_Theta2Theta_07-10-2025_001_08_27-406_12-202.xy
20.00000 475.926
20.17000 467.501
20.34000 474.134
20.51000 463.599
20.68000 470.143
20.85000 456.602
21.02000 472.089
21.19000 460.783
21.36000 457.140
21.53000 472.980
21.70000 462.179
21.87000 457.569
22.04000 488.399
22.21000 477.815
22.38000 449.659
22.55000 435.688
22.72000 449.387
22.89000 432.078
23.06000 450.842
23.23000 438.930
23.40000 434.054
23.57000 446.696
23.74000 454.518
23.91000 515.890
24.08000 498.067
24.25000 445.156
24.42000 436.197
24.59000 411.770
24.76000 400.782
24.93000 413.348
25.10000 413.277
25.27000 401.115
25.44000 400.955
25.61000 387.462
25.78000 407.449
25.95000 398.389
26.12000 384.557
26.29000 405.356
26.46000 382.411
26.63000 379.385
26.80000 368.394
26.97000 373.937
27.14000 376.982
27.31000 384.251
27.48000 374.897
27.65000 373.509
27.82000 361.414
27.99000 356.281
28.16000 363.552
28.33000 350.970
28.50000 370.884
28.67000 350.500
28.84000 341.331
29.01000 350.090
29.18000 366.948
29.35000 336.368
29.52000 347.580
29.69000 358.369
29.86000 374.501
30.03000 378.866
30.20000 366.395
30.37000 367.540
30.54000 354.330
30.71000 385.291
30.88000 411.339
31.05000 472.929
31.22000 713.438
31.39000 922.240
31.56000 694.967
31.73000 461.592
31.90000 390.125
32.07000 367.657
32.24000 343.482
32.41000 321.579
32.58000 332.395
32.75000 319.870
32.92000 510.517
33.09000 432.315
33.26000 282.559
33.43000 286.416
33.60000 287.826
33.77000 294.774
33.94000 293.874
34.11000 323.777
34.28000 309.429
34.45000 301.056
34.62000 292.442
34.79000 296.544
34.96000 273.605
35.13000 276.568
35.30000 268.741
35.47000 266.623
35.64000 249.366
35.81000 255.554
35.98000 246.093
36.15000 247.233
36.32000 245.288
36.49000 262.457
36.66000 255.667
36.83000 261.001
37.00000 267.451
37.17000 260.039
37.34000 247.299
37.51000 243.621
37.68000 259.592
37.85000 257.526
38.02000 264.327
38.19000 253.715
38.36000 288.414
38.53000 407.344
38.70000 574.758
38.87000 414.852
39.04000 280.548
39.21000 255.072
39.38000 231.718
39.55000 220.133
39.72000 233.700
39.89000 241.520
40.06000 218.400
40.23000 222.100
40.40000 219.823
40.57000 219.057
40.74000 226.244
40.91000 212.941
41.08000 214.260
41.25000 206.507
41.42000 211.607
41.59000 207.588
41.76000 197.113
41.93000 216.611
42.10000 214.437
42.27000 207.158
42.44000 204.295
42.61000 204.633
42.78000 200.615
42.95000 202.839
43.12000 198.120
43.29000 199.444
43.46000 201.245
43.63000 192.482
43.80000 197.743
43.97000 200.640
44.14000 190.674
44.31000 184.341
44.48000 192.554
44.65000 204.116
44.82000 204.926
44.99000 213.370
45.16000 210.745
45.33000 210.467
45.50000 191.202
45.67000 185.516
45.84000 190.806
46.01000 181.178
46.18000 181.634
46.35000 173.686
46.52000 179.558
46.69000 178.422
46.86000 170.712
47.03000 163.544
47.20000 167.191
47.37000 160.674
47.54000 154.735
47.71000 163.921
47.88000 147.781
48.05000 173.215
48.22000 155.996
48.39000 164.021
48.56000 157.958
48.73000 160.765
48.90000 168.419
49.07000 156.185
49.24000 153.952
49.41000 148.687
49.58000 152.750
49.75000 150.844
49.92000 146.837
50.09000 167.598
50.26000 147.269
50.43000 161.003
50.60000 161.274
50.77000 164.320
50.94000 158.838
51.11000 153.428
51.28000 144.290
51.45000 145.566
51.62000 153.315
51.79000 139.231
51.96000 140.584
52.13000 138.756
52.30000 137.607
52.47000 144.178
52.64000 142.084
52.81000 136.765
52.98000 148.385
53.15000 142.863
53.32000 138.923
53.49000 136.295
53.66000 135.935
53.83000 135.696
54.00000 135.340
54.17000 134.713
54.34000 135.874
54.51000 123.822
54.68000 132.307
54.85000 138.577
55.02000 138.103
55.19000 145.997
55.36000 160.621
55.53000 177.629
55.70000 210.661
55.87000 259.723
56.04000 247.303
56.21000 210.633
56.38000 166.516
56.55000 149.419
56.72000 142.073
56.89000 131.319
57.06000 121.299
57.23000 130.551
57.40000 116.614
57.57000 124.937
57.74000 128.286
57.91000 119.757
58.08000 120.485
58.25000 119.185
58.42000 117.834
58.59000 119.048
58.76000 125.077
58.93000 135.790
59.10000 118.638
59.27000 115.169
59.44000 115.535
59.61000 120.594
59.78000 120.093
59.95000 122.151
60.12000 111.821
60.29000 112.809
60.46000 116.533
60.63000 113.057
60.80000 119.646
60.97000 118.937
61.14000 121.582
61.31000 126.427
61.48000 124.722
61.65000 283.167
61.82000 202.825
61.99000 130.136
62.16000 114.097
62.33000 131.402
62.50000 120.352
62.67000 137.525
62.84000 124.960
63.01000 137.973
63.18000 138.517
63.35000 132.418
63.52000 148.757
63.69000 139.480
63.86000 148.550
64.03000 147.861
64.20000 144.756
64.37000 154.704
64.54000 164.143
64.71000 179.174
64.88000 170.067
65.05000 181.607
65.22000 220.458
65.39000 247.503
65.56000 326.632
65.73000 958.369
65.90000 1995.957
66.07000 529.964
66.24000 393.892
66.41000 651.820
66.58000 452.001
66.75000 365.863
66.92000 362.808
67.09000 375.986
67.26000 409.797
67.43000 439.865
67.60000 439.219
67.77000 465.900
67.94000 491.397
68.11000 539.707
68.28000 568.933
68.45000 653.136
68.62000 918.967
68.79000 1606.286
68.96000 8418.887
69.13000 45054.055
69.30000 25282.850
69.47000 6502.053
69.64000 926.013
69.81000 611.597
69.98000 511.623
70.00000 504.880