File: XRD/XRD/07-10-2025 Dep 6/XY Data/BTO_Mapping_Theta2Theta_07-10-2025_001_35_-19-563_-4-158.xy
20.00000 468.568
20.17000 479.623
20.34000 460.689
20.51000 452.618
20.68000 461.001
20.85000 462.999
21.02000 482.428
21.19000 470.568
21.36000 458.576
21.53000 471.141
21.70000 476.621
21.87000 513.504
22.04000 583.668
22.21000 561.228
22.38000 456.476
22.55000 441.360
22.72000 437.312
22.89000 437.658
23.06000 418.123
23.23000 432.613
23.40000 441.502
23.57000 421.626
23.74000 422.963
23.91000 430.851
24.08000 435.497
24.25000 426.727
24.42000 412.606
24.59000 401.874
24.76000 413.580
24.93000 381.472
25.10000 391.275
25.27000 399.986
25.44000 388.974
25.61000 391.661
25.78000 382.696
25.95000 384.581
26.12000 370.594
26.29000 381.316
26.46000 374.025
26.63000 379.434
26.80000 366.402
26.97000 386.261
27.14000 367.377
27.31000 376.135
27.48000 371.377
27.65000 373.149
27.82000 356.813
27.99000 367.994
28.16000 365.365
28.33000 377.775
28.50000 358.884
28.67000 345.257
28.84000 348.360
29.01000 363.536
29.18000 332.735
29.35000 352.064
29.52000 347.383
29.69000 360.712
29.86000 394.717
30.03000 413.736
30.20000 403.626
30.37000 394.140
30.54000 345.340
30.71000 388.579
30.88000 431.453
31.05000 694.900
31.22000 1685.829
31.39000 2374.194
31.56000 1138.642
31.73000 494.093
31.90000 356.307
32.07000 351.444
32.24000 332.051
32.41000 322.252
32.58000 312.902
32.75000 307.449
32.92000 514.629
33.09000 414.301
33.26000 299.105
33.43000 287.219
33.60000 290.138
33.77000 306.386
33.94000 279.743
34.11000 298.718
34.28000 289.182
34.45000 306.499
34.62000 293.452
34.79000 288.157
34.96000 271.492
35.13000 267.031
35.30000 266.071
35.47000 262.847
35.64000 255.014
35.81000 250.444
35.98000 259.335
36.15000 258.853
36.32000 243.778
36.49000 271.614
36.66000 242.000
36.83000 249.254
37.00000 257.566
37.17000 261.382
37.34000 255.282
37.51000 255.930
37.68000 252.955
37.85000 251.135
38.02000 247.152
38.19000 266.192
38.36000 350.354
38.53000 612.328
38.70000 841.125
38.87000 593.582
39.04000 296.385
39.21000 251.112
39.38000 216.753
39.55000 218.181
39.72000 231.047
39.89000 237.454
40.06000 214.839
40.23000 219.254
40.40000 222.132
40.57000 211.713
40.74000 219.883
40.91000 210.850
41.08000 205.260
41.25000 199.424
41.42000 207.051
41.59000 208.586
41.76000 205.837
41.93000 194.039
42.10000 193.192
42.27000 198.947
42.44000 197.564
42.61000 193.334
42.78000 193.141
42.95000 197.833
43.12000 199.194
43.29000 199.728
43.46000 186.153
43.63000 190.565
43.80000 182.556
43.97000 213.803
44.14000 190.517
44.31000 201.905
44.48000 195.153
44.65000 228.668
44.82000 249.411
44.99000 298.074
45.16000 286.994
45.33000 245.622
45.50000 217.492
45.67000 207.725
45.84000 188.327
46.01000 185.491
46.18000 171.740
46.35000 169.543
46.52000 175.750
46.69000 185.828
46.86000 169.642
47.03000 172.815
47.20000 163.411
47.37000 153.423
47.54000 165.480
47.71000 161.459
47.88000 159.682
48.05000 156.992
48.22000 170.070
48.39000 157.496
48.56000 162.313
48.73000 158.498
48.90000 156.997
49.07000 156.319
49.24000 147.415
49.41000 151.837
49.58000 152.856
49.75000 155.997
49.92000 146.176
50.09000 151.912
50.26000 174.780
50.43000 192.366
50.60000 202.238
50.77000 194.780
50.94000 166.234
51.11000 150.358
51.28000 155.885
51.45000 142.949
51.62000 147.373
51.79000 134.150
51.96000 140.628
52.13000 130.342
52.30000 139.860
52.47000 134.683
52.64000 137.415
52.81000 120.085
52.98000 145.256
53.15000 142.411
53.32000 156.749
53.49000 147.319
53.66000 141.885
53.83000 148.629
54.00000 132.060
54.17000 139.548
54.34000 135.908
54.51000 129.056
54.68000 137.296
54.85000 137.857
55.02000 141.845
55.19000 153.699
55.36000 169.015
55.53000 263.998
55.70000 451.015
55.87000 574.297
56.04000 457.912
56.21000 282.356
56.38000 186.256
56.55000 132.014
56.72000 131.852
56.89000 129.260
57.06000 125.451
57.23000 125.536
57.40000 123.229
57.57000 124.708
57.74000 130.900
57.91000 122.336
58.08000 126.547
58.25000 119.463
58.42000 121.784
58.59000 117.778
58.76000 124.530
58.93000 112.441
59.10000 113.829
59.27000 113.589
59.44000 123.736
59.61000 116.290
59.78000 115.634
59.95000 113.112
60.12000 117.637
60.29000 112.463
60.46000 113.135
60.63000 116.044
60.80000 117.509
60.97000 122.850
61.14000 112.976
61.31000 122.360
61.48000 137.983
61.65000 314.643
61.82000 196.077
61.99000 124.072
62.16000 127.797
62.33000 132.938
62.50000 129.793
62.67000 138.924
62.84000 125.999
63.01000 128.478
63.18000 132.363
63.35000 135.831
63.52000 123.025
63.69000 131.252
63.86000 140.261
64.03000 144.000
64.20000 143.616
64.37000 151.293
64.54000 155.967
64.71000 166.727
64.88000 172.673
65.05000 216.702
65.22000 273.256
65.39000 317.376
65.56000 425.716
65.73000 1270.567
65.90000 2186.954
66.07000 531.012
66.24000 429.839
66.41000 681.318
66.58000 452.136
66.75000 365.849
66.92000 373.735
67.09000 395.418
67.26000 414.608
67.43000 425.932
67.60000 441.261
67.77000 477.253
67.94000 469.428
68.11000 538.630
68.28000 595.209
68.45000 665.776
68.62000 958.271
68.79000 1752.956
68.96000 11850.195
69.13000 50044.688
69.30000 26720.965
69.47000 6177.937
69.64000 965.659
69.81000 629.578
69.98000 516.436
70.00000 496.878