File: XRD/XRD/07-10-2025 Dep 6/XY Data/BTO_Mapping_Theta2Theta_07-10-2025_001_36_-29-344_-6-237.xy
20.00000 491.185
20.17000 460.970
20.34000 459.158
20.51000 449.932
20.68000 467.133
20.85000 480.591
21.02000 469.600
21.19000 470.934
21.36000 485.062
21.53000 468.428
21.70000 521.910
21.87000 648.324
22.04000 699.288
22.21000 585.166
22.38000 460.849
22.55000 467.837
22.72000 433.693
22.89000 433.851
23.06000 424.191
23.23000 427.527
23.40000 421.861
23.57000 410.991
23.74000 406.054
23.91000 404.991
24.08000 398.355
24.25000 428.114
24.42000 409.274
24.59000 391.442
24.76000 394.711
24.93000 405.400
25.10000 394.104
25.27000 384.816
25.44000 377.412
25.61000 392.735
25.78000 388.915
25.95000 400.385
26.12000 390.117
26.29000 376.059
26.46000 387.653
26.63000 367.482
26.80000 373.458
26.97000 373.763
27.14000 360.677
27.31000 368.866
27.48000 351.705
27.65000 355.375
27.82000 381.298
27.99000 364.630
28.16000 372.336
28.33000 357.617
28.50000 354.730
28.67000 370.923
28.84000 343.143
29.01000 351.327
29.18000 347.395
29.35000 351.282
29.52000 339.620
29.69000 365.442
29.86000 425.550
30.03000 441.956
30.20000 410.606
30.37000 395.430
30.54000 384.793
30.71000 409.397
30.88000 458.950
31.05000 876.502
31.22000 2227.990
31.39000 2839.496
31.56000 1316.781
31.73000 513.535
31.90000 369.552
32.07000 347.530
32.24000 331.189
32.41000 322.958
32.58000 313.633
32.75000 308.780
32.92000 544.807
33.09000 417.909
33.26000 282.954
33.43000 284.169
33.60000 303.043
33.77000 277.660
33.94000 283.923
34.11000 284.935
34.28000 279.895
34.45000 274.973
34.62000 269.419
34.79000 272.913
34.96000 269.417
35.13000 277.123
35.30000 251.467
35.47000 265.963
35.64000 251.650
35.81000 266.117
35.98000 264.312
36.15000 253.903
36.32000 252.147
36.49000 250.676
36.66000 275.817
36.83000 252.454
37.00000 248.481
37.17000 253.893
37.34000 253.568
37.51000 251.316
37.68000 244.109
37.85000 238.726
38.02000 246.315
38.19000 289.057
38.36000 314.016
38.53000 492.023
38.70000 553.624
38.87000 414.209
39.04000 270.766
39.21000 233.131
39.38000 226.732
39.55000 248.000
39.72000 232.093
39.89000 229.143
40.06000 225.067
40.23000 225.543
40.40000 209.335
40.57000 211.758
40.74000 209.594
40.91000 214.212
41.08000 235.772
41.25000 219.963
41.42000 196.897
41.59000 212.203
41.76000 207.149
41.93000 198.288
42.10000 192.247
42.27000 187.588
42.44000 197.194
42.61000 212.211
42.78000 199.047
42.95000 203.815
43.12000 194.223
43.29000 191.118
43.46000 204.337
43.63000 198.571
43.80000 189.462
43.97000 197.934
44.14000 191.479
44.31000 207.288
44.48000 228.953
44.65000 265.375
44.82000 365.927
44.99000 423.611
45.16000 347.852
45.33000 278.084
45.50000 219.208
45.67000 196.413
45.84000 199.317
46.01000 188.116
46.18000 178.975
46.35000 173.062
46.52000 172.436
46.69000 174.123
46.86000 172.489
47.03000 162.733
47.20000 159.470
47.37000 155.215
47.54000 154.434
47.71000 160.027
47.88000 155.991
48.05000 150.641
48.22000 168.420
48.39000 153.436
48.56000 149.874
48.73000 154.162
48.90000 155.128
49.07000 158.932
49.24000 153.224
49.41000 149.403
49.58000 144.035
49.75000 154.708
49.92000 162.920
50.09000 153.305
50.26000 182.207
50.43000 211.255
50.60000 243.372
50.77000 214.024
50.94000 179.898
51.11000 146.875
51.28000 141.148
51.45000 136.457
51.62000 139.294
51.79000 142.050
51.96000 147.744
52.13000 139.663
52.30000 143.133
52.47000 137.349
52.64000 131.469
52.81000 145.360
52.98000 139.760
53.15000 148.162
53.32000 143.619
53.49000 147.187
53.66000 146.084
53.83000 140.375
54.00000 137.990
54.17000 135.151
54.34000 136.030
54.51000 127.373
54.68000 139.457
54.85000 130.003
55.02000 156.392
55.19000 144.043
55.36000 196.197
55.53000 294.630
55.70000 459.580
55.87000 535.945
56.04000 417.447
56.21000 257.003
56.38000 178.476
56.55000 140.670
56.72000 127.735
56.89000 126.014
57.06000 132.021
57.23000 130.543
57.40000 130.110
57.57000 119.055
57.74000 122.182
57.91000 121.774
58.08000 124.806
58.25000 122.116
58.42000 117.614
58.59000 120.833
58.76000 117.650
58.93000 118.926
59.10000 110.601
59.27000 125.288
59.44000 116.852
59.61000 125.211
59.78000 114.618
59.95000 118.132
60.12000 116.683
60.29000 116.108
60.46000 113.694
60.63000 116.518
60.80000 115.935
60.97000 112.070
61.14000 120.013
61.31000 122.528
61.48000 139.795
61.65000 325.567
61.82000 205.333
61.99000 127.880
62.16000 135.804
62.33000 123.992
62.50000 132.942
62.67000 130.779
62.84000 133.879
63.01000 131.426
63.18000 135.392
63.35000 142.485
63.52000 137.713
63.69000 143.125
63.86000 135.087
64.03000 151.479
64.20000 146.683
64.37000 159.120
64.54000 166.324
64.71000 186.795
64.88000 198.973
65.05000 239.776
65.22000 307.078
65.39000 377.154
65.56000 469.997
65.73000 1414.348
65.90000 2508.708
66.07000 575.782
66.24000 465.844
66.41000 745.550
66.58000 471.587
66.75000 400.446
66.92000 404.054
67.09000 415.894
67.26000 417.359
67.43000 449.242
67.60000 470.962
67.77000 487.637
67.94000 526.719
68.11000 581.738
68.28000 612.349
68.45000 721.047
68.62000 1036.942
68.79000 2010.992
68.96000 14457.800
69.13000 57779.918
69.30000 30676.406
69.47000 7106.280
69.64000 1024.805
69.81000 671.221
69.98000 532.861
70.00000 526.940