File: XRD/XRD/07-10-2025 Dep 6/XY Data/BTO_Mapping_Theta2Theta_07-10-2025_001_29_-32-361_23-511.xy
20.00000 471.967
20.17000 468.139
20.34000 469.270
20.51000 459.984
20.68000 471.548
20.85000 463.855
21.02000 461.225
21.19000 466.916
21.36000 454.050
21.53000 476.574
21.70000 460.739
21.87000 516.542
22.04000 584.948
22.21000 542.588
22.38000 503.910
22.55000 451.791
22.72000 428.494
22.89000 419.826
23.06000 438.773
23.23000 431.488
23.40000 442.228
23.57000 418.638
23.74000 433.743
23.91000 435.665
24.08000 449.079
24.25000 415.135
24.42000 395.292
24.59000 411.867
24.76000 396.473
24.93000 395.328
25.10000 397.448
25.27000 394.940
25.44000 401.361
25.61000 388.307
25.78000 394.004
25.95000 386.879
26.12000 380.259
26.29000 377.217
26.46000 379.164
26.63000 358.757
26.80000 366.321
26.97000 374.464
27.14000 380.866
27.31000 367.852
27.48000 374.767
27.65000 367.836
27.82000 357.745
27.99000 355.496
28.16000 363.157
28.33000 355.234
28.50000 335.055
28.67000 355.542
28.84000 369.446
29.01000 344.662
29.18000 339.324
29.35000 345.624
29.52000 335.045
29.69000 346.057
29.86000 377.962
30.03000 401.061
30.20000 383.038
30.37000 371.052
30.54000 364.640
30.71000 349.673
30.88000 402.240
31.05000 582.589
31.22000 1395.209
31.39000 1988.550
31.56000 1030.246
31.73000 470.286
31.90000 370.151
32.07000 335.657
32.24000 331.382
32.41000 319.583
32.58000 308.375
32.75000 324.397
32.92000 509.524
33.09000 408.251
33.26000 285.593
33.43000 291.957
33.60000 279.965
33.77000 277.124
33.94000 302.522
34.11000 301.702
34.28000 310.272
34.45000 292.137
34.62000 286.399
34.79000 274.980
34.96000 270.385
35.13000 271.028
35.30000 265.680
35.47000 265.274
35.64000 260.823
35.81000 262.774
35.98000 255.503
36.15000 250.514
36.32000 263.193
36.49000 243.986
36.66000 256.117
36.83000 270.894
37.00000 264.009
37.17000 269.552
37.34000 258.230
37.51000 239.468
37.68000 254.582
37.85000 243.358
38.02000 249.597
38.19000 254.301
38.36000 334.495
38.53000 584.263
38.70000 877.184
38.87000 619.086
39.04000 303.364
39.21000 236.463
39.38000 218.954
39.55000 212.603
39.72000 228.696
39.89000 232.802
40.06000 222.801
40.23000 217.903
40.40000 226.028
40.57000 207.720
40.74000 213.231
40.91000 203.235
41.08000 210.788
41.25000 212.324
41.42000 216.939
41.59000 205.938
41.76000 193.504
41.93000 199.639
42.10000 205.815
42.27000 206.763
42.44000 199.964
42.61000 197.438
42.78000 197.197
42.95000 196.003
43.12000 195.607
43.29000 192.084
43.46000 189.408
43.63000 201.591
43.80000 184.617
43.97000 189.408
44.14000 183.674
44.31000 178.650
44.48000 197.286
44.65000 206.874
44.82000 245.277
44.99000 284.109
45.16000 275.331
45.33000 250.830
45.50000 223.065
45.67000 197.987
45.84000 193.234
46.01000 188.803
46.18000 185.301
46.35000 177.681
46.52000 169.563
46.69000 156.981
46.86000 173.421
47.03000 162.910
47.20000 161.590
47.37000 166.063
47.54000 154.355
47.71000 158.594
47.88000 152.378
48.05000 169.283
48.22000 149.774
48.39000 157.512
48.56000 155.123
48.73000 144.041
48.90000 144.765
49.07000 148.176
49.24000 141.885
49.41000 153.749
49.58000 152.444
49.75000 145.159
49.92000 150.033
50.09000 158.657
50.26000 152.559
50.43000 181.305
50.60000 198.234
50.77000 203.597
50.94000 163.327
51.11000 152.926
51.28000 139.581
51.45000 130.639
51.62000 144.240
51.79000 144.020
51.96000 145.819
52.13000 143.614
52.30000 128.698
52.47000 136.340
52.64000 132.501
52.81000 132.499
52.98000 150.240
53.15000 135.377
53.32000 142.824
53.49000 152.807
53.66000 142.103
53.83000 136.542
54.00000 133.490
54.17000 131.421
54.34000 147.585
54.51000 130.263
54.68000 141.692
54.85000 139.299
55.02000 138.624
55.19000 152.433
55.36000 167.255
55.53000 240.459
55.70000 415.568
55.87000 550.985
56.04000 480.892
56.21000 287.514
56.38000 201.974
56.55000 153.610
56.72000 139.014
56.89000 139.461
57.06000 123.784
57.23000 118.092
57.40000 130.188
57.57000 117.053
57.74000 118.720
57.91000 117.391
58.08000 127.904
58.25000 115.993
58.42000 115.830
58.59000 111.828
58.76000 114.840
58.93000 114.924
59.10000 107.926
59.27000 116.636
59.44000 114.783
59.61000 116.885
59.78000 115.778
59.95000 119.156
60.12000 120.962
60.29000 113.150
60.46000 111.824
60.63000 120.387
60.80000 124.574
60.97000 124.777
61.14000 123.250
61.31000 121.487
61.48000 127.474
61.65000 303.033
61.82000 210.750
61.99000 134.528
62.16000 124.861
62.33000 130.424
62.50000 120.494
62.67000 118.844
62.84000 118.084
63.01000 131.023
63.18000 125.254
63.35000 134.234
63.52000 135.400
63.69000 136.027
63.86000 143.030
64.03000 151.494
64.20000 156.315
64.37000 155.541
64.54000 165.992
64.71000 166.986
64.88000 195.596
65.05000 210.085
65.22000 259.761
65.39000 310.893
65.56000 370.327
65.73000 1265.419
65.90000 2095.104
66.07000 529.438
66.24000 415.961
66.41000 677.513
66.58000 425.995
66.75000 372.558
66.92000 373.256
67.09000 387.916
67.26000 401.158
67.43000 416.589
67.60000 461.167
67.77000 467.939
67.94000 492.400
68.11000 508.233
68.28000 581.640
68.45000 674.528
68.62000 959.568
68.79000 1813.267
68.96000 12818.735
69.13000 49491.551
69.30000 25827.844
69.47000 5618.466
69.64000 933.287
69.81000 645.879
69.98000 509.058
70.00000 493.630