File: XRD/XRD/07-10-2025 Dep 6/XY Data/BTO_Mapping_Theta2Theta_07-10-2025_001_45_-20-000_-34-641.xy
20.00000 459.139
20.17000 458.127
20.34000 449.146
20.51000 472.464
20.68000 448.139
20.85000 467.533
21.02000 470.278
21.19000 464.672
21.36000 435.561
21.53000 457.876
21.70000 476.169
21.87000 558.023
22.04000 608.272
22.21000 528.437
22.38000 480.961
22.55000 470.727
22.72000 435.946
22.89000 438.598
23.06000 423.129
23.23000 420.410
23.40000 421.527
23.57000 427.095
23.74000 418.866
23.91000 425.198
24.08000 426.874
24.25000 418.355
24.42000 408.024
24.59000 392.477
24.76000 407.991
24.93000 382.420
25.10000 400.725
25.27000 391.734
25.44000 381.957
25.61000 395.216
25.78000 401.822
25.95000 397.734
26.12000 398.505
26.29000 390.396
26.46000 376.250
26.63000 383.448
26.80000 373.910
26.97000 375.759
27.14000 371.788
27.31000 359.846
27.48000 372.469
27.65000 369.129
27.82000 351.641
27.99000 356.916
28.16000 364.233
28.33000 379.062
28.50000 382.595
28.67000 346.962
28.84000 357.969
29.01000 365.182
29.18000 347.521
29.35000 347.466
29.52000 357.068
29.69000 367.843
29.86000 415.708
30.03000 456.339
30.20000 398.793
30.37000 409.213
30.54000 382.482
30.71000 410.161
30.88000 448.824
31.05000 843.922
31.22000 2157.337
31.39000 2873.708
31.56000 1361.739
31.73000 505.461
31.90000 371.397
32.07000 340.546
32.24000 326.889
32.41000 325.228
32.58000 324.673
32.75000 321.388
32.92000 530.923
33.09000 434.006
33.26000 291.796
33.43000 282.307
33.60000 284.525
33.77000 288.868
33.94000 283.313
34.11000 276.007
34.28000 280.643
34.45000 275.883
34.62000 270.875
34.79000 274.951
34.96000 264.166
35.13000 277.958
35.30000 271.066
35.47000 253.018
35.64000 253.426
35.81000 247.642
35.98000 249.573
36.15000 245.622
36.32000 250.314
36.49000 249.614
36.66000 257.622
36.83000 262.118
37.00000 274.372
37.17000 265.958
37.34000 256.282
37.51000 250.762
37.68000 244.295
37.85000 240.428
38.02000 265.581
38.19000 259.019
38.36000 330.357
38.53000 576.259
38.70000 727.342
38.87000 514.014
39.04000 301.284
39.21000 230.919
39.38000 231.799
39.55000 226.857
39.72000 219.573
39.89000 228.615
40.06000 221.154
40.23000 217.425
40.40000 220.578
40.57000 209.994
40.74000 203.401
40.91000 212.546
41.08000 215.023
41.25000 207.141
41.42000 212.026
41.59000 212.875
41.76000 208.467
41.93000 213.203
42.10000 207.014
42.27000 184.038
42.44000 198.210
42.61000 194.323
42.78000 183.615
42.95000 205.356
43.12000 196.767
43.29000 192.685
43.46000 194.975
43.63000 199.178
43.80000 191.473
43.97000 188.224
44.14000 188.479
44.31000 193.972
44.48000 197.919
44.65000 236.818
44.82000 285.178
44.99000 341.225
45.16000 270.727
45.33000 242.355
45.50000 224.123
45.67000 192.285
45.84000 187.518
46.01000 169.091
46.18000 189.477
46.35000 170.989
46.52000 179.265
46.69000 177.715
46.86000 158.064
47.03000 171.187
47.20000 153.603
47.37000 162.239
47.54000 160.381
47.71000 162.447
47.88000 168.341
48.05000 163.390
48.22000 157.361
48.39000 150.422
48.56000 159.609
48.73000 173.680
48.90000 156.542
49.07000 151.694
49.24000 153.091
49.41000 146.647
49.58000 159.162
49.75000 159.651
49.92000 159.313
50.09000 168.328
50.26000 173.662
50.43000 213.399
50.60000 245.810
50.77000 218.648
50.94000 178.041
51.11000 158.768
51.28000 150.971
51.45000 144.906
51.62000 143.044
51.79000 139.097
51.96000 136.853
52.13000 143.478
52.30000 138.146
52.47000 140.722
52.64000 136.286
52.81000 134.482
52.98000 150.476
53.15000 148.212
53.32000 157.561
53.49000 153.963
53.66000 149.173
53.83000 130.611
54.00000 143.908
54.17000 137.282
54.34000 122.126
54.51000 139.604
54.68000 146.058
54.85000 142.482
55.02000 150.136
55.19000 165.152
55.36000 205.434
55.53000 327.800
55.70000 514.970
55.87000 607.470
56.04000 473.850
56.21000 277.394
56.38000 174.950
56.55000 141.153
56.72000 141.605
56.89000 135.965
57.06000 131.643
57.23000 120.359
57.40000 125.359
57.57000 118.460
57.74000 120.026
57.91000 112.814
58.08000 121.000
58.25000 124.634
58.42000 116.355
58.59000 120.839
58.76000 125.630
58.93000 113.850
59.10000 124.711
59.27000 122.147
59.44000 119.317
59.61000 123.020
59.78000 114.423
59.95000 119.000
60.12000 116.172
60.29000 128.248
60.46000 118.857
60.63000 113.758
60.80000 115.790
60.97000 122.709
61.14000 126.787
61.31000 134.000
61.48000 127.171
61.65000 313.774
61.82000 199.765
61.99000 136.455
62.16000 136.531
62.33000 123.609
62.50000 133.047
62.67000 128.007
62.84000 129.913
63.01000 127.435
63.18000 145.692
63.35000 135.949
63.52000 128.399
63.69000 140.331
63.86000 143.498
64.03000 147.769
64.20000 154.891
64.37000 156.329
64.54000 157.471
64.71000 180.202
64.88000 194.745
65.05000 222.781
65.22000 298.835
65.39000 349.768
65.56000 443.270
65.73000 1303.808
65.90000 2253.229
66.07000 560.239
66.24000 442.169
66.41000 726.591
66.58000 444.692
66.75000 371.144
66.92000 399.457
67.09000 401.586
67.26000 422.195
67.43000 437.737
67.60000 448.049
67.77000 488.300
67.94000 509.227
68.11000 540.849
68.28000 586.888
68.45000 661.144
68.62000 990.698
68.79000 1819.828
68.96000 11853.339
69.13000 52270.332
69.30000 28351.965
69.47000 6764.611
69.64000 958.347
69.81000 667.970
69.98000 504.733
70.00000 504.212