File: XRD/XRD/07-10-2025 Dep 6/XY Data/BTO_Mapping_Theta2Theta_07-10-2025_001_57_26-765_-29-726.xy
20.00000 489.692
20.17000 466.332
20.34000 466.958
20.51000 456.289
20.68000 475.325
20.85000 457.626
21.02000 461.809
21.19000 482.178
21.36000 454.424
21.53000 453.154
21.70000 461.668
21.87000 494.303
22.04000 499.428
22.21000 504.049
22.38000 465.711
22.55000 453.066
22.72000 474.069
22.89000 422.085
23.06000 451.569
23.23000 423.047
23.40000 444.298
23.57000 457.013
23.74000 472.806
23.91000 514.298
24.08000 502.990
24.25000 458.737
24.42000 423.081
24.59000 418.797
24.76000 404.233
24.93000 399.100
25.10000 406.783
25.27000 407.972
25.44000 413.808
25.61000 395.815
25.78000 416.737
25.95000 399.467
26.12000 388.255
26.29000 399.638
26.46000 379.887
26.63000 396.418
26.80000 381.032
26.97000 366.879
27.14000 377.080
27.31000 368.243
27.48000 375.304
27.65000 378.331
27.82000 359.059
27.99000 367.844
28.16000 372.261
28.33000 351.592
28.50000 346.924
28.67000 354.381
28.84000 340.462
29.01000 355.514
29.18000 360.354
29.35000 350.057
29.52000 341.124
29.69000 367.223
29.86000 368.472
30.03000 379.078
30.20000 365.661
30.37000 385.618
30.54000 365.426
30.71000 362.126
30.88000 401.163
31.05000 487.651
31.22000 790.110
31.39000 1069.543
31.56000 761.481
31.73000 482.731
31.90000 406.818
32.07000 367.791
32.24000 363.241
32.41000 346.408
32.58000 318.525
32.75000 319.380
32.92000 509.278
33.09000 449.359
33.26000 286.195
33.43000 289.966
33.60000 299.566
33.77000 288.012
33.94000 301.547
34.11000 296.621
34.28000 312.906
34.45000 317.808
34.62000 294.117
34.79000 289.775
34.96000 265.314
35.13000 277.431
35.30000 262.196
35.47000 262.565
35.64000 259.776
35.81000 253.611
35.98000 253.838
36.15000 251.861
36.32000 241.518
36.49000 243.067
36.66000 268.541
36.83000 265.136
37.00000 258.008
37.17000 251.666
37.34000 253.374
37.51000 244.988
37.68000 256.248
37.85000 260.979
38.02000 252.168
38.19000 266.487
38.36000 292.543
38.53000 475.067
38.70000 688.483
38.87000 490.058
39.04000 292.373
39.21000 247.034
39.38000 228.379
39.55000 221.383
39.72000 237.184
39.89000 226.466
40.06000 217.889
40.23000 215.047
40.40000 214.002
40.57000 213.187
40.74000 204.859
40.91000 199.625
41.08000 207.778
41.25000 213.392
41.42000 200.496
41.59000 210.102
41.76000 197.339
41.93000 215.093
42.10000 221.124
42.27000 215.621
42.44000 221.881
42.61000 210.575
42.78000 209.180
42.95000 209.528
43.12000 204.012
43.29000 197.273
43.46000 190.813
43.63000 189.102
43.80000 179.223
43.97000 195.982
44.14000 191.197
44.31000 189.430
44.48000 199.646
44.65000 217.501
44.82000 215.083
44.99000 223.829
45.16000 223.931
45.33000 215.314
45.50000 211.352
45.67000 197.798
45.84000 185.432
46.01000 176.373
46.18000 177.388
46.35000 179.360
46.52000 177.596
46.69000 173.145
46.86000 171.411
47.03000 172.006
47.20000 167.825
47.37000 163.680
47.54000 159.729
47.71000 157.369
47.88000 164.262
48.05000 161.266
48.22000 159.154
48.39000 162.814
48.56000 156.407
48.73000 159.098
48.90000 159.641
49.07000 151.908
49.24000 157.394
49.41000 156.935
49.58000 153.249
49.75000 154.690
49.92000 146.596
50.09000 161.583
50.26000 156.531
50.43000 155.333
50.60000 172.412
50.77000 162.951
50.94000 152.752
51.11000 152.222
51.28000 145.681
51.45000 159.422
51.62000 138.936
51.79000 137.511
51.96000 143.372
52.13000 150.031
52.30000 146.229
52.47000 137.465
52.64000 136.674
52.81000 135.501
52.98000 148.094
53.15000 149.231
53.32000 147.857
53.49000 151.950
53.66000 148.632
53.83000 149.500
54.00000 137.877
54.17000 137.816
54.34000 148.974
54.51000 138.704
54.68000 139.021
54.85000 143.711
55.02000 145.832
55.19000 159.729
55.36000 158.826
55.53000 180.829
55.70000 258.829
55.87000 319.917
56.04000 307.255
56.21000 229.937
56.38000 175.427
56.55000 150.630
56.72000 146.681
56.89000 129.876
57.06000 130.411
57.23000 133.760
57.40000 118.674
57.57000 133.080
57.74000 125.568
57.91000 121.654
58.08000 127.135
58.25000 123.246
58.42000 125.763
58.59000 111.700
58.76000 122.103
58.93000 131.159
59.10000 120.075
59.27000 123.408
59.44000 117.681
59.61000 118.415
59.78000 113.587
59.95000 113.425
60.12000 117.545
60.29000 115.004
60.46000 114.702
60.63000 120.566
60.80000 123.119
60.97000 114.523
61.14000 122.197
61.31000 130.128
61.48000 133.434
61.65000 283.539
61.82000 196.389
61.99000 125.894
62.16000 129.063
62.33000 131.301
62.50000 121.948
62.67000 127.794
62.84000 130.433
63.01000 130.540
63.18000 134.219
63.35000 140.521
63.52000 142.544
63.69000 148.559
63.86000 132.146
64.03000 150.711
64.20000 159.549
64.37000 156.856
64.54000 164.353
64.71000 171.176
64.88000 179.275
65.05000 183.450
65.22000 228.556
65.39000 243.316
65.56000 318.733
65.73000 976.699
65.90000 1960.975
66.07000 526.285
66.24000 391.621
66.41000 604.597
66.58000 413.747
66.75000 360.505
66.92000 352.517
67.09000 390.470
67.26000 404.295
67.43000 422.982
67.60000 443.064
67.77000 463.065
67.94000 479.445
68.11000 537.406
68.28000 562.661
68.45000 638.654
68.62000 899.635
68.79000 1592.635
68.96000 8381.368
69.13000 44073.430
69.30000 24655.182
69.47000 6384.487
69.64000 927.119
69.81000 623.490
69.98000 525.344
70.00000 501.668