File: XRD/XRD/07-10-2025 Dep 6/XY Data/BTO_Mapping_Theta2Theta_07-10-2025_001_28_-24-271_17-634.xy
20.00000 459.706
20.17000 480.577
20.34000 487.541
20.51000 465.619
20.68000 455.837
20.85000 468.785
21.02000 453.941
21.19000 452.108
21.36000 461.293
21.53000 448.698
21.70000 476.152
21.87000 516.107
22.04000 566.024
22.21000 533.435
22.38000 476.401
22.55000 457.327
22.72000 441.635
22.89000 428.620
23.06000 433.078
23.23000 456.819
23.40000 430.976
23.57000 419.828
23.74000 429.131
23.91000 445.493
24.08000 445.860
24.25000 409.191
24.42000 421.424
24.59000 407.572
24.76000 392.212
24.93000 393.172
25.10000 390.905
25.27000 398.298
25.44000 384.668
25.61000 393.750
25.78000 395.533
25.95000 378.451
26.12000 383.945
26.29000 375.878
26.46000 367.629
26.63000 360.685
26.80000 364.720
26.97000 378.610
27.14000 367.920
27.31000 354.898
27.48000 359.436
27.65000 378.301
27.82000 362.396
27.99000 362.913
28.16000 365.795
28.33000 364.309
28.50000 366.701
28.67000 346.045
28.84000 362.518
29.01000 370.732
29.18000 338.633
29.35000 356.123
29.52000 340.961
29.69000 359.185
29.86000 393.656
30.03000 394.207
30.20000 366.093
30.37000 372.142
30.54000 364.501
30.71000 356.334
30.88000 376.474
31.05000 565.273
31.22000 1209.645
31.39000 1753.001
31.56000 941.774
31.73000 457.470
31.90000 378.821
32.07000 331.241
32.24000 327.255
32.41000 335.692
32.58000 337.233
32.75000 324.127
32.92000 504.435
33.09000 417.332
33.26000 286.198
33.43000 291.982
33.60000 290.607
33.77000 293.151
33.94000 310.962
34.11000 298.486
34.28000 305.878
34.45000 326.550
34.62000 304.719
34.79000 279.306
34.96000 264.644
35.13000 272.962
35.30000 256.141
35.47000 267.269
35.64000 275.085
35.81000 251.549
35.98000 257.048
36.15000 248.799
36.32000 248.115
36.49000 252.795
36.66000 250.320
36.83000 260.653
37.00000 271.217
37.17000 263.063
37.34000 245.292
37.51000 247.189
37.68000 251.632
37.85000 235.117
38.02000 246.967
38.19000 267.717
38.36000 333.536
38.53000 606.144
38.70000 941.429
38.87000 683.132
39.04000 310.460
39.21000 246.235
39.38000 238.272
39.55000 225.395
39.72000 227.516
39.89000 202.172
40.06000 220.761
40.23000 226.026
40.40000 224.832
40.57000 220.708
40.74000 223.092
40.91000 210.982
41.08000 209.549
41.25000 199.446
41.42000 194.044
41.59000 209.805
41.76000 197.322
41.93000 199.844
42.10000 196.555
42.27000 200.108
42.44000 210.221
42.61000 196.378
42.78000 205.517
42.95000 186.544
43.12000 204.445
43.29000 193.486
43.46000 192.106
43.63000 192.127
43.80000 182.592
43.97000 193.755
44.14000 176.319
44.31000 195.408
44.48000 200.176
44.65000 207.068
44.82000 239.670
44.99000 274.457
45.16000 263.074
45.33000 246.550
45.50000 228.307
45.67000 203.340
45.84000 189.271
46.01000 180.672
46.18000 180.816
46.35000 178.878
46.52000 175.091
46.69000 182.002
46.86000 163.719
47.03000 160.088
47.20000 169.541
47.37000 160.597
47.54000 164.123
47.71000 154.524
47.88000 165.113
48.05000 147.398
48.22000 160.280
48.39000 164.370
48.56000 151.085
48.73000 156.765
48.90000 161.970
49.07000 141.848
49.24000 154.089
49.41000 152.075
49.58000 147.743
49.75000 161.516
49.92000 152.339
50.09000 149.321
50.26000 147.470
50.43000 186.479
50.60000 194.944
50.77000 179.279
50.94000 160.583
51.11000 157.641
51.28000 146.494
51.45000 154.238
51.62000 140.197
51.79000 142.457
51.96000 139.483
52.13000 134.711
52.30000 136.435
52.47000 140.540
52.64000 134.130
52.81000 141.766
52.98000 144.302
53.15000 137.386
53.32000 138.688
53.49000 142.800
53.66000 138.624
53.83000 136.244
54.00000 141.789
54.17000 135.131
54.34000 144.766
54.51000 140.565
54.68000 122.639
54.85000 132.702
55.02000 141.950
55.19000 149.126
55.36000 166.587
55.53000 229.368
55.70000 401.691
55.87000 585.796
56.04000 507.557
56.21000 295.745
56.38000 184.392
56.55000 161.868
56.72000 141.667
56.89000 127.495
57.06000 127.687
57.23000 123.140
57.40000 119.705
57.57000 102.166
57.74000 126.733
57.91000 116.113
58.08000 122.985
58.25000 120.696
58.42000 126.682
58.59000 115.794
58.76000 115.653
58.93000 122.753
59.10000 114.146
59.27000 112.444
59.44000 108.067
59.61000 118.170
59.78000 116.483
59.95000 119.018
60.12000 124.429
60.29000 119.179
60.46000 118.254
60.63000 105.163
60.80000 132.149
60.97000 117.710
61.14000 117.409
61.31000 119.043
61.48000 132.903
61.65000 295.235
61.82000 189.242
61.99000 124.983
62.16000 124.810
62.33000 118.618
62.50000 135.875
62.67000 127.982
62.84000 131.238
63.01000 127.793
63.18000 125.792
63.35000 124.928
63.52000 142.676
63.69000 126.789
63.86000 143.932
64.03000 133.475
64.20000 149.804
64.37000 149.085
64.54000 162.820
64.71000 171.506
64.88000 175.209
65.05000 205.831
65.22000 238.629
65.39000 290.456
65.56000 376.069
65.73000 1170.492
65.90000 2074.469
66.07000 509.726
66.24000 425.496
66.41000 631.533
66.58000 418.171
66.75000 358.980
66.92000 378.540
67.09000 385.834
67.26000 399.511
67.43000 405.716
67.60000 440.113
67.77000 488.122
67.94000 498.205
68.11000 521.040
68.28000 562.604
68.45000 664.278
68.62000 939.152
68.79000 1713.260
68.96000 11537.494
69.13000 47829.160
69.30000 25482.949
69.47000 5791.598
69.64000 923.819
69.81000 615.807
69.98000 517.655
70.00000 514.153