File: XRD/XRD/07-10-2025 Dep 6/XY Data/BTO_Mapping_Theta2Theta_07-10-2025_001_32_-29-344_6-237.xy
20.00000 479.080
20.17000 480.706
20.34000 460.579
20.51000 471.201
20.68000 472.047
20.85000 444.126
21.02000 471.684
21.19000 465.888
21.36000 471.139
21.53000 445.256
21.70000 511.991
21.87000 571.711
22.04000 657.440
22.21000 569.723
22.38000 499.865
22.55000 464.405
22.72000 432.830
22.89000 445.067
23.06000 423.552
23.23000 415.782
23.40000 417.471
23.57000 429.589
23.74000 424.322
23.91000 426.823
24.08000 420.126
24.25000 427.341
24.42000 417.089
24.59000 409.279
24.76000 409.650
24.93000 384.027
25.10000 404.098
25.27000 406.750
25.44000 394.331
25.61000 395.978
25.78000 387.120
25.95000 375.906
26.12000 397.319
26.29000 374.601
26.46000 372.604
26.63000 373.999
26.80000 366.416
26.97000 381.706
27.14000 376.107
27.31000 375.302
27.48000 362.321
27.65000 361.174
27.82000 370.319
27.99000 355.381
28.16000 352.671
28.33000 367.081
28.50000 351.042
28.67000 362.786
28.84000 374.009
29.01000 325.323
29.18000 333.595
29.35000 355.792
29.52000 353.360
29.69000 369.815
29.86000 398.903
30.03000 437.290
30.20000 415.547
30.37000 402.732
30.54000 378.445
30.71000 402.388
30.88000 432.081
31.05000 735.920
31.22000 1984.316
31.39000 2713.026
31.56000 1284.366
31.73000 514.463
31.90000 367.956
32.07000 335.873
32.24000 314.583
32.41000 326.922
32.58000 306.170
32.75000 328.666
32.92000 531.370
33.09000 424.186
33.26000 287.076
33.43000 288.706
33.60000 287.219
33.77000 303.299
33.94000 292.078
34.11000 280.929
34.28000 284.305
34.45000 278.561
34.62000 283.789
34.79000 293.219
34.96000 255.921
35.13000 265.268
35.30000 273.767
35.47000 254.744
35.64000 260.328
35.81000 249.639
35.98000 264.347
36.15000 248.773
36.32000 255.441
36.49000 249.494
36.66000 274.253
36.83000 263.677
37.00000 278.366
37.17000 253.253
37.34000 259.455
37.51000 244.712
37.68000 239.003
37.85000 245.557
38.02000 241.315
38.19000 270.145
38.36000 313.061
38.53000 516.866
38.70000 663.419
38.87000 463.210
39.04000 288.081
39.21000 247.399
39.38000 251.368
39.55000 233.582
39.72000 213.846
39.89000 222.530
40.06000 218.139
40.23000 226.544
40.40000 217.990
40.57000 212.602
40.74000 215.571
40.91000 213.544
41.08000 205.044
41.25000 214.006
41.42000 201.659
41.59000 205.364
41.76000 203.969
41.93000 198.460
42.10000 198.716
42.27000 201.016
42.44000 193.339
42.61000 197.335
42.78000 204.104
42.95000 201.265
43.12000 198.690
43.29000 200.298
43.46000 189.956
43.63000 186.530
43.80000 195.765
43.97000 190.405
44.14000 194.229
44.31000 194.119
44.48000 210.906
44.65000 224.367
44.82000 294.549
44.99000 345.266
45.16000 325.683
45.33000 262.824
45.50000 246.850
45.67000 207.246
45.84000 192.654
46.01000 188.204
46.18000 176.298
46.35000 179.953
46.52000 170.446
46.69000 179.151
46.86000 168.770
47.03000 170.112
47.20000 158.308
47.37000 160.987
47.54000 163.706
47.71000 158.242
47.88000 171.884
48.05000 168.031
48.22000 167.848
48.39000 138.589
48.56000 166.061
48.73000 164.001
48.90000 152.414
49.07000 146.276
49.24000 157.085
49.41000 143.220
49.58000 157.809
49.75000 149.617
49.92000 147.861
50.09000 147.453
50.26000 171.844
50.43000 190.793
50.60000 220.455
50.77000 203.912
50.94000 185.046
51.11000 160.027
51.28000 157.940
51.45000 154.681
51.62000 135.622
51.79000 147.761
51.96000 139.841
52.13000 142.993
52.30000 138.863
52.47000 134.601
52.64000 135.551
52.81000 134.874
52.98000 154.244
53.15000 145.695
53.32000 157.012
53.49000 148.289
53.66000 148.252
53.83000 138.588
54.00000 131.600
54.17000 137.939
54.34000 126.606
54.51000 134.879
54.68000 142.419
54.85000 144.039
55.02000 142.002
55.19000 149.606
55.36000 171.657
55.53000 270.790
55.70000 451.710
55.87000 521.154
56.04000 431.528
56.21000 258.751
56.38000 194.724
56.55000 158.249
56.72000 136.664
56.89000 125.844
57.06000 131.884
57.23000 118.187
57.40000 109.416
57.57000 115.302
57.74000 124.892
57.91000 128.087
58.08000 112.280
58.25000 120.184
58.42000 116.819
58.59000 125.206
58.76000 111.768
58.93000 110.557
59.10000 109.272
59.27000 114.011
59.44000 122.546
59.61000 116.459
59.78000 128.722
59.95000 120.786
60.12000 119.653
60.29000 115.515
60.46000 112.330
60.63000 113.978
60.80000 124.580
60.97000 126.433
61.14000 117.913
61.31000 127.596
61.48000 144.001
61.65000 310.719
61.82000 206.527
61.99000 130.184
62.16000 126.396
62.33000 122.905
62.50000 116.354
62.67000 129.842
62.84000 135.246
63.01000 135.940
63.18000 138.315
63.35000 133.633
63.52000 126.969
63.69000 137.800
63.86000 148.054
64.03000 144.732
64.20000 144.011
64.37000 159.437
64.54000 159.269
64.71000 176.027
64.88000 196.969
65.05000 227.194
65.22000 289.749
65.39000 345.198
65.56000 438.013
65.73000 1348.977
65.90000 2285.843
66.07000 565.510
66.24000 435.193
66.41000 702.560
66.58000 439.102
66.75000 373.756
66.92000 387.516
67.09000 412.515
67.26000 411.103
67.43000 441.584
67.60000 458.309
67.77000 489.859
67.94000 540.542
68.11000 568.271
68.28000 621.911
68.45000 689.639
68.62000 1018.023
68.79000 1923.991
68.96000 13507.661
69.13000 53781.086
69.30000 28340.340
69.47000 6449.865
69.64000 988.049
69.81000 633.305
69.98000 517.103
70.00000 518.086