File: XRD/XRD/07-10-2025 Dep 6/XY Data/BTO_Mapping_Theta2Theta_07-10-2025_001_23_-10-000_17-321.xy
20.00000 460.477
20.17000 477.002
20.34000 470.954
20.51000 482.316
20.68000 455.012
20.85000 448.049
21.02000 449.979
21.19000 464.662
21.36000 470.053
21.53000 454.983
21.70000 465.314
21.87000 480.003
22.04000 545.804
22.21000 539.627
22.38000 470.537
22.55000 428.341
22.72000 428.626
22.89000 425.554
23.06000 426.141
23.23000 429.525
23.40000 426.988
23.57000 444.379
23.74000 429.623
23.91000 491.086
24.08000 458.666
24.25000 436.277
24.42000 398.710
24.59000 407.202
24.76000 410.059
24.93000 400.297
25.10000 400.770
25.27000 392.360
25.44000 397.361
25.61000 388.304
25.78000 393.242
25.95000 379.632
26.12000 385.333
26.29000 376.451
26.46000 398.417
26.63000 387.892
26.80000 371.926
26.97000 379.997
27.14000 363.128
27.31000 367.281
27.48000 366.809
27.65000 368.115
27.82000 369.663
27.99000 366.512
28.16000 371.754
28.33000 364.165
28.50000 356.669
28.67000 334.769
28.84000 362.071
29.01000 343.019
29.18000 353.728
29.35000 368.177
29.52000 342.339
29.69000 343.409
29.86000 351.310
30.03000 365.180
30.20000 360.952
30.37000 327.973
30.54000 355.356
30.71000 344.434
30.88000 391.844
31.05000 444.034
31.22000 795.292
31.39000 1123.255
31.56000 781.970
31.73000 469.122
31.90000 342.422
32.07000 347.275
32.24000 314.665
32.41000 320.168
32.58000 306.166
32.75000 310.416
32.92000 488.921
33.09000 427.517
33.26000 310.024
33.43000 276.468
33.60000 280.090
33.77000 289.503
33.94000 288.722
34.11000 296.342
34.28000 321.557
34.45000 326.455
34.62000 290.333
34.79000 297.777
34.96000 285.463
35.13000 272.961
35.30000 273.153
35.47000 251.333
35.64000 255.152
35.81000 248.746
35.98000 258.515
36.15000 246.518
36.32000 244.924
36.49000 256.584
36.66000 246.884
36.83000 257.824
37.00000 276.495
37.17000 278.416
37.34000 254.662
37.51000 241.885
37.68000 241.630
37.85000 243.045
38.02000 261.345
38.19000 255.183
38.36000 298.381
38.53000 532.307
38.70000 934.809
38.87000 728.842
39.04000 317.181
39.21000 236.738
39.38000 230.049
39.55000 226.756
39.72000 216.307
39.89000 228.648
40.06000 214.483
40.23000 222.131
40.40000 230.900
40.57000 206.823
40.74000 213.262
40.91000 224.888
41.08000 215.208
41.25000 226.511
41.42000 208.780
41.59000 198.791
41.76000 214.840
41.93000 199.369
42.10000 211.368
42.27000 195.110
42.44000 204.611
42.61000 204.013
42.78000 199.482
42.95000 200.513
43.12000 189.193
43.29000 195.891
43.46000 198.563
43.63000 180.523
43.80000 190.433
43.97000 199.636
44.14000 195.008
44.31000 200.685
44.48000 191.999
44.65000 215.506
44.82000 222.162
44.99000 260.822
45.16000 249.548
45.33000 227.320
45.50000 201.432
45.67000 196.657
45.84000 199.001
46.01000 187.879
46.18000 172.328
46.35000 175.414
46.52000 161.755
46.69000 170.169
46.86000 171.470
47.03000 155.462
47.20000 161.472
47.37000 155.529
47.54000 163.916
47.71000 158.324
47.88000 151.563
48.05000 162.223
48.22000 164.429
48.39000 148.586
48.56000 150.478
48.73000 158.654
48.90000 156.508
49.07000 154.557
49.24000 148.871
49.41000 156.001
49.58000 156.739
49.75000 149.850
49.92000 148.379
50.09000 141.524
50.26000 153.404
50.43000 155.182
50.60000 164.366
50.77000 159.711
50.94000 151.915
51.11000 155.563
51.28000 149.399
51.45000 140.150
51.62000 144.817
51.79000 130.197
51.96000 140.693
52.13000 136.947
52.30000 135.823
52.47000 134.404
52.64000 136.880
52.81000 137.512
52.98000 123.696
53.15000 132.771
53.32000 147.398
53.49000 157.329
53.66000 143.199
53.83000 140.405
54.00000 139.054
54.17000 131.641
54.34000 122.094
54.51000 131.156
54.68000 129.815
54.85000 150.748
55.02000 143.087
55.19000 136.438
55.36000 153.964
55.53000 193.303
55.70000 315.512
55.87000 526.001
56.04000 550.856
56.21000 325.209
56.38000 193.984
56.55000 141.453
56.72000 131.724
56.89000 129.580
57.06000 132.852
57.23000 126.809
57.40000 128.473
57.57000 122.265
57.74000 122.559
57.91000 112.753
58.08000 123.027
58.25000 123.471
58.42000 121.574
58.59000 116.029
58.76000 127.634
58.93000 113.961
59.10000 116.750
59.27000 121.613
59.44000 112.007
59.61000 121.565
59.78000 107.527
59.95000 115.412
60.12000 115.430
60.29000 114.723
60.46000 113.480
60.63000 109.644
60.80000 118.970
60.97000 121.432
61.14000 118.213
61.31000 122.324
61.48000 137.187
61.65000 285.304
61.82000 183.091
61.99000 134.199
62.16000 121.761
62.33000 119.762
62.50000 117.791
62.67000 117.323
62.84000 130.554
63.01000 128.792
63.18000 127.573
63.35000 126.786
63.52000 129.939
63.69000 134.881
63.86000 146.580
64.03000 145.570
64.20000 145.333
64.37000 155.749
64.54000 155.173
64.71000 164.232
64.88000 172.244
65.05000 179.862
65.22000 233.233
65.39000 256.947
65.56000 315.903
65.73000 1051.582
65.90000 1925.969
66.07000 480.725
66.24000 394.661
66.41000 618.065
66.58000 398.573
66.75000 357.987
66.92000 342.693
67.09000 374.018
67.26000 401.380
67.43000 396.681
67.60000 433.884
67.77000 439.624
67.94000 490.138
68.11000 521.217
68.28000 572.420
68.45000 664.784
68.62000 906.833
68.79000 1616.831
68.96000 9824.475
69.13000 44030.117
69.30000 23579.215
69.47000 5562.002
69.64000 886.969
69.81000 599.901
69.98000 508.521
70.00000 493.828