File: XRD/XRD/07-10-2025 Dep 6/XY Data/BTO_Mapping_Theta2Theta_07-10-2025_001_59_18-271_-8-135.xy
20.00000 464.882
20.17000 479.303
20.34000 448.079
20.51000 463.997
20.68000 474.901
20.85000 465.913
21.02000 462.503
21.19000 463.971
21.36000 479.099
21.53000 479.582
21.70000 473.379
21.87000 486.913
22.04000 512.104
22.21000 491.972
22.38000 466.862
22.55000 443.017
22.72000 449.954
22.89000 443.369
23.06000 461.780
23.23000 426.872
23.40000 437.466
23.57000 464.796
23.74000 464.827
23.91000 527.228
24.08000 500.962
24.25000 471.770
24.42000 431.129
24.59000 423.388
24.76000 430.544
24.93000 394.114
25.10000 406.103
25.27000 393.105
25.44000 397.002
25.61000 402.267
25.78000 378.444
25.95000 378.590
26.12000 380.421
26.29000 382.544
26.46000 383.183
26.63000 386.531
26.80000 374.195
26.97000 377.273
27.14000 365.707
27.31000 373.537
27.48000 372.667
27.65000 374.776
27.82000 374.853
27.99000 362.469
28.16000 367.112
28.33000 354.310
28.50000 361.064
28.67000 355.352
28.84000 345.657
29.01000 357.843
29.18000 353.629
29.35000 341.461
29.52000 354.998
29.69000 360.990
29.86000 367.211
30.03000 376.451
30.20000 369.379
30.37000 355.830
30.54000 379.085
30.71000 372.526
30.88000 398.561
31.05000 510.794
31.22000 806.279
31.39000 1072.762
31.56000 757.427
31.73000 473.214
31.90000 387.232
32.07000 355.404
32.24000 347.937
32.41000 330.590
32.58000 317.890
32.75000 318.795
32.92000 505.943
33.09000 428.742
33.26000 299.578
33.43000 282.131
33.60000 274.347
33.77000 304.516
33.94000 302.439
34.11000 314.886
34.28000 331.225
34.45000 310.290
34.62000 297.297
34.79000 302.571
34.96000 271.952
35.13000 283.847
35.30000 277.817
35.47000 257.469
35.64000 275.918
35.81000 263.912
35.98000 260.575
36.15000 262.101
36.32000 263.236
36.49000 257.817
36.66000 265.770
36.83000 264.842
37.00000 261.771
37.17000 256.881
37.34000 259.698
37.51000 249.084
37.68000 246.308
37.85000 252.364
38.02000 256.004
38.19000 254.263
38.36000 296.877
38.53000 472.520
38.70000 752.516
38.87000 534.230
39.04000 307.665
39.21000 250.047
39.38000 247.319
39.55000 224.429
39.72000 222.674
39.89000 226.359
40.06000 226.399
40.23000 231.827
40.40000 217.210
40.57000 218.633
40.74000 216.991
40.91000 206.779
41.08000 206.625
41.25000 201.075
41.42000 206.224
41.59000 205.220
41.76000 214.835
41.93000 211.422
42.10000 202.933
42.27000 219.704
42.44000 215.313
42.61000 203.383
42.78000 210.850
42.95000 203.269
43.12000 194.701
43.29000 195.417
43.46000 192.407
43.63000 206.040
43.80000 203.407
43.97000 204.584
44.14000 210.259
44.31000 201.643
44.48000 203.655
44.65000 222.183
44.82000 230.211
44.99000 226.776
45.16000 224.499
45.33000 217.623
45.50000 206.052
45.67000 197.235
45.84000 173.589
46.01000 173.495
46.18000 168.180
46.35000 174.291
46.52000 182.016
46.69000 175.523
46.86000 186.179
47.03000 161.275
47.20000 169.448
47.37000 162.836
47.54000 158.843
47.71000 155.924
47.88000 165.631
48.05000 161.546
48.22000 146.256
48.39000 169.148
48.56000 147.941
48.73000 164.020
48.90000 148.906
49.07000 156.852
49.24000 163.841
49.41000 151.992
49.58000 157.433
49.75000 156.284
49.92000 153.895
50.09000 161.923
50.26000 156.311
50.43000 151.356
50.60000 151.885
50.77000 164.109
50.94000 147.932
51.11000 149.643
51.28000 145.724
51.45000 146.170
51.62000 131.850
51.79000 149.170
51.96000 142.792
52.13000 135.844
52.30000 138.215
52.47000 136.460
52.64000 136.490
52.81000 137.772
52.98000 133.914
53.15000 148.439
53.32000 141.081
53.49000 150.317
53.66000 143.425
53.83000 141.240
54.00000 133.152
54.17000 139.960
54.34000 158.098
54.51000 136.577
54.68000 151.157
54.85000 134.937
55.02000 140.196
55.19000 153.862
55.36000 163.860
55.53000 186.581
55.70000 243.700
55.87000 353.954
56.04000 344.900
56.21000 269.158
56.38000 195.208
56.55000 151.549
56.72000 147.005
56.89000 125.153
57.06000 132.941
57.23000 128.026
57.40000 125.868
57.57000 134.642
57.74000 127.529
57.91000 119.714
58.08000 118.430
58.25000 123.599
58.42000 120.143
58.59000 123.078
58.76000 120.863
58.93000 109.905
59.10000 114.156
59.27000 125.012
59.44000 114.221
59.61000 114.136
59.78000 122.960
59.95000 109.436
60.12000 120.639
60.29000 114.663
60.46000 113.069
60.63000 114.397
60.80000 127.704
60.97000 119.944
61.14000 121.471
61.31000 124.612
61.48000 134.526
61.65000 288.563
61.82000 206.775
61.99000 137.241
62.16000 139.279
62.33000 125.476
62.50000 128.244
62.67000 138.242
62.84000 131.694
63.01000 133.076
63.18000 135.934
63.35000 125.894
63.52000 138.600
63.69000 152.270
63.86000 141.663
64.03000 151.515
64.20000 145.973
64.37000 153.091
64.54000 167.645
64.71000 164.427
64.88000 181.947
65.05000 187.103
65.22000 216.671
65.39000 248.543
65.56000 326.006
65.73000 974.656
65.90000 1958.645
66.07000 517.868
66.24000 405.119
66.41000 638.806
66.58000 429.231
66.75000 372.127
66.92000 364.174
67.09000 379.103
67.26000 402.176
67.43000 410.749
67.60000 439.239
67.77000 452.988
67.94000 470.859
68.11000 523.380
68.28000 569.498
68.45000 656.778
68.62000 890.194
68.79000 1566.258
68.96000 8619.861
69.13000 43771.309
69.30000 24540.883
69.47000 6063.082
69.64000 921.043
69.81000 617.242
69.98000 514.125
70.00000 503.492