File: XRD/XRD/07-10-2025 Dep 6/XY Data/BTO_Mapping_Theta2Theta_07-10-2025_001_50_3-090_-9-511.xy
20.00000 500.764
20.17000 470.544
20.34000 460.798
20.51000 465.041
20.68000 473.484
20.85000 464.343
21.02000 450.467
21.19000 440.654
21.36000 461.019
21.53000 469.071
21.70000 463.242
21.87000 482.429
22.04000 551.039
22.21000 503.548
22.38000 490.420
22.55000 451.922
22.72000 442.978
22.89000 432.268
23.06000 423.137
23.23000 437.925
23.40000 420.196
23.57000 421.202
23.74000 458.479
23.91000 501.164
24.08000 480.324
24.25000 445.471
24.42000 438.162
24.59000 416.229
24.76000 406.146
24.93000 404.254
25.10000 394.151
25.27000 384.320
25.44000 408.077
25.61000 381.150
25.78000 373.239
25.95000 375.927
26.12000 392.336
26.29000 386.465
26.46000 383.301
26.63000 362.885
26.80000 368.930
26.97000 383.014
27.14000 372.453
27.31000 380.217
27.48000 364.522
27.65000 354.458
27.82000 360.501
27.99000 360.503
28.16000 364.567
28.33000 348.327
28.50000 359.383
28.67000 362.149
28.84000 342.433
29.01000 336.846
29.18000 353.379
29.35000 339.756
29.52000 352.705
29.69000 349.442
29.86000 365.161
30.03000 373.550
30.20000 370.584
30.37000 369.689
30.54000 374.711
30.71000 376.927
30.88000 394.380
31.05000 478.424
31.22000 807.011
31.39000 1177.494
31.56000 831.785
31.73000 452.332
31.90000 376.278
32.07000 342.276
32.24000 338.315
32.41000 331.003
32.58000 322.335
32.75000 310.834
32.92000 474.822
33.09000 397.058
33.26000 309.142
33.43000 284.469
33.60000 302.475
33.77000 297.136
33.94000 294.258
34.11000 309.473
34.28000 323.336
34.45000 334.136
34.62000 304.215
34.79000 283.968
34.96000 278.192
35.13000 272.741
35.30000 282.305
35.47000 261.160
35.64000 255.478
35.81000 248.324
35.98000 262.449
36.15000 253.658
36.32000 266.624
36.49000 250.858
36.66000 246.165
36.83000 260.412
37.00000 283.634
37.17000 260.515
37.34000 244.959
37.51000 240.097
37.68000 242.276
37.85000 245.040
38.02000 259.135
38.19000 247.364
38.36000 278.451
38.53000 546.524
38.70000 954.238
38.87000 723.886
39.04000 332.705
39.21000 241.055
39.38000 241.317
39.55000 238.139
39.72000 229.872
39.89000 238.249
40.06000 219.878
40.23000 219.486
40.40000 219.015
40.57000 215.975
40.74000 206.746
40.91000 203.117
41.08000 211.023
41.25000 217.738
41.42000 205.623
41.59000 203.746
41.76000 194.596
41.93000 202.033
42.10000 215.354
42.27000 216.940
42.44000 208.866
42.61000 215.121
42.78000 205.157
42.95000 193.428
43.12000 191.411
43.29000 190.615
43.46000 193.031
43.63000 194.648
43.80000 178.141
43.97000 175.097
44.14000 192.719
44.31000 186.041
44.48000 207.728
44.65000 221.853
44.82000 221.067
44.99000 240.801
45.16000 244.635
45.33000 220.950
45.50000 212.717
45.67000 206.260
45.84000 201.202
46.01000 185.232
46.18000 172.671
46.35000 164.071
46.52000 175.138
46.69000 169.384
46.86000 167.020
47.03000 171.206
47.20000 158.756
47.37000 167.612
47.54000 175.126
47.71000 160.694
47.88000 156.666
48.05000 159.066
48.22000 152.398
48.39000 155.480
48.56000 169.508
48.73000 145.387
48.90000 152.077
49.07000 154.464
49.24000 154.161
49.41000 150.641
49.58000 142.156
49.75000 144.496
49.92000 155.860
50.09000 161.231
50.26000 144.206
50.43000 168.972
50.60000 157.410
50.77000 158.559
50.94000 158.505
51.11000 142.614
51.28000 148.318
51.45000 148.551
51.62000 140.414
51.79000 132.740
51.96000 147.150
52.13000 141.783
52.30000 139.002
52.47000 137.929
52.64000 146.086
52.81000 137.658
52.98000 136.132
53.15000 143.250
53.32000 154.031
53.49000 149.598
53.66000 148.059
53.83000 139.652
54.00000 138.428
54.17000 128.737
54.34000 136.719
54.51000 130.849
54.68000 132.581
54.85000 145.999
55.02000 144.378
55.19000 152.156
55.36000 152.818
55.53000 200.895
55.70000 325.867
55.87000 513.473
56.04000 551.264
56.21000 346.407
56.38000 195.602
56.55000 163.718
56.72000 135.859
56.89000 138.586
57.06000 123.311
57.23000 137.018
57.40000 124.725
57.57000 122.685
57.74000 118.894
57.91000 127.594
58.08000 124.615
58.25000 125.262
58.42000 118.866
58.59000 128.435
58.76000 114.801
58.93000 112.936
59.10000 121.787
59.27000 119.822
59.44000 112.258
59.61000 110.609
59.78000 123.170
59.95000 112.836
60.12000 111.799
60.29000 116.811
60.46000 116.360
60.63000 120.366
60.80000 116.046
60.97000 125.942
61.14000 122.115
61.31000 123.742
61.48000 135.678
61.65000 283.043
61.82000 175.957
61.99000 125.453
62.16000 127.386
62.33000 131.475
62.50000 132.647
62.67000 133.543
62.84000 127.916
63.01000 132.362
63.18000 131.715
63.35000 135.879
63.52000 132.291
63.69000 135.805
63.86000 143.215
64.03000 145.692
64.20000 140.490
64.37000 150.993
64.54000 154.768
64.71000 153.878
64.88000 172.183
65.05000 187.948
65.22000 203.458
65.39000 254.502
65.56000 322.765
65.73000 990.864
65.90000 1875.142
66.07000 488.353
66.24000 372.194
66.41000 607.102
66.58000 408.246
66.75000 351.753
66.92000 352.207
67.09000 380.573
67.26000 391.618
67.43000 407.937
67.60000 434.126
67.77000 448.329
67.94000 485.233
68.11000 512.068
68.28000 585.016
68.45000 630.783
68.62000 873.923
68.79000 1525.151
68.96000 8957.393
69.13000 43125.410
69.30000 23477.738
69.47000 5797.293
69.64000 877.680
69.81000 595.534
69.98000 506.109
70.00000 488.185