File: XRD/XRD/07-10-2025 Dep 6/XY Data/BTO_Mapping_Theta2Theta_07-10-2025_001_51_6-180_-19-021.xy
20.00000 454.675
20.17000 482.309
20.34000 454.230
20.51000 456.074
20.68000 466.576
20.85000 463.637
21.02000 456.271
21.19000 471.610
21.36000 490.484
21.53000 440.622
21.70000 463.747
21.87000 485.382
22.04000 527.763
22.21000 500.858
22.38000 475.878
22.55000 454.834
22.72000 441.787
22.89000 428.373
23.06000 449.093
23.23000 444.499
23.40000 431.067
23.57000 429.897
23.74000 458.021
23.91000 501.878
24.08000 479.616
24.25000 462.571
24.42000 422.324
24.59000 414.386
24.76000 403.586
24.93000 402.299
25.10000 409.508
25.27000 392.659
25.44000 393.308
25.61000 388.333
25.78000 385.927
25.95000 391.143
26.12000 368.413
26.29000 368.240
26.46000 377.671
26.63000 359.647
26.80000 369.933
26.97000 380.579
27.14000 382.984
27.31000 385.792
27.48000 387.973
27.65000 355.513
27.82000 351.417
27.99000 371.924
28.16000 351.974
28.33000 352.975
28.50000 338.983
28.67000 352.586
28.84000 370.590
29.01000 339.731
29.18000 356.818
29.35000 338.575
29.52000 358.770
29.69000 349.796
29.86000 370.262
30.03000 391.854
30.20000 384.477
30.37000 368.241
30.54000 373.817
30.71000 363.369
30.88000 389.314
31.05000 488.411
31.22000 848.131
31.39000 1210.209
31.56000 835.614
31.73000 455.000
31.90000 365.906
32.07000 329.141
32.24000 339.076
32.41000 334.276
32.58000 312.109
32.75000 328.572
32.92000 504.851
33.09000 405.084
33.26000 300.236
33.43000 291.153
33.60000 296.672
33.77000 285.990
33.94000 312.457
34.11000 299.656
34.28000 343.582
34.45000 326.813
34.62000 300.481
34.79000 280.947
34.96000 266.701
35.13000 264.658
35.30000 269.965
35.47000 261.482
35.64000 256.692
35.81000 256.780
35.98000 266.535
36.15000 254.968
36.32000 251.527
36.49000 252.214
36.66000 261.984
36.83000 245.805
37.00000 266.196
37.17000 257.510
37.34000 269.500
37.51000 251.081
37.68000 249.007
37.85000 245.302
38.02000 253.642
38.19000 250.995
38.36000 292.222
38.53000 532.854
38.70000 935.330
38.87000 697.899
39.04000 326.866
39.21000 255.116
39.38000 227.894
39.55000 252.464
39.72000 237.319
39.89000 240.221
40.06000 228.223
40.23000 214.196
40.40000 232.755
40.57000 216.658
40.74000 212.318
40.91000 216.886
41.08000 214.802
41.25000 200.627
41.42000 215.901
41.59000 199.501
41.76000 209.820
41.93000 211.821
42.10000 221.554
42.27000 217.430
42.44000 212.963
42.61000 207.303
42.78000 198.351
42.95000 192.244
43.12000 185.862
43.29000 196.124
43.46000 192.884
43.63000 198.002
43.80000 181.777
43.97000 190.373
44.14000 200.573
44.31000 195.855
44.48000 205.714
44.65000 217.660
44.82000 229.484
44.99000 237.949
45.16000 253.489
45.33000 225.024
45.50000 208.463
45.67000 199.490
45.84000 185.868
46.01000 183.521
46.18000 177.636
46.35000 173.847
46.52000 172.014
46.69000 171.955
46.86000 163.606
47.03000 175.938
47.20000 161.055
47.37000 159.801
47.54000 170.010
47.71000 163.694
47.88000 158.664
48.05000 149.603
48.22000 156.474
48.39000 158.016
48.56000 150.593
48.73000 152.412
48.90000 147.830
49.07000 158.084
49.24000 148.207
49.41000 155.228
49.58000 138.856
49.75000 148.013
49.92000 147.954
50.09000 155.123
50.26000 153.618
50.43000 158.784
50.60000 155.649
50.77000 156.984
50.94000 148.997
51.11000 150.758
51.28000 140.082
51.45000 146.556
51.62000 128.965
51.79000 151.203
51.96000 138.663
52.13000 131.751
52.30000 137.642
52.47000 137.749
52.64000 141.689
52.81000 141.177
52.98000 135.833
53.15000 139.561
53.32000 139.601
53.49000 152.276
53.66000 141.990
53.83000 145.411
54.00000 138.680
54.17000 139.501
54.34000 139.272
54.51000 138.402
54.68000 134.804
54.85000 152.088
55.02000 143.804
55.19000 142.995
55.36000 161.018
55.53000 202.781
55.70000 315.347
55.87000 516.899
56.04000 508.949
56.21000 330.276
56.38000 200.591
56.55000 146.949
56.72000 144.973
56.89000 128.094
57.06000 129.071
57.23000 121.906
57.40000 115.040
57.57000 125.827
57.74000 114.568
57.91000 125.434
58.08000 128.128
58.25000 119.578
58.42000 111.631
58.59000 114.809
58.76000 121.550
58.93000 119.256
59.10000 119.251
59.27000 117.561
59.44000 112.752
59.61000 123.319
59.78000 120.676
59.95000 112.534
60.12000 119.067
60.29000 114.364
60.46000 111.326
60.63000 128.823
60.80000 114.542
60.97000 115.811
61.14000 114.562
61.31000 124.188
61.48000 131.455
61.65000 290.183
61.82000 190.129
61.99000 131.658
62.16000 120.984
62.33000 128.124
62.50000 133.195
62.67000 126.559
62.84000 128.704
63.01000 121.137
63.18000 131.083
63.35000 134.004
63.52000 136.958
63.69000 127.436
63.86000 131.748
64.03000 138.902
64.20000 150.572
64.37000 151.386
64.54000 160.139
64.71000 172.805
64.88000 182.149
65.05000 183.440
65.22000 197.406
65.39000 271.680
65.56000 323.977
65.73000 986.007
65.90000 1881.792
66.07000 484.870
66.24000 379.867
66.41000 648.312
66.58000 412.257
66.75000 342.504
66.92000 348.419
67.09000 371.812
67.26000 394.385
67.43000 411.267
67.60000 411.642
67.77000 458.534
67.94000 467.547
68.11000 515.099
68.28000 561.090
68.45000 655.934
68.62000 870.777
68.79000 1534.646
68.96000 8824.435
69.13000 42856.461
69.30000 23543.002
69.47000 5907.442
69.64000 927.062
69.81000 613.898
69.98000 503.573
70.00000 494.993