File: XRD/XRD/07-10-2025 Dep 6/XY Data/BTO_Mapping_Theta2Theta_07-10-2025_001_14_3-090_9-511.xy
20.00000 471.529
20.17000 479.500
20.34000 478.624
20.51000 477.605
20.68000 449.022
20.85000 448.664
21.02000 457.743
21.19000 465.404
21.36000 458.884
21.53000 446.927
21.70000 472.636
21.87000 477.107
22.04000 504.292
22.21000 488.769
22.38000 475.025
22.55000 456.104
22.72000 429.811
22.89000 437.685
23.06000 417.669
23.23000 418.619
23.40000 416.430
23.57000 451.564
23.74000 455.895
23.91000 476.858
24.08000 480.214
24.25000 438.864
24.42000 416.013
24.59000 406.052
24.76000 425.018
24.93000 416.503
25.10000 396.146
25.27000 381.653
25.44000 395.888
25.61000 383.785
25.78000 390.940
25.95000 394.218
26.12000 413.733
26.29000 389.788
26.46000 406.050
26.63000 369.573
26.80000 370.725
26.97000 373.007
27.14000 382.731
27.31000 360.180
27.48000 400.754
27.65000 365.102
27.82000 365.072
27.99000 361.250
28.16000 360.163
28.33000 369.473
28.50000 352.115
28.67000 359.707
28.84000 339.382
29.01000 346.933
29.18000 336.170
29.35000 351.488
29.52000 350.648
29.69000 351.402
29.86000 390.070
30.03000 378.675
30.20000 381.500
30.37000 358.829
30.54000 355.902
30.71000 353.210
30.88000 379.781
31.05000 493.786
31.22000 837.486
31.39000 1189.103
31.56000 863.035
31.73000 451.263
31.90000 371.484
32.07000 353.944
32.24000 331.701
32.41000 325.885
32.58000 329.200
32.75000 321.720
32.92000 494.943
33.09000 426.740
33.26000 280.192
33.43000 287.588
33.60000 299.675
33.77000 291.901
33.94000 303.736
34.11000 315.148
34.28000 321.427
34.45000 321.728
34.62000 307.579
34.79000 296.272
34.96000 285.008
35.13000 279.324
35.30000 254.966
35.47000 250.236
35.64000 277.300
35.81000 263.608
35.98000 245.880
36.15000 251.324
36.32000 253.516
36.49000 255.178
36.66000 246.277
36.83000 267.966
37.00000 268.326
37.17000 262.953
37.34000 254.089
37.51000 252.885
37.68000 242.003
37.85000 248.298
38.02000 250.459
38.19000 237.073
38.36000 284.416
38.53000 492.021
38.70000 850.678
38.87000 650.863
39.04000 305.435
39.21000 243.614
39.38000 228.685
39.55000 234.749
39.72000 224.495
39.89000 228.799
40.06000 226.495
40.23000 218.176
40.40000 213.291
40.57000 210.851
40.74000 209.374
40.91000 214.355
41.08000 199.555
41.25000 206.385
41.42000 208.539
41.59000 205.194
41.76000 201.629
41.93000 213.717
42.10000 204.544
42.27000 211.487
42.44000 209.472
42.61000 212.586
42.78000 194.853
42.95000 197.623
43.12000 187.537
43.29000 197.844
43.46000 185.579
43.63000 197.523
43.80000 179.769
43.97000 188.922
44.14000 202.679
44.31000 201.727
44.48000 203.030
44.65000 209.677
44.82000 227.491
44.99000 230.853
45.16000 226.621
45.33000 205.142
45.50000 203.611
45.67000 197.049
45.84000 178.528
46.01000 177.065
46.18000 170.362
46.35000 174.825
46.52000 167.377
46.69000 166.511
46.86000 163.523
47.03000 166.063
47.20000 160.308
47.37000 156.543
47.54000 153.674
47.71000 153.530
47.88000 162.613
48.05000 165.893
48.22000 156.163
48.39000 158.547
48.56000 149.624
48.73000 151.972
48.90000 163.797
49.07000 160.189
49.24000 153.569
49.41000 160.574
49.58000 151.083
49.75000 150.676
49.92000 158.114
50.09000 147.892
50.26000 154.451
50.43000 153.679
50.60000 155.227
50.77000 162.094
50.94000 152.221
51.11000 155.023
51.28000 148.678
51.45000 151.471
51.62000 146.674
51.79000 135.169
51.96000 140.044
52.13000 140.517
52.30000 139.803
52.47000 135.335
52.64000 130.894
52.81000 144.865
52.98000 142.217
53.15000 143.260
53.32000 147.270
53.49000 142.070
53.66000 143.248
53.83000 136.355
54.00000 135.707
54.17000 130.708
54.34000 126.107
54.51000 131.027
54.68000 131.669
54.85000 144.693
55.02000 136.580
55.19000 150.822
55.36000 162.532
55.53000 191.072
55.70000 280.688
55.87000 451.807
56.04000 464.215
56.21000 304.715
56.38000 198.131
56.55000 146.316
56.72000 141.751
56.89000 138.556
57.06000 132.880
57.23000 133.429
57.40000 128.602
57.57000 124.407
57.74000 123.438
57.91000 124.706
58.08000 121.098
58.25000 122.587
58.42000 112.935
58.59000 124.209
58.76000 120.911
58.93000 125.247
59.10000 112.476
59.27000 125.415
59.44000 113.267
59.61000 117.676
59.78000 114.390
59.95000 114.025
60.12000 119.586
60.29000 122.531
60.46000 115.900
60.63000 118.300
60.80000 123.987
60.97000 115.550
61.14000 124.907
61.31000 126.661
61.48000 129.308
61.65000 273.224
61.82000 185.468
61.99000 124.407
62.16000 132.407
62.33000 121.963
62.50000 123.884
62.67000 126.006
62.84000 129.570
63.01000 132.837
63.18000 131.511
63.35000 129.946
63.52000 133.495
63.69000 143.030
63.86000 149.606
64.03000 149.003
64.20000 142.646
64.37000 154.373
64.54000 161.239
64.71000 182.772
64.88000 173.895
65.05000 201.147
65.22000 224.798
65.39000 272.311
65.56000 325.846
65.73000 1004.091
65.90000 1899.471
66.07000 493.443
66.24000 381.997
66.41000 627.960
66.58000 418.539
66.75000 346.156
66.92000 366.382
67.09000 376.538
67.26000 375.454
67.43000 426.867
67.60000 427.931
67.77000 447.916
67.94000 483.334
68.11000 526.138
68.28000 556.485
68.45000 653.988
68.62000 885.544
68.79000 1574.172
68.96000 9109.847
69.13000 43839.863
69.30000 23671.131
69.47000 5765.445
69.64000 908.802
69.81000 605.504
69.98000 483.993
70.00000 473.214