File: XRD/XRD/07-10-2025 Dep 6/XY Data/BTO_Mapping_Theta2Theta_07-10-2025_001_56_20-074_-22-294.xy
20.00000 460.298
20.17000 477.190
20.34000 465.869
20.51000 457.454
20.68000 463.211
20.85000 463.191
21.02000 488.767
21.19000 455.534
21.36000 460.248
21.53000 476.321
21.70000 480.586
21.87000 490.095
22.04000 497.484
22.21000 503.087
22.38000 476.086
22.55000 452.466
22.72000 451.515
22.89000 427.455
23.06000 450.889
23.23000 443.715
23.40000 439.464
23.57000 440.895
23.74000 474.348
23.91000 517.933
24.08000 523.605
24.25000 452.163
24.42000 432.280
24.59000 420.732
24.76000 421.570
24.93000 406.751
25.10000 415.383
25.27000 400.139
25.44000 394.036
25.61000 390.365
25.78000 390.955
25.95000 371.324
26.12000 382.620
26.29000 388.480
26.46000 384.918
26.63000 387.591
26.80000 385.243
26.97000 367.569
27.14000 387.690
27.31000 368.232
27.48000 376.688
27.65000 376.352
27.82000 371.455
27.99000 362.233
28.16000 370.746
28.33000 359.748
28.50000 371.041
28.67000 370.056
28.84000 360.093
29.01000 363.370
29.18000 359.632
29.35000 362.737
29.52000 349.409
29.69000 334.840
29.86000 360.119
30.03000 372.164
30.20000 382.078
30.37000 385.329
30.54000 379.292
30.71000 383.175
30.88000 413.475
31.05000 500.729
31.22000 788.733
31.39000 1090.196
31.56000 783.880
31.73000 471.698
31.90000 390.273
32.07000 376.403
32.24000 348.631
32.41000 339.665
32.58000 320.756
32.75000 324.609
32.92000 500.831
33.09000 428.629
33.26000 297.708
33.43000 313.801
33.60000 297.822
33.77000 300.096
33.94000 299.309
34.11000 320.720
34.28000 317.494
34.45000 305.740
34.62000 314.497
34.79000 305.012
34.96000 282.617
35.13000 276.416
35.30000 283.101
35.47000 267.767
35.64000 254.716
35.81000 266.712
35.98000 260.543
36.15000 257.807
36.32000 245.756
36.49000 232.189
36.66000 250.519
36.83000 247.241
37.00000 262.148
37.17000 249.761
37.34000 254.964
37.51000 259.263
37.68000 253.293
37.85000 244.341
38.02000 264.247
38.19000 259.877
38.36000 299.957
38.53000 480.933
38.70000 756.898
38.87000 562.501
39.04000 283.385
39.21000 247.296
39.38000 251.211
39.55000 234.853
39.72000 237.656
39.89000 233.133
40.06000 218.962
40.23000 232.342
40.40000 221.103
40.57000 228.513
40.74000 210.408
40.91000 214.357
41.08000 202.628
41.25000 193.401
41.42000 203.989
41.59000 203.171
41.76000 208.998
41.93000 223.749
42.10000 206.992
42.27000 219.199
42.44000 195.707
42.61000 193.655
42.78000 203.703
42.95000 189.524
43.12000 201.783
43.29000 198.460
43.46000 196.518
43.63000 188.276
43.80000 185.854
43.97000 190.853
44.14000 192.984
44.31000 204.518
44.48000 198.931
44.65000 215.304
44.82000 215.813
44.99000 227.686
45.16000 227.917
45.33000 208.845
45.50000 218.025
45.67000 198.984
45.84000 182.008
46.01000 172.408
46.18000 172.707
46.35000 178.182
46.52000 181.836
46.69000 176.939
46.86000 171.474
47.03000 178.713
47.20000 159.337
47.37000 164.147
47.54000 165.156
47.71000 167.159
47.88000 164.349
48.05000 157.249
48.22000 160.981
48.39000 167.951
48.56000 153.915
48.73000 155.962
48.90000 150.206
49.07000 154.631
49.24000 163.674
49.41000 156.941
49.58000 149.205
49.75000 156.255
49.92000 162.579
50.09000 153.109
50.26000 157.894
50.43000 163.478
50.60000 164.775
50.77000 169.825
50.94000 156.453
51.11000 151.900
51.28000 164.837
51.45000 138.076
51.62000 136.598
51.79000 138.614
51.96000 134.300
52.13000 140.620
52.30000 143.363
52.47000 131.870
52.64000 142.111
52.81000 146.813
52.98000 146.853
53.15000 142.519
53.32000 140.927
53.49000 150.976
53.66000 144.319
53.83000 134.865
54.00000 142.804
54.17000 139.829
54.34000 145.191
54.51000 140.241
54.68000 140.182
54.85000 134.146
55.02000 148.877
55.19000 140.226
55.36000 162.736
55.53000 200.989
55.70000 256.071
55.87000 358.054
56.04000 358.469
56.21000 269.473
56.38000 187.379
56.55000 150.592
56.72000 144.341
56.89000 132.655
57.06000 137.039
57.23000 142.521
57.40000 115.508
57.57000 122.502
57.74000 125.078
57.91000 121.599
58.08000 123.319
58.25000 127.026
58.42000 126.891
58.59000 113.240
58.76000 113.604
58.93000 112.694
59.10000 117.857
59.27000 116.070
59.44000 121.132
59.61000 121.456
59.78000 113.568
59.95000 122.271
60.12000 107.917
60.29000 118.110
60.46000 114.187
60.63000 112.429
60.80000 123.672
60.97000 119.851
61.14000 128.488
61.31000 126.308
61.48000 135.539
61.65000 273.718
61.82000 198.826
61.99000 145.097
62.16000 120.312
62.33000 121.658
62.50000 119.117
62.67000 134.024
62.84000 129.803
63.01000 134.396
63.18000 137.792
63.35000 135.845
63.52000 123.942
63.69000 139.618
63.86000 133.315
64.03000 140.683
64.20000 149.957
64.37000 144.495
64.54000 164.592
64.71000 165.427
64.88000 172.999
65.05000 201.104
65.22000 225.812
65.39000 252.155
65.56000 301.341
65.73000 965.572
65.90000 1941.850
66.07000 507.270
66.24000 381.605
66.41000 644.035
66.58000 412.151
66.75000 357.673
66.92000 366.769
67.09000 370.614
67.26000 378.802
67.43000 409.447
67.60000 447.583
67.77000 460.100
67.94000 500.134
68.11000 533.818
68.28000 571.225
68.45000 631.407
68.62000 897.628
68.79000 1578.484
68.96000 8522.268
69.13000 43847.414
69.30000 24494.996
69.47000 6292.691
69.64000 899.929
69.81000 641.822
69.98000 505.476
70.00000 500.026