File: XRD/XRD/07-10-2025 Dep 6/XY Data/BTO_Mapping_Theta2Theta_07-10-2025_001_19_-2-091_19-890.xy
20.00000 472.273
20.17000 491.038
20.34000 462.895
20.51000 455.735
20.68000 461.623
20.85000 466.594
21.02000 434.210
21.19000 463.102
21.36000 472.780
21.53000 462.673
21.70000 449.142
21.87000 484.465
22.04000 522.005
22.21000 493.297
22.38000 442.724
22.55000 460.083
22.72000 414.902
22.89000 431.848
23.06000 430.795
23.23000 426.947
23.40000 436.939
23.57000 422.253
23.74000 436.529
23.91000 485.966
24.08000 468.879
24.25000 433.371
24.42000 397.548
24.59000 420.871
24.76000 401.970
24.93000 394.214
25.10000 410.476
25.27000 384.182
25.44000 400.139
25.61000 398.649
25.78000 405.780
25.95000 365.195
26.12000 413.525
26.29000 371.354
26.46000 381.633
26.63000 364.957
26.80000 392.401
26.97000 385.897
27.14000 355.534
27.31000 362.098
27.48000 369.929
27.65000 359.601
27.82000 352.576
27.99000 359.653
28.16000 356.401
28.33000 359.728
28.50000 344.203
28.67000 348.710
28.84000 340.369
29.01000 347.776
29.18000 335.371
29.35000 367.914
29.52000 342.007
29.69000 343.994
29.86000 383.390
30.03000 379.437
30.20000 375.251
30.37000 346.387
30.54000 379.901
30.71000 369.860
30.88000 380.801
31.05000 467.790
31.22000 820.159
31.39000 1247.218
31.56000 885.252
31.73000 477.643
31.90000 362.568
32.07000 331.154
32.24000 349.060
32.41000 353.606
32.58000 318.990
32.75000 319.054
32.92000 506.982
33.09000 410.868
33.26000 290.615
33.43000 282.497
33.60000 300.055
33.77000 291.983
33.94000 290.443
34.11000 306.180
34.28000 328.791
34.45000 324.508
34.62000 306.527
34.79000 286.442
34.96000 266.908
35.13000 267.581
35.30000 259.282
35.47000 271.835
35.64000 249.759
35.81000 257.618
35.98000 251.182
36.15000 261.282
36.32000 267.978
36.49000 247.148
36.66000 238.838
36.83000 267.281
37.00000 272.366
37.17000 259.187
37.34000 255.115
37.51000 263.024
37.68000 248.334
37.85000 251.514
38.02000 265.169
38.19000 257.713
38.36000 292.501
38.53000 471.948
38.70000 852.923
38.87000 624.163
39.04000 319.117
39.21000 236.158
39.38000 245.118
39.55000 245.014
39.72000 215.439
39.89000 226.337
40.06000 221.401
40.23000 214.652
40.40000 226.743
40.57000 214.096
40.74000 205.692
40.91000 213.045
41.08000 217.426
41.25000 207.314
41.42000 200.739
41.59000 198.380
41.76000 203.786
41.93000 203.462
42.10000 210.515
42.27000 209.266
42.44000 198.122
42.61000 202.957
42.78000 201.155
42.95000 203.778
43.12000 189.340
43.29000 191.353
43.46000 188.150
43.63000 192.968
43.80000 204.445
43.97000 195.449
44.14000 185.168
44.31000 184.340
44.48000 212.276
44.65000 214.294
44.82000 214.214
44.99000 220.519
45.16000 220.346
45.33000 216.630
45.50000 198.502
45.67000 198.268
45.84000 175.287
46.01000 185.478
46.18000 174.487
46.35000 174.478
46.52000 173.899
46.69000 165.946
46.86000 172.463
47.03000 174.955
47.20000 161.271
47.37000 148.734
47.54000 150.436
47.71000 148.610
47.88000 163.531
48.05000 163.918
48.22000 163.619
48.39000 169.534
48.56000 157.044
48.73000 151.721
48.90000 150.568
49.07000 138.361
49.24000 160.563
49.41000 152.794
49.58000 142.207
49.75000 150.335
49.92000 149.937
50.09000 155.778
50.26000 166.017
50.43000 146.970
50.60000 167.302
50.77000 158.013
50.94000 156.634
51.11000 151.891
51.28000 152.352
51.45000 141.543
51.62000 143.274
51.79000 132.992
51.96000 151.579
52.13000 131.987
52.30000 142.009
52.47000 137.767
52.64000 138.863
52.81000 128.789
52.98000 141.763
53.15000 140.522
53.32000 149.855
53.49000 150.719
53.66000 142.269
53.83000 140.678
54.00000 138.739
54.17000 138.471
54.34000 138.872
54.51000 139.251
54.68000 142.575
54.85000 147.901
55.02000 141.051
55.19000 134.752
55.36000 151.272
55.53000 193.408
55.70000 289.920
55.87000 464.421
56.04000 483.643
56.21000 312.194
56.38000 188.616
56.55000 149.090
56.72000 149.169
56.89000 133.139
57.06000 128.706
57.23000 121.774
57.40000 123.638
57.57000 131.827
57.74000 123.260
57.91000 121.239
58.08000 124.581
58.25000 124.869
58.42000 120.638
58.59000 122.277
58.76000 120.598
58.93000 119.836
59.10000 119.884
59.27000 116.287
59.44000 116.970
59.61000 111.359
59.78000 123.134
59.95000 119.657
60.12000 120.518
60.29000 117.815
60.46000 117.124
60.63000 117.128
60.80000 118.408
60.97000 116.048
61.14000 123.652
61.31000 120.872
61.48000 130.112
61.65000 285.247
61.82000 196.448
61.99000 127.963
62.16000 113.760
62.33000 125.914
62.50000 127.740
62.67000 123.063
62.84000 124.435
63.01000 138.929
63.18000 121.733
63.35000 123.305
63.52000 129.337
63.69000 133.224
63.86000 140.070
64.03000 142.570
64.20000 147.852
64.37000 156.299
64.54000 155.408
64.71000 170.537
64.88000 185.321
65.05000 190.814
65.22000 211.202
65.39000 259.285
65.56000 316.785
65.73000 1046.004
65.90000 1921.582
66.07000 493.060
66.24000 375.343
66.41000 620.272
66.58000 432.413
66.75000 362.125
66.92000 353.884
67.09000 374.558
67.26000 390.096
67.43000 413.178
67.60000 437.813
67.77000 460.614
67.94000 480.051
68.11000 532.422
68.28000 552.451
68.45000 642.918
68.62000 894.731
68.79000 1594.561
68.96000 9413.045
69.13000 43933.207
69.30000 23621.666
69.47000 5687.755
69.64000 883.997
69.81000 611.408
69.98000 510.533
70.00000 495.864