File: XRD/XRD/07-10-2025 Dep 6/XY Data/BTO_Mapping_Theta2Theta_07-10-2025_001_09_36-542_16-269.xy
20.00000 475.443
20.17000 450.613
20.34000 472.750
20.51000 472.768
20.68000 482.712
20.85000 457.274
21.02000 460.215
21.19000 445.843
21.36000 451.651
21.53000 478.325
21.70000 444.467
21.87000 469.378
22.04000 502.604
22.21000 455.680
22.38000 469.685
22.55000 461.715
22.72000 455.812
22.89000 433.154
23.06000 454.602
23.23000 429.957
23.40000 454.341
23.57000 453.919
23.74000 456.259
23.91000 482.450
24.08000 474.830
24.25000 465.611
24.42000 416.004
24.59000 426.563
24.76000 419.791
24.93000 396.672
25.10000 398.235
25.27000 391.645
25.44000 404.918
25.61000 389.159
25.78000 389.785
25.95000 385.673
26.12000 392.990
26.29000 383.628
26.46000 390.240
26.63000 368.150
26.80000 377.769
26.97000 356.264
27.14000 363.750
27.31000 366.673
27.48000 369.467
27.65000 388.251
27.82000 366.120
27.99000 378.289
28.16000 360.101
28.33000 361.508
28.50000 361.307
28.67000 383.422
28.84000 376.396
29.01000 383.761
29.18000 362.121
29.35000 352.503
29.52000 367.574
29.69000 350.026
29.86000 365.036
30.03000 371.542
30.20000 373.625
30.37000 342.799
30.54000 360.461
30.71000 376.194
30.88000 395.942
31.05000 468.022
31.22000 669.496
31.39000 844.388
31.56000 669.218
31.73000 468.392
31.90000 414.611
32.07000 373.980
32.24000 350.666
32.41000 323.731
32.58000 337.275
32.75000 320.984
32.92000 517.862
33.09000 447.355
33.26000 302.535
33.43000 299.854
33.60000 298.811
33.77000 295.947
33.94000 303.286
34.11000 306.826
34.28000 298.222
34.45000 301.904
34.62000 288.350
34.79000 292.628
34.96000 287.496
35.13000 263.475
35.30000 286.898
35.47000 269.399
35.64000 261.328
35.81000 264.048
35.98000 254.958
36.15000 260.251
36.32000 264.483
36.49000 264.947
36.66000 253.072
36.83000 244.231
37.00000 266.062
37.17000 253.650
37.34000 250.549
37.51000 244.518
37.68000 250.469
37.85000 248.625
38.02000 248.566
38.19000 272.567
38.36000 274.673
38.53000 367.718
38.70000 466.881
38.87000 376.440
39.04000 261.272
39.21000 248.538
39.38000 255.005
39.55000 240.589
39.72000 241.244
39.89000 225.088
40.06000 216.521
40.23000 215.663
40.40000 211.013
40.57000 221.582
40.74000 221.781
40.91000 214.695
41.08000 207.917
41.25000 208.200
41.42000 205.147
41.59000 201.983
41.76000 197.340
41.93000 209.825
42.10000 203.069
42.27000 204.183
42.44000 222.488
42.61000 202.986
42.78000 199.489
42.95000 195.610
43.12000 182.560
43.29000 189.831
43.46000 196.050
43.63000 181.369
43.80000 201.514
43.97000 201.349
44.14000 193.103
44.31000 193.488
44.48000 196.736
44.65000 201.770
44.82000 209.829
44.99000 222.216
45.16000 212.027
45.33000 196.136
45.50000 212.988
45.67000 188.123
45.84000 190.350
46.01000 176.504
46.18000 176.303
46.35000 171.992
46.52000 179.147
46.69000 167.705
46.86000 172.346
47.03000 171.621
47.20000 160.674
47.37000 158.542
47.54000 163.096
47.71000 162.958
47.88000 153.790
48.05000 164.759
48.22000 160.923
48.39000 147.926
48.56000 160.596
48.73000 170.203
48.90000 164.319
49.07000 150.426
49.24000 157.130
49.41000 150.944
49.58000 156.581
49.75000 149.611
49.92000 162.093
50.09000 157.789
50.26000 154.922
50.43000 155.844
50.60000 166.811
50.77000 156.578
50.94000 161.391
51.11000 154.259
51.28000 154.797
51.45000 139.997
51.62000 144.032
51.79000 135.344
51.96000 142.421
52.13000 149.374
52.30000 139.045
52.47000 144.070
52.64000 133.738
52.81000 136.991
52.98000 132.796
53.15000 151.647
53.32000 142.698
53.49000 131.295
53.66000 140.955
53.83000 134.574
54.00000 130.618
54.17000 131.806
54.34000 139.945
54.51000 134.065
54.68000 135.476
54.85000 141.428
55.02000 138.155
55.19000 144.651
55.36000 145.920
55.53000 168.986
55.70000 188.994
55.87000 212.953
56.04000 213.522
56.21000 184.686
56.38000 153.430
56.55000 150.487
56.72000 136.682
56.89000 128.078
57.06000 130.950
57.23000 121.292
57.40000 123.785
57.57000 128.305
57.74000 117.870
57.91000 128.015
58.08000 116.140
58.25000 122.312
58.42000 116.992
58.59000 117.007
58.76000 118.872
58.93000 116.843
59.10000 115.890
59.27000 118.794
59.44000 111.256
59.61000 119.815
59.78000 112.912
59.95000 118.952
60.12000 112.836
60.29000 115.955
60.46000 120.971
60.63000 116.839
60.80000 121.311
60.97000 117.224
61.14000 124.618
61.31000 117.695
61.48000 142.262
61.65000 280.482
61.82000 207.049
61.99000 132.201
62.16000 125.886
62.33000 126.694
62.50000 130.617
62.67000 122.118
62.84000 132.674
63.01000 134.568
63.18000 132.042
63.35000 139.136
63.52000 131.108
63.69000 143.190
63.86000 146.504
64.03000 140.215
64.20000 149.561
64.37000 158.326
64.54000 153.787
64.71000 183.516
64.88000 173.433
65.05000 199.208
65.22000 214.545
65.39000 243.462
65.56000 308.930
65.73000 937.254
65.90000 2041.988
66.07000 546.755
66.24000 415.430
66.41000 661.983
66.58000 445.217
66.75000 369.498
66.92000 382.437
67.09000 381.472
67.26000 423.489
67.43000 434.971
67.60000 461.971
67.77000 475.365
67.94000 495.610
68.11000 555.200
68.28000 575.393
68.45000 688.191
68.62000 918.119
68.79000 1607.082
68.96000 7927.593
69.13000 45857.832
69.30000 26185.281
69.47000 7099.569
69.64000 951.284
69.81000 652.400
69.98000 516.859
70.00000 503.100