File: XRD/XRD/07-10-2025 Dep 6/XY Data/BTO_Mapping_Theta2Theta_07-10-2025_001_03_20-000_0-000.xy
20.00000 482.616
20.17000 491.439
20.34000 468.676
20.51000 471.121
20.68000 462.246
20.85000 469.919
21.02000 460.494
21.19000 453.220
21.36000 426.644
21.53000 469.111
21.70000 479.356
21.87000 479.574
22.04000 498.225
22.21000 480.382
22.38000 458.508
22.55000 444.907
22.72000 447.669
22.89000 442.648
23.06000 444.988
23.23000 456.471
23.40000 450.498
23.57000 454.004
23.74000 466.085
23.91000 524.152
24.08000 498.152
24.25000 460.686
24.42000 434.243
24.59000 406.177
24.76000 424.022
24.93000 393.456
25.10000 406.615
25.27000 407.591
25.44000 387.193
25.61000 382.711
25.78000 399.407
25.95000 386.330
26.12000 396.396
26.29000 383.179
26.46000 382.305
26.63000 377.257
26.80000 370.258
26.97000 381.036
27.14000 374.661
27.31000 363.500
27.48000 385.674
27.65000 362.621
27.82000 375.562
27.99000 354.467
28.16000 378.175
28.33000 361.546
28.50000 367.197
28.67000 357.703
28.84000 373.483
29.01000 361.492
29.18000 338.249
29.35000 348.428
29.52000 350.143
29.69000 365.563
29.86000 379.387
30.03000 375.716
30.20000 375.923
30.37000 381.292
30.54000 366.579
30.71000 383.382
30.88000 407.892
31.05000 505.595
31.22000 815.046
31.39000 1018.259
31.56000 710.115
31.73000 486.650
31.90000 394.096
32.07000 358.039
32.24000 361.488
32.41000 354.592
32.58000 308.594
32.75000 330.348
32.92000 489.612
33.09000 437.591
33.26000 295.131
33.43000 283.317
33.60000 289.035
33.77000 280.379
33.94000 303.805
34.11000 310.634
34.28000 321.535
34.45000 309.768
34.62000 312.536
34.79000 263.744
34.96000 267.590
35.13000 276.298
35.30000 281.265
35.47000 265.439
35.64000 268.869
35.81000 259.044
35.98000 261.981
36.15000 269.454
36.32000 270.850
36.49000 251.803
36.66000 256.397
36.83000 255.959
37.00000 265.633
37.17000 262.990
37.34000 255.237
37.51000 249.958
37.68000 227.915
37.85000 264.282
38.02000 240.946
38.19000 260.791
38.36000 290.647
38.53000 453.213
38.70000 687.169
38.87000 486.586
39.04000 284.756
39.21000 232.049
39.38000 232.717
39.55000 248.101
39.72000 237.002
39.89000 231.721
40.06000 228.856
40.23000 224.029
40.40000 214.376
40.57000 223.122
40.74000 204.851
40.91000 223.720
41.08000 218.737
41.25000 205.519
41.42000 211.533
41.59000 213.486
41.76000 199.707
41.93000 214.106
42.10000 222.528
42.27000 208.139
42.44000 205.854
42.61000 199.014
42.78000 196.753
42.95000 198.707
43.12000 205.676
43.29000 194.902
43.46000 198.296
43.63000 201.539
43.80000 188.673
43.97000 190.982
44.14000 199.349
44.31000 198.000
44.48000 211.500
44.65000 207.563
44.82000 220.314
44.99000 223.320
45.16000 220.257
45.33000 208.107
45.50000 190.199
45.67000 190.969
45.84000 176.047
46.01000 178.016
46.18000 183.073
46.35000 183.251
46.52000 170.875
46.69000 181.035
46.86000 174.026
47.03000 180.631
47.20000 169.493
47.37000 165.598
47.54000 167.395
47.71000 167.844
47.88000 168.120
48.05000 159.038
48.22000 152.724
48.39000 144.847
48.56000 161.925
48.73000 156.832
48.90000 153.671
49.07000 154.750
49.24000 158.723
49.41000 154.475
49.58000 154.339
49.75000 154.936
49.92000 151.241
50.09000 149.952
50.26000 148.657
50.43000 155.067
50.60000 164.636
50.77000 156.744
50.94000 154.677
51.11000 145.139
51.28000 149.425
51.45000 134.676
51.62000 133.710
51.79000 144.363
51.96000 142.694
52.13000 147.653
52.30000 144.904
52.47000 136.765
52.64000 148.772
52.81000 134.644
52.98000 142.552
53.15000 148.524
53.32000 138.100
53.49000 136.251
53.66000 141.930
53.83000 137.376
54.00000 144.634
54.17000 150.729
54.34000 136.993
54.51000 133.746
54.68000 141.991
54.85000 147.886
55.02000 148.264
55.19000 145.530
55.36000 157.041
55.53000 180.112
55.70000 250.514
55.87000 319.512
56.04000 314.707
56.21000 232.212
56.38000 179.105
56.55000 158.693
56.72000 140.362
56.89000 132.963
57.06000 129.962
57.23000 125.343
57.40000 123.474
57.57000 129.017
57.74000 137.417
57.91000 125.627
58.08000 125.032
58.25000 121.507
58.42000 119.114
58.59000 116.085
58.76000 119.744
58.93000 120.114
59.10000 122.337
59.27000 120.499
59.44000 123.030
59.61000 118.570
59.78000 119.213
59.95000 110.690
60.12000 121.730
60.29000 123.796
60.46000 119.119
60.63000 106.304
60.80000 128.386
60.97000 124.531
61.14000 130.988
61.31000 125.369
61.48000 136.440
61.65000 278.968
61.82000 197.636
61.99000 126.980
62.16000 124.275
62.33000 118.779
62.50000 121.034
62.67000 125.916
62.84000 129.486
63.01000 130.388
63.18000 137.765
63.35000 139.730
63.52000 145.028
63.69000 138.390
63.86000 135.038
64.03000 150.087
64.20000 147.951
64.37000 155.732
64.54000 161.117
64.71000 169.673
64.88000 185.133
65.05000 185.683
65.22000 219.701
65.39000 249.539
65.56000 310.657
65.73000 997.717
65.90000 1970.844
66.07000 502.749
66.24000 394.017
66.41000 633.594
66.58000 426.551
66.75000 348.098
66.92000 362.473
67.09000 393.032
67.26000 402.587
67.43000 413.527
67.60000 417.103
67.77000 470.389
67.94000 495.148
68.11000 539.951
68.28000 571.080
68.45000 646.607
68.62000 879.347
68.79000 1576.770
68.96000 8693.085
69.13000 44478.676
69.30000 24543.416
69.47000 6116.302
69.64000 906.919
69.81000 625.631
69.98000 514.182
70.00000 510.687