File: XRD/22-09-2025 Dep 2/XY Data/BTO_Mapping_Theta2Theta_22-09-2025_001_16_31-174_39-092.xy
20.00000 1328.750
20.17000 1278.489
20.34000 1283.526
20.51000 1250.024
20.68000 1215.813
20.85000 1209.228
21.02000 1230.801
21.19000 1190.438
21.36000 1169.162
21.53000 1164.723
21.70000 1183.452
21.87000 1180.763
22.04000 1131.471
22.21000 1128.490
22.38000 1105.470
22.55000 1118.701
22.72000 1086.804
22.89000 1069.072
23.06000 1075.080
23.23000 1057.820
23.40000 1052.117
23.57000 1008.277
23.74000 999.692
23.91000 1020.139
24.08000 966.675
24.25000 1014.035
24.42000 995.708
24.59000 963.276
24.76000 941.211
24.93000 941.641
25.10000 929.183
25.27000 928.590
25.44000 930.843
25.61000 909.233
25.78000 899.602
25.95000 881.885
26.12000 901.899
26.29000 883.966
26.46000 882.821
26.63000 863.361
26.80000 860.170
26.97000 834.762
27.14000 857.659
27.31000 835.582
27.48000 849.050
27.65000 832.422
27.82000 833.941
27.99000 842.276
28.16000 822.385
28.33000 836.652
28.50000 799.155
28.67000 804.621
28.84000 813.600
29.01000 800.736
29.18000 793.738
29.35000 802.747
29.52000 823.821
29.69000 837.780
29.86000 794.045
30.03000 792.542
30.20000 790.770
30.37000 800.557
30.54000 801.604
30.71000 786.911
30.88000 804.223
31.05000 773.495
31.22000 785.433
31.39000 802.685
31.56000 835.764
31.73000 797.801
31.90000 813.370
32.07000 808.479
32.24000 816.478
32.41000 801.805
32.58000 813.271
32.75000 828.441
32.92000 807.515
33.09000 824.661
33.26000 804.098
33.43000 854.964
33.60000 841.305
33.77000 826.947
33.94000 849.832
34.11000 856.913
34.28000 838.258
34.45000 849.332
34.62000 879.495
34.79000 863.765
34.96000 866.292
35.13000 915.612
35.30000 891.656
35.47000 889.951
35.64000 901.636
35.81000 892.080
35.98000 895.789
36.15000 936.950
36.32000 927.601
36.49000 930.992
36.66000 931.952
36.83000 964.267
37.00000 943.714
37.17000 963.406
37.34000 946.459
37.51000 964.725
37.68000 974.464
37.85000 959.313
38.02000 978.320
38.19000 969.158
38.36000 1011.161
38.53000 1012.337
38.70000 1030.592
38.87000 1026.135
39.04000 1050.560
39.21000 1054.041
39.38000 1022.641
39.55000 1066.226
39.72000 1099.640
39.89000 1078.886
40.06000 1089.672
40.23000 1114.386
40.40000 1100.385
40.57000 1112.125
40.74000 1125.385
40.91000 1146.776
41.08000 1131.061
41.25000 1152.006
41.42000 1146.601
41.59000 1156.212
41.76000 1158.079
41.93000 1162.413
42.10000 1202.744
42.27000 1241.942
42.44000 1180.027
42.61000 1213.641
42.78000 1227.359
42.95000 1260.866
43.12000 1277.438
43.29000 1286.706
43.46000 1309.795
43.63000 1383.837
43.80000 1529.604
43.97000 2150.460
44.14000 3777.650
44.31000 4291.740
44.48000 2593.552
44.65000 1651.283
44.82000 1428.924
44.99000 1376.150
45.16000 1362.805
45.33000 1337.616
45.50000 1311.016
45.67000 1357.882
45.84000 1341.267
46.01000 1385.125
46.18000 1370.245
46.35000 1381.686
46.52000 1357.065
46.69000 1374.970
46.86000 1412.581
47.03000 1372.866
47.20000 1391.440
47.37000 1390.544
47.54000 1393.211
47.71000 1426.406
47.88000 1437.305
48.05000 1454.815
48.22000 1477.172
48.39000 1435.425
48.56000 1475.148
48.73000 1453.201
48.90000 1492.368
49.07000 1489.197
49.24000 1486.347
49.41000 1485.265
49.58000 1510.665
49.75000 1510.089
49.92000 1503.999
50.09000 1514.187
50.26000 1513.464
50.43000 1494.330
50.60000 1550.568
50.77000 1539.791
50.94000 1534.672
51.11000 1526.337
51.28000 1561.922
51.45000 1543.044
51.62000 1525.186
51.79000 1555.354
51.96000 1564.167
52.13000 1588.372
52.30000 1582.610
52.47000 1585.176
52.64000 1580.098
52.81000 1591.544
52.98000 1588.210
53.15000 1624.039
53.32000 1605.149
53.49000 1590.533
53.66000 1650.590
53.83000 1633.430
54.00000 1621.322
54.17000 1644.102
54.34000 1662.314
54.51000 1620.210
54.68000 1681.094
54.85000 1670.974
55.02000 1679.588
55.19000 1666.682
55.36000 1648.804
55.53000 1645.115
55.70000 1690.512
55.87000 1687.100
56.04000 1692.603
56.21000 1679.294
56.38000 1684.896
56.55000 1715.174
56.72000 1708.246
56.89000 1706.600
57.06000 1736.890
57.23000 1714.234
57.40000 1714.380
57.57000 1754.728
57.74000 1752.200
57.91000 1708.432
58.08000 1691.261
58.25000 1747.410
58.42000 1746.532
58.59000 1761.679
58.76000 1753.650
58.93000 1741.520
59.10000 1745.977
59.27000 1777.444
59.44000 1771.543
59.61000 1744.333
59.78000 1787.047
59.95000 1778.206
60.12000 1811.425
60.29000 1806.387
60.46000 1795.391
60.63000 1811.223
60.80000 1787.833
60.97000 1771.587
61.14000 1805.170
61.31000 1816.448
61.48000 1795.139
61.65000 1828.993
61.82000 1800.987
61.99000 1812.535
62.16000 1815.687
62.33000 1836.927
62.50000 1830.942
62.67000 1860.666
62.84000 1844.303
63.01000 1833.834
63.18000 1863.344
63.35000 1903.770
63.52000 1879.282
63.69000 1864.787
63.86000 1876.388
64.03000 1925.812
64.20000 1939.508
64.37000 2050.249
64.54000 2184.249
64.71000 2093.803
64.88000 2051.681
65.05000 1932.611
65.22000 1916.362
65.39000 1943.419
65.56000 1930.123
65.73000 2049.995
65.90000 2018.911
66.07000 1962.454
66.24000 1905.113
66.41000 1916.468
66.58000 1910.947
66.75000 1956.120
66.92000 1957.687
67.09000 1976.255
67.26000 1968.114
67.43000 1986.260
67.60000 1980.270
67.77000 1968.323
67.94000 1990.150
68.11000 2000.832
68.28000 2078.520
68.45000 2060.865
68.62000 2174.189
68.79000 2388.226
68.96000 10174.605
69.13000 15318.321
69.30000 8368.101
69.47000 2433.269
69.64000 2153.607
69.81000 2101.307
69.98000 2030.223
70.00000 2020.451