File: XRD/22-09-2025 Dep 2/XY Data/BTO_Mapping_Theta2Theta_22-09-2025_001_62_6-235_-7-818.xy
20.00000 587.590
20.17000 580.102
20.34000 575.828
20.51000 573.773
20.68000 570.195
20.85000 551.400
21.02000 554.731
21.19000 560.339
21.36000 544.531
21.53000 564.561
21.70000 571.240
21.87000 679.167
22.04000 788.755
22.21000 756.245
22.38000 628.092
22.55000 546.335
22.72000 542.734
22.89000 511.908
23.06000 517.367
23.23000 519.888
23.40000 507.043
23.57000 495.691
23.74000 503.833
23.91000 502.482
24.08000 517.703
24.25000 492.716
24.42000 470.928
24.59000 492.959
24.76000 485.684
24.93000 472.250
25.10000 478.328
25.27000 486.233
25.44000 464.262
25.61000 469.347
25.78000 481.124
25.95000 488.018
26.12000 467.527
26.29000 451.959
26.46000 461.068
26.63000 459.429
26.80000 445.226
26.97000 465.186
27.14000 441.051
27.31000 434.717
27.48000 431.044
27.65000 438.588
27.82000 448.878
27.99000 441.047
28.16000 420.225
28.33000 437.164
28.50000 421.416
28.67000 438.466
28.84000 415.238
29.01000 417.430
29.18000 413.194
29.35000 421.856
29.52000 420.191
29.69000 404.606
29.86000 417.613
30.03000 456.503
30.20000 460.720
30.37000 438.396
30.54000 437.967
30.71000 466.736
30.88000 522.296
31.05000 715.841
31.22000 1811.766
31.39000 3451.128
31.56000 2133.874
31.73000 867.512
31.90000 534.217
32.07000 441.810
32.24000 418.287
32.41000 409.326
32.58000 396.731
32.75000 389.572
32.92000 433.251
33.09000 384.775
33.26000 345.712
33.43000 352.689
33.60000 345.586
33.77000 341.472
33.94000 330.984
34.11000 354.487
34.28000 346.135
34.45000 334.946
34.62000 330.228
34.79000 333.608
34.96000 318.151
35.13000 302.305
35.30000 313.812
35.47000 318.083
35.64000 307.050
35.81000 298.220
35.98000 302.152
36.15000 298.831
36.32000 309.948
36.49000 297.285
36.66000 335.435
36.83000 310.162
37.00000 300.419
37.17000 307.728
37.34000 302.049
37.51000 293.101
37.68000 289.771
37.85000 299.489
38.02000 296.933
38.19000 331.217
38.36000 365.368
38.53000 549.338
38.70000 992.509
38.87000 771.076
39.04000 410.441
39.21000 314.948
39.38000 294.904
39.55000 290.018
39.72000 280.479
39.89000 272.126
40.06000 263.299
40.23000 272.839
40.40000 256.790
40.57000 254.225
40.74000 261.616
40.91000 248.987
41.08000 246.653
41.25000 248.237
41.42000 244.853
41.59000 246.479
41.76000 239.538
41.93000 239.010
42.10000 253.054
42.27000 234.276
42.44000 250.152
42.61000 226.372
42.78000 228.520
42.95000 231.720
43.12000 229.360
43.29000 234.156
43.46000 229.148
43.63000 226.645
43.80000 226.813
43.97000 230.002
44.14000 230.128
44.31000 233.154
44.48000 237.680
44.65000 244.658
44.82000 298.030
44.99000 390.762
45.16000 403.652
45.33000 363.734
45.50000 290.669
45.67000 264.034
45.84000 231.829
46.01000 220.556
46.18000 208.395
46.35000 201.875
46.52000 198.401
46.69000 204.344
46.86000 199.430
47.03000 193.643
47.20000 198.018
47.37000 194.897
47.54000 191.256
47.71000 178.059
47.88000 201.362
48.05000 194.006
48.22000 186.982
48.39000 182.354
48.56000 191.240
48.73000 184.848
48.90000 190.251
49.07000 179.622
49.24000 175.352
49.41000 177.290
49.58000 181.593
49.75000 188.906
49.92000 177.667
50.09000 169.855
50.26000 181.674
50.43000 208.475
50.60000 220.337
50.77000 262.815
50.94000 238.928
51.11000 198.505
51.28000 190.953
51.45000 168.984
51.62000 164.710
51.79000 166.533
51.96000 164.093
52.13000 161.208
52.30000 161.031
52.47000 160.141
52.64000 155.165
52.81000 159.789
52.98000 160.911
53.15000 158.934
53.32000 156.122
53.49000 172.186
53.66000 151.654
53.83000 156.488
54.00000 161.936
54.17000 155.922
54.34000 155.152
54.51000 163.747
54.68000 164.927
54.85000 158.554
55.02000 169.470
55.19000 168.231
55.36000 182.188
55.53000 197.248
55.70000 279.459
55.87000 481.716
56.04000 541.877
56.21000 374.612
56.38000 235.128
56.55000 184.782
56.72000 165.732
56.89000 160.859
57.06000 152.572
57.23000 154.422
57.40000 144.306
57.57000 147.556
57.74000 132.393
57.91000 144.361
58.08000 143.110
58.25000 138.802
58.42000 138.619
58.59000 143.968
58.76000 137.514
58.93000 137.000
59.10000 140.616
59.27000 133.057
59.44000 134.464
59.61000 139.580
59.78000 133.269
59.95000 131.634
60.12000 128.368
60.29000 135.844
60.46000 135.015
60.63000 129.136
60.80000 127.896
60.97000 136.355
61.14000 135.057
61.31000 143.809
61.48000 147.149
61.65000 304.610
61.82000 212.792
61.99000 139.926
62.16000 159.774
62.33000 139.260
62.50000 147.386
62.67000 150.043
62.84000 142.180
63.01000 154.480
63.18000 145.868
63.35000 154.266
63.52000 152.744
63.69000 146.941
63.86000 157.372
64.03000 168.336
64.20000 162.020
64.37000 170.617
64.54000 171.647
64.71000 179.237
64.88000 195.319
65.05000 191.597
65.22000 232.669
65.39000 327.829
65.56000 448.696
65.73000 785.248
65.90000 1291.815
66.07000 447.559
66.24000 348.239
66.41000 498.949
66.58000 389.715
66.75000 337.282
66.92000 359.111
67.09000 383.024
67.26000 396.940
67.43000 429.863
67.60000 462.806
67.77000 507.269
67.94000 536.354
68.11000 589.469
68.28000 670.615
68.45000 806.853
68.62000 1171.563
68.79000 2266.122
68.96000 15331.520
69.13000 72922.391
69.30000 43673.094
69.47000 10900.998
69.64000 1463.210
69.81000 929.919
69.98000 765.156
70.00000 734.231