File: XRD/22-09-2025 Dep 2/XY Data/BTO_Mapping_Theta2Theta_22-09-2025_001_18_4-450_19-499.xy
20.00000 570.324
20.17000 575.092
20.34000 571.135
20.51000 567.143
20.68000 553.812
20.85000 574.387
21.02000 569.325
21.19000 529.297
21.36000 533.189
21.53000 578.796
21.70000 592.702
21.87000 657.236
22.04000 778.750
22.21000 728.435
22.38000 617.204
22.55000 546.463
22.72000 548.249
22.89000 520.042
23.06000 501.998
23.23000 525.537
23.40000 518.408
23.57000 506.180
23.74000 509.867
23.91000 508.345
24.08000 517.904
24.25000 492.523
24.42000 487.135
24.59000 491.022
24.76000 488.771
24.93000 458.423
25.10000 480.616
25.27000 467.921
25.44000 467.925
25.61000 455.787
25.78000 487.323
25.95000 452.989
26.12000 463.766
26.29000 449.389
26.46000 466.645
26.63000 482.600
26.80000 452.628
26.97000 448.430
27.14000 468.030
27.31000 435.154
27.48000 427.779
27.65000 432.936
27.82000 427.502
27.99000 424.893
28.16000 427.866
28.33000 420.849
28.50000 400.740
28.67000 429.710
28.84000 412.979
29.01000 420.800
29.18000 416.887
29.35000 426.552
29.52000 412.501
29.69000 438.032
29.86000 438.625
30.03000 437.083
30.20000 440.328
30.37000 457.124
30.54000 429.391
30.71000 470.770
30.88000 489.356
31.05000 697.990
31.22000 1771.895
31.39000 3440.877
31.56000 2131.405
31.73000 826.072
31.90000 509.095
32.07000 422.221
32.24000 411.281
32.41000 402.902
32.58000 394.269
32.75000 396.939
32.92000 400.613
33.09000 373.003
33.26000 348.294
33.43000 345.596
33.60000 356.337
33.77000 344.450
33.94000 358.987
34.11000 331.758
34.28000 343.826
34.45000 343.799
34.62000 331.076
34.79000 326.917
34.96000 299.337
35.13000 330.816
35.30000 337.825
35.47000 309.368
35.64000 302.910
35.81000 300.327
35.98000 312.467
36.15000 306.162
36.32000 319.215
36.49000 301.478
36.66000 306.414
36.83000 298.364
37.00000 301.612
37.17000 304.979
37.34000 305.256
37.51000 296.362
37.68000 294.401
37.85000 288.040
38.02000 300.230
38.19000 294.623
38.36000 371.198
38.53000 573.864
38.70000 974.782
38.87000 779.004
39.04000 391.585
39.21000 304.664
39.38000 276.992
39.55000 269.741
39.72000 280.465
39.89000 279.528
40.06000 268.507
40.23000 269.421
40.40000 262.394
40.57000 249.888
40.74000 254.611
40.91000 267.771
41.08000 243.525
41.25000 253.767
41.42000 248.599
41.59000 245.299
41.76000 244.625
41.93000 241.228
42.10000 221.086
42.27000 234.095
42.44000 231.392
42.61000 239.942
42.78000 235.154
42.95000 229.256
43.12000 228.841
43.29000 222.433
43.46000 225.974
43.63000 213.551
43.80000 214.946
43.97000 218.736
44.14000 220.939
44.31000 231.687
44.48000 243.222
44.65000 251.728
44.82000 313.039
44.99000 383.764
45.16000 419.185
45.33000 362.248
45.50000 293.955
45.67000 268.222
45.84000 230.768
46.01000 231.551
46.18000 209.873
46.35000 204.191
46.52000 214.755
46.69000 197.110
46.86000 201.805
47.03000 197.693
47.20000 194.335
47.37000 199.845
47.54000 190.131
47.71000 180.219
47.88000 176.890
48.05000 183.016
48.22000 179.740
48.39000 177.575
48.56000 192.582
48.73000 180.870
48.90000 177.318
49.07000 169.244
49.24000 169.150
49.41000 180.322
49.58000 182.054
49.75000 174.632
49.92000 171.635
50.09000 173.901
50.26000 179.051
50.43000 191.123
50.60000 237.517
50.77000 256.565
50.94000 239.679
51.11000 190.637
51.28000 170.119
51.45000 186.464
51.62000 168.773
51.79000 161.455
51.96000 158.085
52.13000 156.593
52.30000 162.209
52.47000 154.341
52.64000 164.748
52.81000 155.479
52.98000 165.278
53.15000 167.144
53.32000 151.322
53.49000 166.693
53.66000 161.082
53.83000 155.648
54.00000 155.119
54.17000 156.469
54.34000 146.203
54.51000 156.281
54.68000 160.570
54.85000 153.607
55.02000 155.165
55.19000 172.067
55.36000 174.690
55.53000 204.320
55.70000 275.088
55.87000 464.571
56.04000 555.917
56.21000 375.048
56.38000 248.510
56.55000 203.500
56.72000 173.131
56.89000 163.337
57.06000 150.540
57.23000 144.614
57.40000 136.388
57.57000 139.327
57.74000 146.200
57.91000 144.413
58.08000 149.448
58.25000 143.094
58.42000 133.846
58.59000 135.463
58.76000 147.001
58.93000 133.926
59.10000 141.352
59.27000 142.412
59.44000 147.128
59.61000 137.877
59.78000 138.701
59.95000 132.458
60.12000 132.346
60.29000 143.690
60.46000 136.082
60.63000 129.538
60.80000 129.371
60.97000 135.408
61.14000 138.659
61.31000 134.520
61.48000 164.323
61.65000 300.184
61.82000 215.702
61.99000 145.757
62.16000 140.199
62.33000 144.847
62.50000 143.929
62.67000 153.397
62.84000 151.678
63.01000 150.840
63.18000 142.278
63.35000 152.561
63.52000 155.469
63.69000 156.026
63.86000 153.211
64.03000 151.245
64.20000 159.746
64.37000 167.601
64.54000 176.937
64.71000 165.715
64.88000 180.533
65.05000 210.614
65.22000 240.962
65.39000 329.352
65.56000 432.369
65.73000 825.233
65.90000 1339.083
66.07000 444.430
66.24000 360.194
66.41000 507.301
66.58000 377.171
66.75000 329.714
66.92000 355.962
67.09000 391.627
67.26000 406.348
67.43000 452.498
67.60000 471.422
67.77000 509.213
67.94000 549.225
68.11000 608.103
68.28000 692.429
68.45000 815.102
68.62000 1161.221
68.79000 2423.074
68.96000 17975.957
69.13000 74603.672
69.30000 43517.754
69.47000 10047.087
69.64000 1450.611
69.81000 933.638
69.98000 728.442
70.00000 728.600