File: XRD/22-09-2025 Dep 2/XY Data/BTO_Mapping_Theta2Theta_22-09-2025_001_06_50-000_0-000.xy
20.00000 1368.197
20.17000 1354.104
20.34000 1328.367
20.51000 1344.113
20.68000 1306.248
20.85000 1321.790
21.02000 1301.701
21.19000 1317.891
21.36000 1297.537
21.53000 1228.928
21.70000 1219.860
21.87000 1213.912
22.04000 1185.220
22.21000 1196.290
22.38000 1164.028
22.55000 1149.417
22.72000 1128.152
22.89000 1133.971
23.06000 1133.019
23.23000 1071.150
23.40000 1087.163
23.57000 1075.848
23.74000 1059.921
23.91000 1094.245
24.08000 1068.087
24.25000 1025.885
24.42000 994.937
24.59000 1020.914
24.76000 995.993
24.93000 1001.546
25.10000 969.430
25.27000 960.100
25.44000 961.471
25.61000 920.353
25.78000 929.784
25.95000 934.669
26.12000 913.389
26.29000 930.484
26.46000 877.315
26.63000 894.663
26.80000 885.875
26.97000 889.662
27.14000 885.803
27.31000 851.102
27.48000 876.873
27.65000 851.705
27.82000 854.015
27.99000 824.161
28.16000 829.047
28.33000 799.237
28.50000 798.344
28.67000 801.869
28.84000 798.674
29.01000 785.448
29.18000 786.391
29.35000 741.157
29.52000 780.518
29.69000 764.081
29.86000 724.078
30.03000 763.657
30.20000 737.545
30.37000 713.030
30.54000 703.061
30.71000 701.603
30.88000 708.784
31.05000 683.790
31.22000 684.096
31.39000 683.983
31.56000 682.459
31.73000 675.652
31.90000 675.813
32.07000 665.441
32.24000 662.597
32.41000 651.626
32.58000 635.309
32.75000 621.965
32.92000 617.094
33.09000 612.154
33.26000 621.453
33.43000 609.659
33.60000 595.585
33.77000 597.690
33.94000 604.900
34.11000 616.747
34.28000 580.851
34.45000 580.208
34.62000 571.195
34.79000 547.188
34.96000 558.414
35.13000 549.473
35.30000 552.833
35.47000 546.720
35.64000 532.193
35.81000 537.049
35.98000 533.021
36.15000 549.803
36.32000 518.863
36.49000 519.797
36.66000 522.501
36.83000 524.291
37.00000 503.451
37.17000 505.218
37.34000 492.073
37.51000 491.564
37.68000 464.212
37.85000 489.549
38.02000 473.297
38.19000 499.066
38.36000 476.854
38.53000 455.216
38.70000 451.723
38.87000 478.748
39.04000 452.848
39.21000 449.856
39.38000 448.050
39.55000 459.271
39.72000 436.272
39.89000 435.265
40.06000 429.953
40.23000 421.054
40.40000 412.020
40.57000 430.921
40.74000 431.255
40.91000 436.960
41.08000 422.655
41.25000 417.839
41.42000 414.253
41.59000 401.699
41.76000 393.424
41.93000 421.048
42.10000 404.318
42.27000 390.085
42.44000 399.569
42.61000 381.253
42.78000 378.075
42.95000 395.471
43.12000 384.989
43.29000 387.888
43.46000 387.005
43.63000 402.285
43.80000 399.134
43.97000 411.807
44.14000 451.413
44.31000 443.176
44.48000 393.875
44.65000 395.582
44.82000 382.277
44.99000 382.227
45.16000 389.436
45.33000 369.186
45.50000 370.828
45.67000 368.605
45.84000 361.404
46.01000 365.106
46.18000 366.525
46.35000 374.260
46.52000 378.996
46.69000 358.729
46.86000 369.655
47.03000 355.735
47.20000 363.825
47.37000 356.503
47.54000 332.504
47.71000 373.076
47.88000 351.529
48.05000 359.999
48.22000 355.702
48.39000 354.217
48.56000 353.140
48.73000 376.911
48.90000 344.429
49.07000 350.353
49.24000 362.074
49.41000 377.749
49.58000 349.399
49.75000 359.986
49.92000 356.341
50.09000 360.767
50.26000 364.030
50.43000 370.536
50.60000 360.204
50.77000 358.757
50.94000 382.905
51.11000 358.019
51.28000 356.529
51.45000 352.090
51.62000 370.125
51.79000 374.290
51.96000 369.239
52.13000 371.732
52.30000 361.656
52.47000 360.794
52.64000 383.855
52.81000 370.439
52.98000 367.222
53.15000 362.570
53.32000 384.000
53.49000 364.575
53.66000 388.641
53.83000 380.845
54.00000 380.954
54.17000 389.450
54.34000 379.730
54.51000 355.721
54.68000 391.563
54.85000 409.440
55.02000 391.761
55.19000 389.585
55.36000 403.042
55.53000 393.985
55.70000 404.495
55.87000 415.764
56.04000 412.308
56.21000 401.965
56.38000 414.071
56.55000 398.145
56.72000 391.188
56.89000 408.298
57.06000 409.234
57.23000 420.531
57.40000 416.216
57.57000 408.072
57.74000 418.782
57.91000 413.280
58.08000 453.201
58.25000 440.981
58.42000 433.110
58.59000 440.420
58.76000 453.132
58.93000 430.493
59.10000 431.805
59.27000 449.540
59.44000 457.109
59.61000 441.958
59.78000 460.138
59.95000 454.914
60.12000 463.746
60.29000 470.032
60.46000 459.828
60.63000 478.158
60.80000 475.508
60.97000 471.666
61.14000 468.039
61.31000 496.826
61.48000 469.380
61.65000 463.285
61.82000 485.364
61.99000 516.871
62.16000 498.086
62.33000 491.281
62.50000 517.619
62.67000 508.772
62.84000 485.540
63.01000 504.274
63.18000 540.944
63.35000 516.074
63.52000 545.662
63.69000 550.705
63.86000 533.605
64.03000 561.953
64.20000 569.595
64.37000 613.020
64.54000 635.983
64.71000 605.150
64.88000 588.262
65.05000 558.818
65.22000 574.016
65.39000 568.996
65.56000 578.396
65.73000 614.100
65.90000 603.705
66.07000 591.842
66.24000 590.583
66.41000 591.262
66.58000 585.888
66.75000 603.826
66.92000 617.695
67.09000 598.367
67.26000 631.427
67.43000 612.420
67.60000 619.711
67.77000 614.859
67.94000 629.218
68.11000 646.539
68.28000 614.762
68.45000 644.063
68.62000 689.647
68.79000 720.118
68.96000 3115.827
69.13000 3127.707
69.30000 1716.458
69.47000 766.242
69.64000 749.896
69.81000 758.864
69.98000 745.453
70.00000 768.910