File: XRD/22-09-2025 Dep 2/XY Data/BTO_Mapping_Theta2Theta_22-09-2025_001_49_-18-705_-23-455.xy
20.00000 553.238
20.17000 599.679
20.34000 581.026
20.51000 583.903
20.68000 552.612
20.85000 563.679
21.02000 573.642
21.19000 539.750
21.36000 565.086
21.53000 574.000
21.70000 602.745
21.87000 721.718
22.04000 866.578
22.21000 749.352
22.38000 618.715
22.55000 572.992
22.72000 534.477
22.89000 526.510
23.06000 520.346
23.23000 510.899
23.40000 519.823
23.57000 515.948
23.74000 498.396
23.91000 498.762
24.08000 495.139
24.25000 498.919
24.42000 482.660
24.59000 495.804
24.76000 473.434
24.93000 485.155
25.10000 496.996
25.27000 484.002
25.44000 484.870
25.61000 495.209
25.78000 450.961
25.95000 470.214
26.12000 451.008
26.29000 469.815
26.46000 452.763
26.63000 448.810
26.80000 451.473
26.97000 428.948
27.14000 442.037
27.31000 458.519
27.48000 449.789
27.65000 441.593
27.82000 429.044
27.99000 435.446
28.16000 443.068
28.33000 443.702
28.50000 425.187
28.67000 429.301
28.84000 425.891
29.01000 425.906
29.18000 413.338
29.35000 414.288
29.52000 425.984
29.69000 418.705
29.86000 428.812
30.03000 438.928
30.20000 445.034
30.37000 426.820
30.54000 445.983
30.71000 465.332
30.88000 506.370
31.05000 666.831
31.22000 1766.893
31.39000 3617.477
31.56000 2325.889
31.73000 893.045
31.90000 518.731
32.07000 437.891
32.24000 418.488
32.41000 425.619
32.58000 401.590
32.75000 395.533
32.92000 468.710
33.09000 412.065
33.26000 365.491
33.43000 353.253
33.60000 350.024
33.77000 348.640
33.94000 340.589
34.11000 340.388
34.28000 342.556
34.45000 336.270
34.62000 323.789
34.79000 335.526
34.96000 346.882
35.13000 337.415
35.30000 314.007
35.47000 319.958
35.64000 316.496
35.81000 306.224
35.98000 309.204
36.15000 315.274
36.32000 298.143
36.49000 296.952
36.66000 298.585
36.83000 309.998
37.00000 314.974
37.17000 305.933
37.34000 310.844
37.51000 308.676
37.68000 289.234
37.85000 289.469
38.02000 303.070
38.19000 310.878
38.36000 375.804
38.53000 572.200
38.70000 816.477
38.87000 616.469
39.04000 390.371
39.21000 319.119
39.38000 289.309
39.55000 290.371
39.72000 287.423
39.89000 270.503
40.06000 280.435
40.23000 278.838
40.40000 256.593
40.57000 262.812
40.74000 251.513
40.91000 255.985
41.08000 242.539
41.25000 249.736
41.42000 253.664
41.59000 247.312
41.76000 230.521
41.93000 255.163
42.10000 239.742
42.27000 247.993
42.44000 238.653
42.61000 228.403
42.78000 240.985
42.95000 234.581
43.12000 235.708
43.29000 239.078
43.46000 237.202
43.63000 235.354
43.80000 223.027
43.97000 227.457
44.14000 237.701
44.31000 237.902
44.48000 253.093
44.65000 291.035
44.82000 373.975
44.99000 475.805
45.16000 451.132
45.33000 363.375
45.50000 279.784
45.67000 260.438
45.84000 228.471
46.01000 223.826
46.18000 206.191
46.35000 210.998
46.52000 203.013
46.69000 202.340
46.86000 194.354
47.03000 205.957
47.20000 195.068
47.37000 196.028
47.54000 180.905
47.71000 180.789
47.88000 193.079
48.05000 180.841
48.22000 182.919
48.39000 174.459
48.56000 189.949
48.73000 189.265
48.90000 188.598
49.07000 192.597
49.24000 173.624
49.41000 190.903
49.58000 183.831
49.75000 175.375
49.92000 182.863
50.09000 178.573
50.26000 185.589
50.43000 210.050
50.60000 266.266
50.77000 293.215
50.94000 234.311
51.11000 200.341
51.28000 188.395
51.45000 178.636
51.62000 175.631
51.79000 164.144
51.96000 157.990
52.13000 160.775
52.30000 151.138
52.47000 156.593
52.64000 166.215
52.81000 160.240
52.98000 153.663
53.15000 168.739
53.32000 174.861
53.49000 155.967
53.66000 158.607
53.83000 161.729
54.00000 166.999
54.17000 165.034
54.34000 160.844
54.51000 158.096
54.68000 154.478
54.85000 168.136
55.02000 162.799
55.19000 169.287
55.36000 186.834
55.53000 238.280
55.70000 356.957
55.87000 541.015
56.04000 523.719
56.21000 376.747
56.38000 241.718
56.55000 187.431
56.72000 166.680
56.89000 154.874
57.06000 154.420
57.23000 143.412
57.40000 141.091
57.57000 156.630
57.74000 142.390
57.91000 137.153
58.08000 150.113
58.25000 144.763
58.42000 142.362
58.59000 139.825
58.76000 136.943
58.93000 127.915
59.10000 140.826
59.27000 141.642
59.44000 135.987
59.61000 141.162
59.78000 137.874
59.95000 143.704
60.12000 127.977
60.29000 134.484
60.46000 128.512
60.63000 138.221
60.80000 132.355
60.97000 139.587
61.14000 143.768
61.31000 140.234
61.48000 152.042
61.65000 347.629
61.82000 262.433
61.99000 150.120
62.16000 150.867
62.33000 139.364
62.50000 155.021
62.67000 150.367
62.84000 146.463
63.01000 149.524
63.18000 147.943
63.35000 152.458
63.52000 141.744
63.69000 150.256
63.86000 153.665
64.03000 163.163
64.20000 161.014
64.37000 166.725
64.54000 176.910
64.71000 177.809
64.88000 185.776
65.05000 228.174
65.22000 247.031
65.39000 337.444
65.56000 457.954
65.73000 891.781
65.90000 1676.634
66.07000 536.475
66.24000 369.624
66.41000 586.340
66.58000 448.842
66.75000 377.678
66.92000 386.913
67.09000 413.931
67.26000 431.484
67.43000 477.517
67.60000 509.064
67.77000 565.158
67.94000 597.049
68.11000 686.230
68.28000 750.649
68.45000 917.055
68.62000 1383.330
68.79000 2817.452
68.96000 17877.762
69.13000 97037.852
69.30000 61717.816
69.47000 17190.752
69.64000 1846.662
69.81000 1148.670
69.98000 916.442
70.00000 874.694