File: XRD/22-09-2025 Dep 2/XY Data/BTO_Mapping_Theta2Theta_22-09-2025_001_58_4-450_-19-499.xy
20.00000 576.585
20.17000 560.243
20.34000 577.653
20.51000 546.202
20.68000 561.449
20.85000 580.580
21.02000 537.168
21.19000 564.011
21.36000 556.876
21.53000 560.983
21.70000 595.871
21.87000 644.048
22.04000 777.050
22.21000 746.427
22.38000 617.678
22.55000 573.680
22.72000 540.900
22.89000 504.080
23.06000 528.066
23.23000 526.409
23.40000 519.605
23.57000 510.868
23.74000 511.067
23.91000 501.227
24.08000 495.202
24.25000 487.802
24.42000 506.324
24.59000 488.577
24.76000 496.117
24.93000 495.766
25.10000 475.833
25.27000 489.911
25.44000 459.970
25.61000 470.723
25.78000 476.061
25.95000 466.184
26.12000 456.191
26.29000 442.660
26.46000 472.975
26.63000 442.893
26.80000 448.946
26.97000 436.799
27.14000 449.615
27.31000 439.113
27.48000 459.888
27.65000 426.797
27.82000 454.230
27.99000 418.298
28.16000 417.082
28.33000 448.858
28.50000 436.895
28.67000 412.845
28.84000 424.281
29.01000 409.603
29.18000 419.034
29.35000 414.017
29.52000 397.513
29.69000 422.727
29.86000 409.407
30.03000 451.620
30.20000 443.321
30.37000 438.972
30.54000 446.756
30.71000 447.632
30.88000 508.865
31.05000 694.678
31.22000 1690.726
31.39000 3398.227
31.56000 2265.961
31.73000 881.942
31.90000 536.271
32.07000 436.501
32.24000 401.808
32.41000 404.878
32.58000 390.798
32.75000 382.488
32.92000 443.270
33.09000 380.849
33.26000 362.043
33.43000 359.882
33.60000 333.418
33.77000 353.205
33.94000 324.949
34.11000 348.770
34.28000 338.861
34.45000 324.051
34.62000 326.398
34.79000 327.504
34.96000 320.983
35.13000 322.144
35.30000 325.009
35.47000 329.001
35.64000 317.571
35.81000 290.584
35.98000 310.771
36.15000 294.022
36.32000 299.090
36.49000 301.641
36.66000 310.990
36.83000 282.931
37.00000 289.629
37.17000 298.644
37.34000 291.282
37.51000 282.914
37.68000 296.142
37.85000 286.930
38.02000 287.793
38.19000 304.097
38.36000 352.143
38.53000 552.406
38.70000 970.911
38.87000 785.681
39.04000 404.105
39.21000 322.660
39.38000 292.545
39.55000 265.741
39.72000 270.423
39.89000 264.104
40.06000 274.000
40.23000 273.056
40.40000 268.590
40.57000 258.734
40.74000 260.554
40.91000 255.462
41.08000 247.955
41.25000 249.631
41.42000 252.907
41.59000 249.976
41.76000 253.360
41.93000 244.728
42.10000 238.575
42.27000 245.297
42.44000 243.505
42.61000 240.364
42.78000 240.306
42.95000 235.845
43.12000 244.918
43.29000 237.196
43.46000 229.103
43.63000 245.944
43.80000 228.772
43.97000 223.111
44.14000 223.214
44.31000 223.322
44.48000 248.194
44.65000 245.531
44.82000 300.768
44.99000 412.444
45.16000 430.045
45.33000 363.678
45.50000 295.090
45.67000 259.651
45.84000 246.417
46.01000 223.416
46.18000 206.930
46.35000 195.089
46.52000 207.818
46.69000 206.297
46.86000 207.426
47.03000 203.954
47.20000 197.835
47.37000 188.727
47.54000 196.101
47.71000 183.783
47.88000 183.778
48.05000 186.813
48.22000 194.821
48.39000 176.477
48.56000 185.848
48.73000 171.037
48.90000 183.192
49.07000 175.047
49.24000 169.657
49.41000 163.045
49.58000 191.210
49.75000 178.836
49.92000 185.236
50.09000 177.546
50.26000 174.941
50.43000 207.726
50.60000 244.922
50.77000 260.697
50.94000 224.918
51.11000 199.290
51.28000 181.510
51.45000 181.371
51.62000 165.476
51.79000 175.923
51.96000 163.476
52.13000 169.086
52.30000 170.538
52.47000 159.476
52.64000 160.048
52.81000 157.004
52.98000 160.096
53.15000 155.698
53.32000 141.935
53.49000 159.247
53.66000 153.868
53.83000 152.637
54.00000 155.294
54.17000 151.066
54.34000 158.413
54.51000 160.410
54.68000 168.105
54.85000 162.077
55.02000 160.128
55.19000 173.636
55.36000 186.821
55.53000 203.793
55.70000 280.401
55.87000 484.319
56.04000 546.004
56.21000 386.759
56.38000 243.933
56.55000 208.523
56.72000 160.987
56.89000 163.495
57.06000 147.366
57.23000 146.768
57.40000 155.036
57.57000 127.827
57.74000 153.962
57.91000 144.276
58.08000 145.190
58.25000 138.176
58.42000 137.924
58.59000 141.888
58.76000 141.057
58.93000 134.964
59.10000 133.921
59.27000 135.063
59.44000 127.187
59.61000 135.782
59.78000 134.021
59.95000 137.431
60.12000 128.813
60.29000 122.177
60.46000 121.550
60.63000 133.685
60.80000 136.572
60.97000 132.650
61.14000 141.416
61.31000 153.231
61.48000 147.807
61.65000 294.777
61.82000 217.237
61.99000 148.228
62.16000 147.445
62.33000 141.241
62.50000 149.025
62.67000 146.676
62.84000 153.395
63.01000 146.664
63.18000 137.850
63.35000 155.877
63.52000 154.489
63.69000 145.652
63.86000 152.087
64.03000 154.331
64.20000 162.951
64.37000 161.989
64.54000 165.854
64.71000 177.099
64.88000 183.128
65.05000 193.609
65.22000 236.682
65.39000 302.213
65.56000 418.132
65.73000 736.602
65.90000 1299.643
66.07000 443.113
66.24000 365.756
66.41000 498.227
66.58000 393.255
66.75000 339.513
66.92000 354.317
67.09000 374.078
67.26000 401.894
67.43000 416.125
67.60000 464.222
67.77000 485.505
67.94000 539.206
68.11000 599.885
68.28000 672.241
68.45000 781.189
68.62000 1138.943
68.79000 2258.328
68.96000 14118.967
69.13000 73264.281
69.30000 45504.797
69.47000 12240.951
69.64000 1495.953
69.81000 964.624
69.98000 749.105
70.00000 737.708