File: XRD/22-09-2025 Dep 2/XY Data/BTO_Mapping_Theta2Theta_22-09-2025_001_13_12-470_15-637.xy
20.00000 560.776
20.17000 560.047
20.34000 553.806
20.51000 559.708
20.68000 559.751
20.85000 571.852
21.02000 571.204
21.19000 569.515
21.36000 547.358
21.53000 549.645
21.70000 586.655
21.87000 641.984
22.04000 758.716
22.21000 722.695
22.38000 608.248
22.55000 536.874
22.72000 547.590
22.89000 510.609
23.06000 527.833
23.23000 500.905
23.40000 511.972
23.57000 520.065
23.74000 517.408
23.91000 514.053
24.08000 512.437
24.25000 490.918
24.42000 490.814
24.59000 486.161
24.76000 482.602
24.93000 473.425
25.10000 475.908
25.27000 464.619
25.44000 437.249
25.61000 464.317
25.78000 460.291
25.95000 464.342
26.12000 463.859
26.29000 455.998
26.46000 453.076
26.63000 430.647
26.80000 464.685
26.97000 420.905
27.14000 450.216
27.31000 426.531
27.48000 447.973
27.65000 436.432
27.82000 422.810
27.99000 421.750
28.16000 429.548
28.33000 428.375
28.50000 428.511
28.67000 409.553
28.84000 417.190
29.01000 415.350
29.18000 418.921
29.35000 425.920
29.52000 410.635
29.69000 406.230
29.86000 434.266
30.03000 430.652
30.20000 448.759
30.37000 425.967
30.54000 436.391
30.71000 469.987
30.88000 491.768
31.05000 674.122
31.22000 1658.071
31.39000 3250.801
31.56000 2029.415
31.73000 833.603
31.90000 509.238
32.07000 437.596
32.24000 399.528
32.41000 404.115
32.58000 390.688
32.75000 382.400
32.92000 396.774
33.09000 363.481
33.26000 340.543
33.43000 356.732
33.60000 347.896
33.77000 351.834
33.94000 348.737
34.11000 338.695
34.28000 340.326
34.45000 341.377
34.62000 321.784
34.79000 337.517
34.96000 305.475
35.13000 316.921
35.30000 299.900
35.47000 322.489
35.64000 322.941
35.81000 299.832
35.98000 285.088
36.15000 299.837
36.32000 307.493
36.49000 301.849
36.66000 297.833
36.83000 299.799
37.00000 310.670
37.17000 305.357
37.34000 288.173
37.51000 288.803
37.68000 278.047
37.85000 305.486
38.02000 301.877
38.19000 323.116
38.36000 358.888
38.53000 547.854
38.70000 984.636
38.87000 803.248
39.04000 407.220
39.21000 306.036
39.38000 283.632
39.55000 274.070
39.72000 253.665
39.89000 270.429
40.06000 274.154
40.23000 267.756
40.40000 250.725
40.57000 263.203
40.74000 255.513
40.91000 258.259
41.08000 256.567
41.25000 246.628
41.42000 248.100
41.59000 238.796
41.76000 245.824
41.93000 236.596
42.10000 245.848
42.27000 254.406
42.44000 241.823
42.61000 228.689
42.78000 233.790
42.95000 229.404
43.12000 232.132
43.29000 225.571
43.46000 217.453
43.63000 228.430
43.80000 239.937
43.97000 218.539
44.14000 218.333
44.31000 234.513
44.48000 229.231
44.65000 244.862
44.82000 280.202
44.99000 356.646
45.16000 416.496
45.33000 345.296
45.50000 298.174
45.67000 251.175
45.84000 250.963
46.01000 225.332
46.18000 205.100
46.35000 196.253
46.52000 203.079
46.69000 202.414
46.86000 203.026
47.03000 207.612
47.20000 184.919
47.37000 189.273
47.54000 182.984
47.71000 199.222
47.88000 179.317
48.05000 175.619
48.22000 184.361
48.39000 193.972
48.56000 177.928
48.73000 182.662
48.90000 180.207
49.07000 181.053
49.24000 177.214
49.41000 184.123
49.58000 180.263
49.75000 174.368
49.92000 182.653
50.09000 169.664
50.26000 174.545
50.43000 190.864
50.60000 244.104
50.77000 266.169
50.94000 234.282
51.11000 200.122
51.28000 184.425
51.45000 180.414
51.62000 166.812
51.79000 161.679
51.96000 166.802
52.13000 151.831
52.30000 157.777
52.47000 158.975
52.64000 151.076
52.81000 151.719
52.98000 155.754
53.15000 155.576
53.32000 167.462
53.49000 169.380
53.66000 157.207
53.83000 159.231
54.00000 157.932
54.17000 159.022
54.34000 157.949
54.51000 163.666
54.68000 152.127
54.85000 155.288
55.02000 152.008
55.19000 161.605
55.36000 164.436
55.53000 203.905
55.70000 264.757
55.87000 445.467
56.04000 514.086
56.21000 369.658
56.38000 246.139
56.55000 194.059
56.72000 169.892
56.89000 158.228
57.06000 154.955
57.23000 146.846
57.40000 134.438
57.57000 134.212
57.74000 149.651
57.91000 152.242
58.08000 143.263
58.25000 140.427
58.42000 130.784
58.59000 142.663
58.76000 123.369
58.93000 131.577
59.10000 125.503
59.27000 145.370
59.44000 131.679
59.61000 133.744
59.78000 133.776
59.95000 138.026
60.12000 133.522
60.29000 127.694
60.46000 137.652
60.63000 128.827
60.80000 129.264
60.97000 136.894
61.14000 141.094
61.31000 132.173
61.48000 148.088
61.65000 298.216
61.82000 190.751
61.99000 145.373
62.16000 140.605
62.33000 143.344
62.50000 139.445
62.67000 146.714
62.84000 149.957
63.01000 142.368
63.18000 143.266
63.35000 146.797
63.52000 155.409
63.69000 162.457
63.86000 160.503
64.03000 156.694
64.20000 160.036
64.37000 174.467
64.54000 163.413
64.71000 187.636
64.88000 190.108
65.05000 202.556
65.22000 223.026
65.39000 320.949
65.56000 409.938
65.73000 733.352
65.90000 1203.890
66.07000 419.489
66.24000 339.860
66.41000 475.115
66.58000 355.913
66.75000 327.722
66.92000 347.199
67.09000 362.098
67.26000 389.377
67.43000 421.746
67.60000 451.286
67.77000 499.993
67.94000 515.772
68.11000 579.553
68.28000 643.769
68.45000 775.839
68.62000 1142.458
68.79000 2155.146
68.96000 15202.866
69.13000 66068.047
69.30000 38439.656
69.47000 8999.631
69.64000 1365.627
69.81000 888.452
69.98000 728.454
70.00000 712.891