File: XRD/22-09-2025 Dep 2/XY Data/BTO_Mapping_Theta2Theta_22-09-2025_001_57_2-225_-9-749.xy
20.00000 551.787
20.17000 578.735
20.34000 577.261
20.51000 568.895
20.68000 560.353
20.85000 564.395
21.02000 560.187
21.19000 540.989
21.36000 562.748
21.53000 591.877
21.70000 580.447
21.87000 676.599
22.04000 832.198
22.21000 753.248
22.38000 617.385
22.55000 560.789
22.72000 556.790
22.89000 523.967
23.06000 519.004
23.23000 519.023
23.40000 501.986
23.57000 507.030
23.74000 500.307
23.91000 514.245
24.08000 513.878
24.25000 475.183
24.42000 492.852
24.59000 495.490
24.76000 502.349
24.93000 481.984
25.10000 492.854
25.27000 479.883
25.44000 478.438
25.61000 454.701
25.78000 466.030
25.95000 468.946
26.12000 463.333
26.29000 464.065
26.46000 448.747
26.63000 448.168
26.80000 459.351
26.97000 444.355
27.14000 453.993
27.31000 443.452
27.48000 458.614
27.65000 438.185
27.82000 453.805
27.99000 438.339
28.16000 420.669
28.33000 457.011
28.50000 433.929
28.67000 435.215
28.84000 415.628
29.01000 403.677
29.18000 417.019
29.35000 431.243
29.52000 409.297
29.69000 405.274
29.86000 442.647
30.03000 455.491
30.20000 444.780
30.37000 442.783
30.54000 451.374
30.71000 472.188
30.88000 534.791
31.05000 732.722
31.22000 1817.159
31.39000 3463.814
31.56000 2157.042
31.73000 852.253
31.90000 524.714
32.07000 444.942
32.24000 426.535
32.41000 395.832
32.58000 405.315
32.75000 381.887
32.92000 438.099
33.09000 399.187
33.26000 354.438
33.43000 352.947
33.60000 340.180
33.77000 343.174
33.94000 356.057
34.11000 330.179
34.28000 329.454
34.45000 332.262
34.62000 328.309
34.79000 322.120
34.96000 330.932
35.13000 317.498
35.30000 303.234
35.47000 307.579
35.64000 306.676
35.81000 301.767
35.98000 310.261
36.15000 306.173
36.32000 298.754
36.49000 308.435
36.66000 302.600
36.83000 298.288
37.00000 295.508
37.17000 297.353
37.34000 303.265
37.51000 287.622
37.68000 297.722
37.85000 293.573
38.02000 311.332
38.19000 333.527
38.36000 362.031
38.53000 573.017
38.70000 983.965
38.87000 732.484
39.04000 410.515
39.21000 326.087
39.38000 296.590
39.55000 270.296
39.72000 280.898
39.89000 259.174
40.06000 263.465
40.23000 263.448
40.40000 259.929
40.57000 271.089
40.74000 255.482
40.91000 257.744
41.08000 249.849
41.25000 241.423
41.42000 238.255
41.59000 238.442
41.76000 241.867
41.93000 239.651
42.10000 241.872
42.27000 256.826
42.44000 237.526
42.61000 234.425
42.78000 242.872
42.95000 227.479
43.12000 242.669
43.29000 237.577
43.46000 240.452
43.63000 235.203
43.80000 234.293
43.97000 226.673
44.14000 229.538
44.31000 233.837
44.48000 240.947
44.65000 250.282
44.82000 312.281
44.99000 397.936
45.16000 420.260
45.33000 363.402
45.50000 287.934
45.67000 252.450
45.84000 237.381
46.01000 219.482
46.18000 215.807
46.35000 205.597
46.52000 203.633
46.69000 200.708
46.86000 210.872
47.03000 195.300
47.20000 188.207
47.37000 200.386
47.54000 195.855
47.71000 197.758
47.88000 189.043
48.05000 175.979
48.22000 174.418
48.39000 191.168
48.56000 181.384
48.73000 190.485
48.90000 174.943
49.07000 166.904
49.24000 183.555
49.41000 178.096
49.58000 163.365
49.75000 165.728
49.92000 178.805
50.09000 183.481
50.26000 188.563
50.43000 199.534
50.60000 251.332
50.77000 260.766
50.94000 231.615
51.11000 202.989
51.28000 179.995
51.45000 174.366
51.62000 165.465
51.79000 160.474
51.96000 175.053
52.13000 173.132
52.30000 161.563
52.47000 153.693
52.64000 166.154
52.81000 163.032
52.98000 160.226
53.15000 159.433
53.32000 171.873
53.49000 171.316
53.66000 159.667
53.83000 149.329
54.00000 148.809
54.17000 161.215
54.34000 164.600
54.51000 165.395
54.68000 161.342
54.85000 164.584
55.02000 160.374
55.19000 173.032
55.36000 176.045
55.53000 206.797
55.70000 300.492
55.87000 496.056
56.04000 547.653
56.21000 370.614
56.38000 255.371
56.55000 199.559
56.72000 171.671
56.89000 151.562
57.06000 162.097
57.23000 149.127
57.40000 154.220
57.57000 146.855
57.74000 149.367
57.91000 144.672
58.08000 140.811
58.25000 138.714
58.42000 137.470
58.59000 132.656
58.76000 125.131
58.93000 130.915
59.10000 139.510
59.27000 128.348
59.44000 134.007
59.61000 136.387
59.78000 136.029
59.95000 121.282
60.12000 129.243
60.29000 138.966
60.46000 128.185
60.63000 141.040
60.80000 135.457
60.97000 138.554
61.14000 133.017
61.31000 136.915
61.48000 145.539
61.65000 304.026
61.82000 222.280
61.99000 138.904
62.16000 132.867
62.33000 142.094
62.50000 139.570
62.67000 145.639
62.84000 139.483
63.01000 144.966
63.18000 150.897
63.35000 151.248
63.52000 147.148
63.69000 141.060
63.86000 155.954
64.03000 156.870
64.20000 166.934
64.37000 168.457
64.54000 160.200
64.71000 179.797
64.88000 199.014
65.05000 207.674
65.22000 236.117
65.39000 310.283
65.56000 431.725
65.73000 782.876
65.90000 1368.055
66.07000 462.088
66.24000 341.022
66.41000 511.589
66.58000 388.697
66.75000 348.594
66.92000 352.976
67.09000 364.730
67.26000 413.453
67.43000 451.999
67.60000 463.867
67.77000 510.395
67.94000 567.493
68.11000 612.252
68.28000 708.506
68.45000 794.995
68.62000 1207.052
68.79000 2415.205
68.96000 16832.672
69.13000 77507.938
69.30000 46630.973
69.47000 11779.871
69.64000 1557.243
69.81000 962.783
69.98000 754.309
70.00000 752.492