File: XRD/22-09-2025 Dep 2/XY Data/BTO_Mapping_Theta2Theta_22-09-2025_001_52_-2-225_-9-749.xy
20.00000 585.717
20.17000 576.848
20.34000 572.610
20.51000 558.164
20.68000 562.649
20.85000 558.366
21.02000 543.661
21.19000 558.289
21.36000 579.487
21.53000 572.773
21.70000 589.610
21.87000 679.597
22.04000 836.141
22.21000 759.839
22.38000 626.135
22.55000 561.323
22.72000 542.785
22.89000 503.086
23.06000 514.061
23.23000 522.674
23.40000 527.045
23.57000 510.831
23.74000 507.807
23.91000 502.349
24.08000 508.146
24.25000 478.853
24.42000 492.266
24.59000 491.450
24.76000 486.251
24.93000 489.562
25.10000 478.249
25.27000 483.078
25.44000 486.562
25.61000 478.776
25.78000 458.912
25.95000 456.914
26.12000 469.110
26.29000 449.682
26.46000 443.839
26.63000 460.397
26.80000 433.066
26.97000 446.406
27.14000 451.724
27.31000 451.060
27.48000 442.798
27.65000 437.629
27.82000 443.240
27.99000 437.806
28.16000 456.092
28.33000 421.222
28.50000 434.185
28.67000 425.897
28.84000 418.755
29.01000 427.045
29.18000 411.820
29.35000 419.997
29.52000 419.311
29.69000 413.762
29.86000 431.108
30.03000 452.610
30.20000 454.488
30.37000 425.734
30.54000 451.021
30.71000 487.432
30.88000 510.615
31.05000 738.659
31.22000 1838.786
31.39000 3469.435
31.56000 2152.425
31.73000 853.415
31.90000 528.658
32.07000 443.431
32.24000 435.528
32.41000 401.662
32.58000 399.126
32.75000 400.376
32.92000 475.394
33.09000 399.529
33.26000 367.418
33.43000 366.651
33.60000 351.962
33.77000 369.840
33.94000 352.659
34.11000 332.141
34.28000 337.410
34.45000 340.986
34.62000 329.272
34.79000 301.345
34.96000 318.938
35.13000 323.829
35.30000 321.301
35.47000 316.941
35.64000 313.393
35.81000 322.220
35.98000 304.637
36.15000 308.939
36.32000 313.959
36.49000 296.129
36.66000 301.193
36.83000 298.357
37.00000 327.313
37.17000 310.412
37.34000 300.439
37.51000 300.372
37.68000 300.255
37.85000 305.402
38.02000 308.364
38.19000 322.014
38.36000 369.989
38.53000 583.788
38.70000 982.468
38.87000 697.727
39.04000 387.225
39.21000 319.393
39.38000 286.007
39.55000 281.007
39.72000 274.388
39.89000 276.957
40.06000 271.237
40.23000 261.790
40.40000 271.639
40.57000 253.094
40.74000 263.023
40.91000 256.152
41.08000 246.410
41.25000 240.707
41.42000 246.212
41.59000 240.649
41.76000 241.600
41.93000 242.217
42.10000 225.915
42.27000 261.881
42.44000 229.349
42.61000 233.108
42.78000 250.040
42.95000 235.615
43.12000 244.922
43.29000 244.700
43.46000 233.030
43.63000 238.306
43.80000 241.016
43.97000 217.003
44.14000 238.113
44.31000 241.236
44.48000 246.884
44.65000 274.133
44.82000 330.929
44.99000 425.566
45.16000 462.831
45.33000 347.512
45.50000 301.662
45.67000 270.969
45.84000 242.082
46.01000 213.568
46.18000 211.545
46.35000 212.035
46.52000 205.561
46.69000 207.704
46.86000 199.511
47.03000 199.433
47.20000 195.842
47.37000 200.418
47.54000 199.844
47.71000 190.104
47.88000 186.984
48.05000 173.119
48.22000 173.893
48.39000 195.545
48.56000 185.276
48.73000 179.880
48.90000 168.874
49.07000 178.505
49.24000 180.944
49.41000 179.192
49.58000 182.593
49.75000 179.768
49.92000 178.435
50.09000 183.092
50.26000 181.438
50.43000 188.109
50.60000 241.175
50.77000 250.828
50.94000 224.739
51.11000 195.263
51.28000 180.945
51.45000 174.706
51.62000 170.248
51.79000 165.723
51.96000 165.132
52.13000 176.784
52.30000 166.174
52.47000 169.767
52.64000 161.723
52.81000 168.024
52.98000 163.639
53.15000 152.845
53.32000 159.887
53.49000 146.869
53.66000 163.274
53.83000 156.933
54.00000 150.892
54.17000 158.802
54.34000 154.028
54.51000 152.080
54.68000 164.922
54.85000 161.002
55.02000 155.326
55.19000 182.357
55.36000 180.798
55.53000 206.530
55.70000 312.896
55.87000 516.570
56.04000 553.792
56.21000 376.311
56.38000 268.411
56.55000 200.167
56.72000 166.710
56.89000 161.534
57.06000 152.523
57.23000 147.613
57.40000 150.216
57.57000 146.751
57.74000 140.773
57.91000 151.329
58.08000 140.265
58.25000 147.536
58.42000 145.582
58.59000 137.819
58.76000 140.342
58.93000 126.070
59.10000 140.047
59.27000 134.770
59.44000 126.900
59.61000 131.946
59.78000 134.639
59.95000 134.691
60.12000 127.935
60.29000 134.885
60.46000 131.024
60.63000 137.020
60.80000 141.095
60.97000 129.117
61.14000 129.907
61.31000 135.660
61.48000 148.988
61.65000 320.169
61.82000 227.317
61.99000 139.416
62.16000 149.981
62.33000 150.402
62.50000 152.998
62.67000 144.746
62.84000 147.540
63.01000 159.673
63.18000 145.403
63.35000 160.571
63.52000 154.143
63.69000 161.638
63.86000 147.769
64.03000 169.808
64.20000 172.099
64.37000 167.292
64.54000 160.768
64.71000 176.174
64.88000 197.612
65.05000 223.626
65.22000 245.120
65.39000 332.399
65.56000 446.577
65.73000 828.447
65.90000 1442.452
66.07000 463.272
66.24000 363.402
66.41000 540.127
66.58000 396.361
66.75000 358.463
66.92000 363.071
67.09000 394.615
67.26000 423.806
67.43000 453.792
67.60000 473.455
67.77000 528.029
67.94000 586.552
68.11000 634.501
68.28000 701.340
68.45000 850.880
68.62000 1264.038
68.79000 2507.051
68.96000 18491.486
69.13000 82097.875
69.30000 49503.199
69.47000 12352.788
69.64000 1577.474
69.81000 1022.768
69.98000 796.983
70.00000 772.807