File: XRD/22-09-2025 Dep 2/XY Data/BTO_Mapping_Theta2Theta_22-09-2025_001_50_-24-940_-31-273.xy
20.00000 598.844
20.17000 583.761
20.34000 580.453
20.51000 565.689
20.68000 564.587
20.85000 568.839
21.02000 554.247
21.19000 556.383
21.36000 569.876
21.53000 555.311
21.70000 580.309
21.87000 704.539
22.04000 805.354
22.21000 751.130
22.38000 610.987
22.55000 548.073
22.72000 555.629
22.89000 523.124
23.06000 507.962
23.23000 509.667
23.40000 507.980
23.57000 533.997
23.74000 504.345
23.91000 500.740
24.08000 479.768
24.25000 510.434
24.42000 482.953
24.59000 484.449
24.76000 485.833
24.93000 473.173
25.10000 488.924
25.27000 482.018
25.44000 476.223
25.61000 470.922
25.78000 489.633
25.95000 470.335
26.12000 472.090
26.29000 461.603
26.46000 489.147
26.63000 440.424
26.80000 440.381
26.97000 467.640
27.14000 452.491
27.31000 439.741
27.48000 447.779
27.65000 451.141
27.82000 441.982
27.99000 440.327
28.16000 442.566
28.33000 452.288
28.50000 438.048
28.67000 425.482
28.84000 431.893
29.01000 419.123
29.18000 426.180
29.35000 411.763
29.52000 419.505
29.69000 419.279
29.86000 435.201
30.03000 477.750
30.20000 442.515
30.37000 441.033
30.54000 443.964
30.71000 465.205
30.88000 494.426
31.05000 657.440
31.22000 2041.312
31.39000 4531.163
31.56000 2881.260
31.73000 996.379
31.90000 535.067
32.07000 454.288
32.24000 429.501
32.41000 415.621
32.58000 403.224
32.75000 396.218
32.92000 462.353
33.09000 416.887
33.26000 381.144
33.43000 345.062
33.60000 346.380
33.77000 364.673
33.94000 338.358
34.11000 326.961
34.28000 336.137
34.45000 329.198
34.62000 333.162
34.79000 332.024
34.96000 328.465
35.13000 322.420
35.30000 316.489
35.47000 337.502
35.64000 319.727
35.81000 317.823
35.98000 316.461
36.15000 300.965
36.32000 290.983
36.49000 310.745
36.66000 303.964
36.83000 292.824
37.00000 320.087
37.17000 299.865
37.34000 298.322
37.51000 294.129
37.68000 309.450
37.85000 304.392
38.02000 308.169
38.19000 321.491
38.36000 395.230
38.53000 543.557
38.70000 736.526
38.87000 554.037
39.04000 389.392
39.21000 312.684
39.38000 275.581
39.55000 273.513
39.72000 270.651
39.89000 268.545
40.06000 270.903
40.23000 284.907
40.40000 266.067
40.57000 267.453
40.74000 243.207
40.91000 259.350
41.08000 258.637
41.25000 256.429
41.42000 241.210
41.59000 251.375
41.76000 244.748
41.93000 233.923
42.10000 245.352
42.27000 258.983
42.44000 243.023
42.61000 235.135
42.78000 232.190
42.95000 238.195
43.12000 226.511
43.29000 229.281
43.46000 233.906
43.63000 222.546
43.80000 232.158
43.97000 227.288
44.14000 244.713
44.31000 240.029
44.48000 250.845
44.65000 283.906
44.82000 368.361
44.99000 456.832
45.16000 436.645
45.33000 331.984
45.50000 286.777
45.67000 253.437
45.84000 226.788
46.01000 225.794
46.18000 199.166
46.35000 202.003
46.52000 204.473
46.69000 203.605
46.86000 203.372
47.03000 200.557
47.20000 200.566
47.37000 197.546
47.54000 193.311
47.71000 183.577
47.88000 186.416
48.05000 179.112
48.22000 179.748
48.39000 175.818
48.56000 188.144
48.73000 177.569
48.90000 180.515
49.07000 175.598
49.24000 184.821
49.41000 194.449
49.58000 175.672
49.75000 177.857
49.92000 184.325
50.09000 176.866
50.26000 182.024
50.43000 235.628
50.60000 284.493
50.77000 282.614
50.94000 232.613
51.11000 216.867
51.28000 183.970
51.45000 177.975
51.62000 185.269
51.79000 160.660
51.96000 161.359
52.13000 158.425
52.30000 165.184
52.47000 170.123
52.64000 161.210
52.81000 160.233
52.98000 160.756
53.15000 174.261
53.32000 164.884
53.49000 165.715
53.66000 152.035
53.83000 175.884
54.00000 166.089
54.17000 150.697
54.34000 163.321
54.51000 164.476
54.68000 162.132
54.85000 170.976
55.02000 159.211
55.19000 174.823
55.36000 181.306
55.53000 230.963
55.70000 382.168
55.87000 540.576
56.04000 481.165
56.21000 316.085
56.38000 229.618
56.55000 185.939
56.72000 167.701
56.89000 150.282
57.06000 151.386
57.23000 144.705
57.40000 153.187
57.57000 145.510
57.74000 150.615
57.91000 139.255
58.08000 149.919
58.25000 146.422
58.42000 145.775
58.59000 149.101
58.76000 131.551
58.93000 137.692
59.10000 137.217
59.27000 134.349
59.44000 143.282
59.61000 146.095
59.78000 134.295
59.95000 135.060
60.12000 141.003
60.29000 132.129
60.46000 138.159
60.63000 133.339
60.80000 127.919
60.97000 142.598
61.14000 142.593
61.31000 142.227
61.48000 152.128
61.65000 356.731
61.82000 285.993
61.99000 147.491
62.16000 142.459
62.33000 140.920
62.50000 156.113
62.67000 145.486
62.84000 131.612
63.01000 148.629
63.18000 160.087
63.35000 155.216
63.52000 150.715
63.69000 156.417
63.86000 148.569
64.03000 161.345
64.20000 172.057
64.37000 167.445
64.54000 177.896
64.71000 178.829
64.88000 197.164
65.05000 214.992
65.22000 271.993
65.39000 385.835
65.56000 504.487
65.73000 838.619
65.90000 1657.887
66.07000 580.124
66.24000 394.049
66.41000 606.067
66.58000 452.603
66.75000 359.699
66.92000 395.181
67.09000 422.604
67.26000 452.422
67.43000 467.291
67.60000 529.754
67.77000 562.878
67.94000 590.359
68.11000 650.690
68.28000 748.693
68.45000 909.178
68.62000 1267.768
68.79000 2714.409
68.96000 15212.413
69.13000 95826.102
69.30000 63949.367
69.47000 19382.852
69.64000 1900.394
69.81000 1128.075
69.98000 869.360
70.00000 847.442