File: XRD/22-09-2025 Dep 2/XY Data/BTO_Mapping_Theta2Theta_22-09-2025_001_38_-20-000_0-000.xy
20.00000 621.090
20.17000 586.537
20.34000 571.965
20.51000 567.278
20.68000 558.258
20.85000 570.721
21.02000 546.034
21.19000 560.561
21.36000 531.315
21.53000 571.427
21.70000 602.355
21.87000 787.854
22.04000 919.277
22.21000 742.404
22.38000 602.341
22.55000 551.880
22.72000 538.316
22.89000 521.144
23.06000 518.764
23.23000 522.964
23.40000 508.702
23.57000 502.492
23.74000 522.207
23.91000 499.432
24.08000 479.965
24.25000 504.016
24.42000 499.320
24.59000 482.693
24.76000 495.337
24.93000 500.008
25.10000 465.922
25.27000 503.631
25.44000 497.497
25.61000 456.949
25.78000 493.873
25.95000 455.711
26.12000 456.020
26.29000 470.688
26.46000 469.722
26.63000 447.849
26.80000 465.505
26.97000 450.220
27.14000 459.144
27.31000 430.474
27.48000 445.482
27.65000 440.532
27.82000 438.119
27.99000 422.496
28.16000 443.460
28.33000 425.337
28.50000 435.536
28.67000 432.125
28.84000 421.991
29.01000 422.352
29.18000 395.545
29.35000 418.657
29.52000 419.589
29.69000 421.151
29.86000 421.706
30.03000 455.350
30.20000 436.874
30.37000 432.500
30.54000 435.864
30.71000 446.008
30.88000 498.399
31.05000 729.585
31.22000 2135.539
31.39000 3518.043
31.56000 1867.068
31.73000 759.653
31.90000 494.176
32.07000 420.539
32.24000 432.095
32.41000 401.334
32.58000 385.990
32.75000 382.967
32.92000 439.352
33.09000 405.939
33.26000 350.866
33.43000 365.518
33.60000 337.982
33.77000 369.222
33.94000 356.718
34.11000 322.481
34.28000 350.480
34.45000 346.051
34.62000 339.260
34.79000 321.608
34.96000 315.996
35.13000 311.012
35.30000 340.478
35.47000 313.841
35.64000 314.893
35.81000 305.460
35.98000 315.506
36.15000 335.185
36.32000 300.105
36.49000 308.457
36.66000 297.582
36.83000 311.172
37.00000 317.189
37.17000 312.994
37.34000 309.624
37.51000 311.607
37.68000 306.956
37.85000 307.753
38.02000 309.790
38.19000 322.613
38.36000 395.671
38.53000 628.365
38.70000 779.964
38.87000 530.200
39.04000 357.891
39.21000 301.804
39.38000 299.581
39.55000 286.577
39.72000 276.079
39.89000 265.167
40.06000 290.488
40.23000 263.873
40.40000 265.306
40.57000 268.218
40.74000 249.841
40.91000 262.499
41.08000 248.059
41.25000 257.903
41.42000 264.762
41.59000 255.032
41.76000 251.604
41.93000 249.287
42.10000 243.510
42.27000 235.600
42.44000 245.027
42.61000 234.035
42.78000 229.900
42.95000 230.281
43.12000 231.854
43.29000 233.202
43.46000 233.224
43.63000 233.329
43.80000 223.555
43.97000 242.477
44.14000 232.423
44.31000 244.855
44.48000 257.732
44.65000 314.165
44.82000 439.377
44.99000 564.174
45.16000 458.080
45.33000 345.039
45.50000 265.680
45.67000 257.204
45.84000 235.685
46.01000 230.148
46.18000 214.647
46.35000 210.148
46.52000 197.847
46.69000 202.567
46.86000 203.331
47.03000 204.157
47.20000 190.507
47.37000 193.654
47.54000 199.414
47.71000 188.793
47.88000 197.806
48.05000 196.711
48.22000 180.994
48.39000 198.257
48.56000 184.426
48.73000 188.850
48.90000 180.614
49.07000 182.854
49.24000 183.201
49.41000 176.711
49.58000 199.012
49.75000 183.316
49.92000 166.369
50.09000 183.228
50.26000 195.340
50.43000 247.200
50.60000 255.842
50.77000 268.249
50.94000 227.612
51.11000 195.739
51.28000 175.862
51.45000 180.112
51.62000 170.989
51.79000 172.217
51.96000 170.331
52.13000 149.363
52.30000 166.954
52.47000 172.495
52.64000 164.081
52.81000 158.637
52.98000 161.398
53.15000 161.345
53.32000 164.324
53.49000 179.006
53.66000 157.135
53.83000 158.190
54.00000 162.963
54.17000 157.591
54.34000 158.507
54.51000 164.580
54.68000 160.023
54.85000 154.093
55.02000 171.961
55.19000 185.442
55.36000 200.963
55.53000 260.814
55.70000 412.373
55.87000 545.988
56.04000 453.891
56.21000 310.561
56.38000 218.366
56.55000 190.701
56.72000 162.729
56.89000 146.081
57.06000 147.643
57.23000 152.972
57.40000 146.017
57.57000 149.765
57.74000 139.729
57.91000 142.690
58.08000 146.426
58.25000 140.116
58.42000 135.277
58.59000 139.553
58.76000 135.038
58.93000 149.856
59.10000 150.064
59.27000 144.510
59.44000 132.817
59.61000 130.498
59.78000 135.849
59.95000 133.463
60.12000 136.875
60.29000 134.658
60.46000 129.945
60.63000 137.531
60.80000 140.971
60.97000 126.339
61.14000 143.724
61.31000 145.029
61.48000 153.900
61.65000 363.481
61.82000 242.306
61.99000 146.918
62.16000 139.886
62.33000 146.980
62.50000 141.003
62.67000 144.571
62.84000 150.186
63.01000 147.983
63.18000 154.067
63.35000 145.616
63.52000 158.228
63.69000 155.356
63.86000 158.089
64.03000 162.742
64.20000 166.059
64.37000 181.130
64.54000 171.671
64.71000 189.184
64.88000 192.316
65.05000 196.677
65.22000 273.037
65.39000 374.776
65.56000 447.723
65.73000 892.871
65.90000 1579.791
66.07000 476.421
66.24000 387.389
66.41000 568.162
66.58000 406.661
66.75000 369.381
66.92000 373.700
67.09000 420.219
67.26000 436.328
67.43000 461.435
67.60000 498.538
67.77000 544.172
67.94000 600.297
68.11000 660.952
68.28000 763.329
68.45000 877.411
68.62000 1395.981
68.79000 2832.778
68.96000 22364.355
69.13000 93559.047
69.30000 55196.242
69.47000 13125.205
69.64000 1680.342
69.81000 1098.493
69.98000 876.345
70.00000 835.917