File: XRD/22-09-2025 Dep 2/XY Data/BTO_Mapping_Theta2Theta_22-09-2025_001_24_-6-676_29-248.xy
20.00000 547.340
20.17000 559.430
20.34000 559.836
20.51000 564.045
20.68000 552.695
20.85000 545.888
21.02000 563.797
21.19000 571.084
21.36000 580.898
21.53000 554.844
21.70000 602.860
21.87000 676.024
22.04000 843.322
22.21000 753.703
22.38000 624.486
22.55000 574.569
22.72000 536.034
22.89000 532.712
23.06000 541.313
23.23000 507.591
23.40000 502.858
23.57000 499.953
23.74000 521.859
23.91000 482.182
24.08000 500.787
24.25000 490.474
24.42000 481.157
24.59000 481.074
24.76000 482.015
24.93000 479.814
25.10000 463.850
25.27000 489.043
25.44000 500.084
25.61000 467.477
25.78000 463.027
25.95000 434.645
26.12000 468.929
26.29000 460.808
26.46000 446.261
26.63000 444.244
26.80000 463.330
26.97000 441.932
27.14000 443.521
27.31000 443.151
27.48000 432.199
27.65000 436.199
27.82000 435.048
27.99000 441.622
28.16000 444.463
28.33000 428.822
28.50000 444.936
28.67000 411.879
28.84000 427.372
29.01000 407.823
29.18000 420.509
29.35000 421.939
29.52000 429.730
29.69000 404.993
29.86000 426.612
30.03000 453.596
30.20000 436.766
30.37000 433.354
30.54000 432.171
30.71000 459.071
30.88000 502.437
31.05000 716.673
31.22000 1739.723
31.39000 3391.184
31.56000 2109.932
31.73000 866.034
31.90000 540.348
32.07000 445.259
32.24000 395.141
32.41000 394.037
32.58000 407.538
32.75000 408.764
32.92000 418.832
33.09000 377.783
33.26000 360.062
33.43000 341.098
33.60000 357.715
33.77000 341.434
33.94000 345.867
34.11000 338.738
34.28000 352.950
34.45000 341.287
34.62000 332.369
34.79000 333.557
34.96000 323.552
35.13000 321.708
35.30000 308.642
35.47000 316.446
35.64000 314.105
35.81000 304.578
35.98000 304.548
36.15000 306.072
36.32000 303.227
36.49000 289.092
36.66000 320.524
36.83000 312.090
37.00000 306.104
37.17000 303.437
37.34000 295.930
37.51000 297.866
37.68000 308.478
37.85000 304.376
38.02000 320.539
38.19000 324.761
38.36000 355.873
38.53000 590.420
38.70000 932.670
38.87000 685.886
39.04000 379.044
39.21000 310.772
39.38000 288.701
39.55000 296.393
39.72000 265.387
39.89000 270.731
40.06000 272.926
40.23000 255.546
40.40000 265.671
40.57000 244.066
40.74000 254.757
40.91000 256.173
41.08000 257.464
41.25000 262.693
41.42000 250.316
41.59000 242.095
41.76000 242.064
41.93000 229.376
42.10000 221.365
42.27000 246.421
42.44000 228.132
42.61000 228.743
42.78000 228.374
42.95000 228.201
43.12000 243.941
43.29000 230.965
43.46000 226.904
43.63000 248.881
43.80000 212.992
43.97000 220.744
44.14000 234.010
44.31000 231.048
44.48000 244.457
44.65000 255.982
44.82000 330.136
44.99000 444.893
45.16000 440.620
45.33000 345.810
45.50000 285.001
45.67000 264.883
45.84000 230.871
46.01000 230.992
46.18000 210.931
46.35000 208.301
46.52000 202.538
46.69000 204.669
46.86000 200.614
47.03000 197.703
47.20000 193.716
47.37000 187.748
47.54000 191.123
47.71000 178.815
47.88000 182.873
48.05000 182.835
48.22000 193.044
48.39000 195.491
48.56000 174.519
48.73000 195.612
48.90000 171.759
49.07000 178.363
49.24000 174.574
49.41000 180.518
49.58000 178.764
49.75000 172.741
49.92000 176.695
50.09000 175.890
50.26000 180.762
50.43000 200.698
50.60000 238.092
50.77000 272.265
50.94000 231.022
51.11000 197.020
51.28000 189.579
51.45000 175.712
51.62000 163.249
51.79000 169.043
51.96000 156.812
52.13000 152.187
52.30000 155.889
52.47000 170.827
52.64000 159.536
52.81000 156.795
52.98000 160.453
53.15000 166.659
53.32000 153.121
53.49000 166.612
53.66000 157.333
53.83000 165.466
54.00000 160.794
54.17000 151.791
54.34000 161.618
54.51000 158.311
54.68000 147.877
54.85000 154.170
55.02000 169.457
55.19000 178.257
55.36000 173.174
55.53000 204.966
55.70000 313.871
55.87000 527.991
56.04000 558.540
56.21000 378.549
56.38000 241.438
56.55000 202.879
56.72000 178.936
56.89000 163.926
57.06000 147.464
57.23000 148.449
57.40000 150.681
57.57000 148.380
57.74000 145.991
57.91000 142.363
58.08000 141.736
58.25000 142.967
58.42000 142.414
58.59000 141.345
58.76000 137.059
58.93000 130.201
59.10000 133.140
59.27000 141.342
59.44000 141.331
59.61000 133.530
59.78000 136.855
59.95000 133.677
60.12000 122.484
60.29000 139.887
60.46000 132.902
60.63000 134.920
60.80000 141.343
60.97000 138.889
61.14000 134.326
61.31000 141.278
61.48000 154.772
61.65000 333.433
61.82000 214.345
61.99000 145.082
62.16000 136.637
62.33000 155.882
62.50000 144.690
62.67000 142.753
62.84000 148.001
63.01000 136.947
63.18000 136.093
63.35000 147.860
63.52000 146.953
63.69000 164.216
63.86000 163.577
64.03000 161.331
64.20000 154.954
64.37000 163.812
64.54000 166.247
64.71000 193.049
64.88000 186.734
65.05000 223.801
65.22000 238.242
65.39000 316.532
65.56000 442.165
65.73000 912.690
65.90000 1473.024
66.07000 473.554
66.24000 369.079
66.41000 519.925
66.58000 401.804
66.75000 348.142
66.92000 381.268
67.09000 394.516
67.26000 427.964
67.43000 458.823
67.60000 483.122
67.77000 542.742
67.94000 599.386
68.11000 641.508
68.28000 735.927
68.45000 862.566
68.62000 1362.607
68.79000 2747.436
68.96000 22378.863
69.13000 86069.500
69.30000 49980.703
69.47000 11390.289
69.64000 1592.736
69.81000 1023.112
69.98000 825.819
70.00000 810.892