File: XRD/22-09-2025 Dep 2/XY Data/BTO_Mapping_Theta2Theta_22-09-2025_001_47_-6-235_-7-818.xy
20.00000 571.103
20.17000 553.915
20.34000 574.966
20.51000 559.027
20.68000 560.392
20.85000 552.411
21.02000 562.179
21.19000 564.429
21.36000 567.875
21.53000 561.731
21.70000 573.924
21.87000 696.683
22.04000 836.294
22.21000 759.474
22.38000 640.158
22.55000 570.776
22.72000 562.593
22.89000 514.020
23.06000 534.889
23.23000 482.903
23.40000 512.874
23.57000 509.531
23.74000 510.587
23.91000 489.964
24.08000 518.803
24.25000 489.142
24.42000 481.115
24.59000 500.365
24.76000 484.175
24.93000 476.985
25.10000 479.089
25.27000 465.019
25.44000 471.238
25.61000 458.567
25.78000 488.679
25.95000 468.099
26.12000 464.935
26.29000 461.414
26.46000 462.498
26.63000 458.706
26.80000 455.145
26.97000 440.663
27.14000 456.902
27.31000 453.572
27.48000 446.128
27.65000 434.829
27.82000 444.152
27.99000 432.831
28.16000 458.765
28.33000 413.094
28.50000 437.057
28.67000 429.459
28.84000 422.144
29.01000 418.420
29.18000 424.792
29.35000 395.758
29.52000 420.313
29.69000 403.891
29.86000 440.610
30.03000 437.908
30.20000 447.008
30.37000 436.941
30.54000 447.601
30.71000 463.815
30.88000 509.400
31.05000 742.211
31.22000 1854.063
31.39000 3375.912
31.56000 2084.653
31.73000 853.135
31.90000 524.933
32.07000 441.682
32.24000 420.277
32.41000 406.306
32.58000 407.375
32.75000 395.144
32.92000 480.470
33.09000 409.689
33.26000 361.195
33.43000 351.787
33.60000 352.185
33.77000 351.299
33.94000 367.163
34.11000 333.497
34.28000 326.411
34.45000 327.680
34.62000 328.493
34.79000 321.712
34.96000 334.824
35.13000 325.253
35.30000 314.018
35.47000 319.660
35.64000 323.943
35.81000 303.348
35.98000 296.288
36.15000 311.042
36.32000 315.293
36.49000 318.485
36.66000 292.695
36.83000 298.158
37.00000 296.784
37.17000 298.191
37.34000 303.094
37.51000 298.706
37.68000 290.579
37.85000 299.563
38.02000 305.702
38.19000 316.964
38.36000 362.207
38.53000 590.775
38.70000 929.882
38.87000 668.375
39.04000 381.269
39.21000 309.542
39.38000 287.635
39.55000 293.265
39.72000 271.505
39.89000 289.938
40.06000 261.661
40.23000 264.250
40.40000 263.015
40.57000 254.074
40.74000 256.787
40.91000 262.688
41.08000 266.600
41.25000 251.148
41.42000 243.149
41.59000 250.587
41.76000 238.071
41.93000 232.605
42.10000 242.669
42.27000 242.026
42.44000 234.405
42.61000 246.969
42.78000 228.218
42.95000 235.271
43.12000 235.433
43.29000 227.110
43.46000 225.561
43.63000 231.293
43.80000 223.881
43.97000 236.942
44.14000 232.205
44.31000 238.948
44.48000 248.391
44.65000 276.052
44.82000 335.036
44.99000 465.721
45.16000 454.333
45.33000 356.791
45.50000 290.069
45.67000 257.195
45.84000 213.869
46.01000 230.427
46.18000 218.614
46.35000 217.840
46.52000 219.356
46.69000 192.261
46.86000 192.746
47.03000 192.042
47.20000 195.850
47.37000 201.790
47.54000 200.778
47.71000 182.973
47.88000 182.947
48.05000 180.716
48.22000 200.903
48.39000 193.205
48.56000 191.511
48.73000 180.401
48.90000 184.684
49.07000 182.947
49.24000 173.070
49.41000 176.444
49.58000 181.437
49.75000 182.420
49.92000 186.280
50.09000 175.634
50.26000 178.429
50.43000 211.931
50.60000 250.222
50.77000 261.418
50.94000 224.280
51.11000 199.594
51.28000 182.909
51.45000 174.668
51.62000 174.561
51.79000 178.498
51.96000 176.591
52.13000 158.196
52.30000 166.634
52.47000 164.192
52.64000 157.836
52.81000 175.271
52.98000 166.438
53.15000 163.235
53.32000 167.663
53.49000 162.508
53.66000 160.039
53.83000 155.451
54.00000 160.429
54.17000 146.188
54.34000 162.238
54.51000 160.218
54.68000 162.048
54.85000 161.499
55.02000 176.668
55.19000 168.843
55.36000 180.918
55.53000 224.708
55.70000 332.376
55.87000 555.090
56.04000 561.260
56.21000 374.342
56.38000 242.008
56.55000 185.806
56.72000 170.016
56.89000 166.279
57.06000 155.224
57.23000 148.360
57.40000 155.280
57.57000 160.828
57.74000 150.486
57.91000 146.378
58.08000 148.928
58.25000 135.042
58.42000 141.945
58.59000 129.003
58.76000 127.652
58.93000 142.084
59.10000 141.322
59.27000 137.153
59.44000 133.380
59.61000 137.088
59.78000 135.193
59.95000 140.494
60.12000 136.582
60.29000 137.934
60.46000 130.662
60.63000 122.511
60.80000 135.035
60.97000 126.710
61.14000 131.081
61.31000 144.030
61.48000 144.379
61.65000 343.104
61.82000 230.294
61.99000 146.424
62.16000 145.716
62.33000 150.513
62.50000 151.316
62.67000 146.674
62.84000 145.386
63.01000 152.237
63.18000 143.086
63.35000 152.976
63.52000 150.454
63.69000 154.407
63.86000 166.014
64.03000 161.210
64.20000 164.044
64.37000 159.146
64.54000 165.038
64.71000 164.485
64.88000 195.327
65.05000 204.286
65.22000 250.315
65.39000 317.740
65.56000 441.811
65.73000 841.295
65.90000 1522.955
66.07000 458.131
66.24000 363.299
66.41000 540.536
66.58000 401.106
66.75000 348.166
66.92000 367.389
67.09000 391.397
67.26000 445.656
67.43000 474.971
67.60000 493.409
67.77000 538.699
67.94000 582.820
68.11000 654.905
68.28000 714.160
68.45000 867.674
68.62000 1292.169
68.79000 2707.266
68.96000 20347.723
69.13000 87722.992
69.30000 52505.660
69.47000 12843.848
69.64000 1621.088
69.81000 1031.589
69.98000 822.476
70.00000 820.095