File: XRD/22-09-2025 Dep 2/XY Data/BTO_Mapping_Theta2Theta_22-09-2025_001_43_-18-019_-8-678.xy
20.00000 592.927
20.17000 559.064
20.34000 564.893
20.51000 548.353
20.68000 564.566
20.85000 562.586
21.02000 579.419
21.19000 566.089
21.36000 555.063
21.53000 573.029
21.70000 610.081
21.87000 757.414
22.04000 891.786
22.21000 752.341
22.38000 627.244
22.55000 561.291
22.72000 529.696
22.89000 523.410
23.06000 509.094
23.23000 527.779
23.40000 509.479
23.57000 498.203
23.74000 497.973
23.91000 509.602
24.08000 513.078
24.25000 508.024
24.42000 485.266
24.59000 481.056
24.76000 494.272
24.93000 478.074
25.10000 480.466
25.27000 472.560
25.44000 487.040
25.61000 445.198
25.78000 467.225
25.95000 472.395
26.12000 461.417
26.29000 463.842
26.46000 452.116
26.63000 463.525
26.80000 453.534
26.97000 453.684
27.14000 467.789
27.31000 437.687
27.48000 453.159
27.65000 419.464
27.82000 439.118
27.99000 422.062
28.16000 432.886
28.33000 449.559
28.50000 416.664
28.67000 430.528
28.84000 427.893
29.01000 424.533
29.18000 403.152
29.35000 417.407
29.52000 399.838
29.69000 419.565
29.86000 432.331
30.03000 445.114
30.20000 432.389
30.37000 436.965
30.54000 439.671
30.71000 438.612
30.88000 489.355
31.05000 718.269
31.22000 2009.243
31.39000 3552.782
31.56000 2004.696
31.73000 785.763
31.90000 509.535
32.07000 431.149
32.24000 414.812
32.41000 402.475
32.58000 398.723
32.75000 410.556
32.92000 470.823
33.09000 403.514
33.26000 364.533
33.43000 362.060
33.60000 347.116
33.77000 336.431
33.94000 329.345
34.11000 324.012
34.28000 337.408
34.45000 330.685
34.62000 318.285
34.79000 333.552
34.96000 324.616
35.13000 321.804
35.30000 319.323
35.47000 317.598
35.64000 313.258
35.81000 317.161
35.98000 296.684
36.15000 315.183
36.32000 319.111
36.49000 302.799
36.66000 310.099
36.83000 299.726
37.00000 315.786
37.17000 299.857
37.34000 309.439
37.51000 286.162
37.68000 312.223
37.85000 287.051
38.02000 286.943
38.19000 308.349
38.36000 396.392
38.53000 601.482
38.70000 802.168
38.87000 584.738
39.04000 389.937
39.21000 300.801
39.38000 280.968
39.55000 279.618
39.72000 277.134
39.89000 274.784
40.06000 260.914
40.23000 258.112
40.40000 271.560
40.57000 250.371
40.74000 252.876
40.91000 249.118
41.08000 239.586
41.25000 255.110
41.42000 260.440
41.59000 250.035
41.76000 241.795
41.93000 246.444
42.10000 235.781
42.27000 239.759
42.44000 244.262
42.61000 247.848
42.78000 236.122
42.95000 239.632
43.12000 240.168
43.29000 233.777
43.46000 213.559
43.63000 231.126
43.80000 232.172
43.97000 223.256
44.14000 232.493
44.31000 245.825
44.48000 248.792
44.65000 297.037
44.82000 422.691
44.99000 516.401
45.16000 477.048
45.33000 356.278
45.50000 277.430
45.67000 250.780
45.84000 238.598
46.01000 235.452
46.18000 211.862
46.35000 207.713
46.52000 204.091
46.69000 214.962
46.86000 203.599
47.03000 200.451
47.20000 192.938
47.37000 200.992
47.54000 196.494
47.71000 190.602
47.88000 191.919
48.05000 191.834
48.22000 188.674
48.39000 176.723
48.56000 177.369
48.73000 183.045
48.90000 181.177
49.07000 171.089
49.24000 176.745
49.41000 189.223
49.58000 180.339
49.75000 177.421
49.92000 185.928
50.09000 186.881
50.26000 199.711
50.43000 213.659
50.60000 277.215
50.77000 277.227
50.94000 233.153
51.11000 202.699
51.28000 190.975
51.45000 176.763
51.62000 167.206
51.79000 163.694
51.96000 166.776
52.13000 167.655
52.30000 164.542
52.47000 170.333
52.64000 158.732
52.81000 166.539
52.98000 167.542
53.15000 171.319
53.32000 157.743
53.49000 157.561
53.66000 155.618
53.83000 163.615
54.00000 169.258
54.17000 148.891
54.34000 154.689
54.51000 155.271
54.68000 160.384
54.85000 164.537
55.02000 166.654
55.19000 180.697
55.36000 186.307
55.53000 242.697
55.70000 395.946
55.87000 559.816
56.04000 520.813
56.21000 340.601
56.38000 233.992
56.55000 181.252
56.72000 163.007
56.89000 158.294
57.06000 149.780
57.23000 141.001
57.40000 140.496
57.57000 144.767
57.74000 146.643
57.91000 142.341
58.08000 143.905
58.25000 150.762
58.42000 146.387
58.59000 144.287
58.76000 144.087
58.93000 138.700
59.10000 136.836
59.27000 133.735
59.44000 146.274
59.61000 131.028
59.78000 138.790
59.95000 135.853
60.12000 131.951
60.29000 140.078
60.46000 133.932
60.63000 128.707
60.80000 133.092
60.97000 133.508
61.14000 148.740
61.31000 144.797
61.48000 156.757
61.65000 362.194
61.82000 244.555
61.99000 137.050
62.16000 147.501
62.33000 149.917
62.50000 145.084
62.67000 144.527
62.84000 145.637
63.01000 165.356
63.18000 147.874
63.35000 148.069
63.52000 150.386
63.69000 146.240
63.86000 162.894
64.03000 167.012
64.20000 166.362
64.37000 167.485
64.54000 181.519
64.71000 174.852
64.88000 193.547
65.05000 209.435
65.22000 268.562
65.39000 357.165
65.56000 431.445
65.73000 885.423
65.90000 1621.686
66.07000 493.975
66.24000 385.963
66.41000 555.511
66.58000 422.382
66.75000 358.627
66.92000 378.688
67.09000 409.008
67.26000 462.306
67.43000 467.985
67.60000 524.689
67.77000 561.734
67.94000 593.219
68.11000 682.237
68.28000 759.192
68.45000 908.012
68.62000 1353.038
68.79000 2812.711
68.96000 21070.719
69.13000 94457.758
69.30000 56441.285
69.47000 13944.548
69.64000 1738.587
69.81000 1093.736
69.98000 824.012
70.00000 818.218