File: XRD/22-09-2025 Dep 2/XY Data/BTO_Mapping_Theta2Theta_22-09-2025_001_23_-4-450_19-499.xy
20.00000 564.460
20.17000 569.343
20.34000 570.731
20.51000 574.264
20.68000 566.681
20.85000 552.692
21.02000 556.566
21.19000 570.936
21.36000 546.776
21.53000 539.263
21.70000 598.823
21.87000 681.923
22.04000 855.052
22.21000 733.620
22.38000 625.092
22.55000 569.566
22.72000 544.058
22.89000 515.570
23.06000 517.432
23.23000 518.600
23.40000 501.735
23.57000 506.065
23.74000 497.142
23.91000 495.185
24.08000 501.730
24.25000 493.995
24.42000 493.514
24.59000 478.130
24.76000 479.745
24.93000 480.995
25.10000 459.690
25.27000 480.038
25.44000 470.040
25.61000 485.554
25.78000 471.518
25.95000 456.642
26.12000 454.914
26.29000 457.415
26.46000 456.810
26.63000 444.201
26.80000 442.479
26.97000 466.901
27.14000 459.275
27.31000 434.493
27.48000 431.035
27.65000 441.881
27.82000 417.883
27.99000 442.713
28.16000 420.220
28.33000 425.966
28.50000 434.801
28.67000 430.299
28.84000 435.244
29.01000 427.546
29.18000 413.922
29.35000 423.482
29.52000 428.368
29.69000 419.382
29.86000 454.204
30.03000 458.516
30.20000 457.058
30.37000 446.212
30.54000 445.887
30.71000 469.453
30.88000 502.066
31.05000 748.247
31.22000 1861.619
31.39000 3469.473
31.56000 2061.985
31.73000 838.611
31.90000 546.040
32.07000 445.333
32.24000 434.317
32.41000 401.134
32.58000 381.086
32.75000 396.835
32.92000 421.354
33.09000 375.295
33.26000 348.041
33.43000 366.319
33.60000 345.782
33.77000 340.451
33.94000 334.935
34.11000 337.897
34.28000 327.253
34.45000 334.654
34.62000 328.270
34.79000 323.636
34.96000 310.316
35.13000 320.087
35.30000 318.407
35.47000 312.155
35.64000 308.296
35.81000 314.317
35.98000 294.429
36.15000 302.004
36.32000 294.604
36.49000 308.580
36.66000 299.349
36.83000 297.958
37.00000 298.157
37.17000 310.008
37.34000 300.850
37.51000 286.070
37.68000 296.009
37.85000 286.559
38.02000 304.284
38.19000 324.862
38.36000 363.245
38.53000 596.593
38.70000 959.841
38.87000 688.893
39.04000 385.318
39.21000 321.911
39.38000 303.438
39.55000 290.608
39.72000 275.855
39.89000 268.090
40.06000 274.305
40.23000 261.712
40.40000 269.678
40.57000 247.447
40.74000 257.246
40.91000 263.458
41.08000 247.979
41.25000 242.085
41.42000 257.942
41.59000 240.652
41.76000 249.868
41.93000 241.439
42.10000 251.728
42.27000 239.647
42.44000 235.410
42.61000 237.012
42.78000 232.138
42.95000 242.008
43.12000 237.275
43.29000 234.858
43.46000 245.570
43.63000 227.272
43.80000 219.378
43.97000 236.434
44.14000 246.920
44.31000 235.483
44.48000 239.683
44.65000 254.229
44.82000 335.002
44.99000 417.914
45.16000 438.400
45.33000 352.093
45.50000 296.713
45.67000 261.215
45.84000 238.510
46.01000 227.285
46.18000 221.117
46.35000 195.783
46.52000 193.702
46.69000 219.153
46.86000 196.211
47.03000 187.392
47.20000 204.355
47.37000 199.375
47.54000 195.762
47.71000 191.795
47.88000 177.085
48.05000 177.619
48.22000 183.227
48.39000 178.977
48.56000 191.458
48.73000 181.121
48.90000 180.218
49.07000 181.286
49.24000 175.070
49.41000 184.574
49.58000 183.451
49.75000 187.444
49.92000 182.383
50.09000 180.139
50.26000 179.924
50.43000 193.151
50.60000 227.517
50.77000 273.860
50.94000 225.491
51.11000 198.904
51.28000 198.883
51.45000 167.708
51.62000 167.377
51.79000 170.970
51.96000 161.856
52.13000 174.141
52.30000 168.460
52.47000 153.505
52.64000 161.232
52.81000 162.724
52.98000 152.869
53.15000 154.721
53.32000 155.085
53.49000 156.930
53.66000 162.076
53.83000 165.234
54.00000 166.834
54.17000 163.887
54.34000 150.391
54.51000 161.254
54.68000 157.897
54.85000 163.480
55.02000 159.574
55.19000 165.319
55.36000 178.251
55.53000 215.804
55.70000 314.086
55.87000 527.148
56.04000 552.645
56.21000 378.335
56.38000 248.888
56.55000 195.504
56.72000 172.355
56.89000 152.266
57.06000 142.507
57.23000 142.203
57.40000 150.098
57.57000 146.609
57.74000 157.823
57.91000 140.603
58.08000 148.774
58.25000 139.663
58.42000 121.632
58.59000 148.977
58.76000 139.822
58.93000 125.983
59.10000 135.319
59.27000 135.867
59.44000 129.413
59.61000 143.460
59.78000 145.184
59.95000 135.542
60.12000 136.816
60.29000 128.939
60.46000 133.190
60.63000 140.648
60.80000 135.617
60.97000 128.526
61.14000 140.626
61.31000 145.994
61.48000 156.719
61.65000 335.477
61.82000 230.500
61.99000 152.388
62.16000 140.197
62.33000 140.654
62.50000 136.507
62.67000 142.053
62.84000 148.904
63.01000 146.782
63.18000 151.030
63.35000 144.748
63.52000 147.448
63.69000 150.376
63.86000 160.238
64.03000 146.783
64.20000 161.538
64.37000 164.701
64.54000 175.381
64.71000 174.168
64.88000 191.259
65.05000 200.755
65.22000 261.282
65.39000 315.894
65.56000 436.611
65.73000 899.091
65.90000 1436.149
66.07000 455.377
66.24000 368.717
66.41000 533.286
66.58000 400.031
66.75000 356.229
66.92000 378.477
67.09000 399.150
67.26000 415.986
67.43000 443.527
67.60000 485.948
67.77000 530.306
67.94000 601.146
68.11000 642.471
68.28000 737.358
68.45000 866.022
68.62000 1321.199
68.79000 2687.277
68.96000 21602.578
69.13000 84682.930
69.30000 49287.738
69.47000 11203.938
69.64000 1573.079
69.81000 983.961
69.98000 811.286
70.00000 773.179