File: XRD/22-09-2025 Dep 2/XY Data/BTO_Mapping_Theta2Theta_22-09-2025_001_19_6-676_29-248.xy
20.00000 553.440
20.17000 559.661
20.34000 553.035
20.51000 553.284
20.68000 570.522
20.85000 563.032
21.02000 543.092
21.19000 562.314
21.36000 546.122
21.53000 579.703
21.70000 591.947
21.87000 654.117
22.04000 774.057
22.21000 712.045
22.38000 631.677
22.55000 571.655
22.72000 540.757
22.89000 516.925
23.06000 516.699
23.23000 521.070
23.40000 510.633
23.57000 495.979
23.74000 513.104
23.91000 511.325
24.08000 507.150
24.25000 508.560
24.42000 494.844
24.59000 492.893
24.76000 484.456
24.93000 491.482
25.10000 474.356
25.27000 467.119
25.44000 467.694
25.61000 468.593
25.78000 464.664
25.95000 450.007
26.12000 455.372
26.29000 466.887
26.46000 456.640
26.63000 460.574
26.80000 455.592
26.97000 429.711
27.14000 464.895
27.31000 446.525
27.48000 460.538
27.65000 428.194
27.82000 437.667
27.99000 433.398
28.16000 439.194
28.33000 418.592
28.50000 415.808
28.67000 408.468
28.84000 423.685
29.01000 417.749
29.18000 417.331
29.35000 424.837
29.52000 402.839
29.69000 417.226
29.86000 425.335
30.03000 457.594
30.20000 437.654
30.37000 452.255
30.54000 436.620
30.71000 466.178
30.88000 491.704
31.05000 677.322
31.22000 1696.389
31.39000 3333.016
31.56000 2100.680
31.73000 813.800
31.90000 510.372
32.07000 424.650
32.24000 420.282
32.41000 393.579
32.58000 410.772
32.75000 401.446
32.92000 386.923
33.09000 381.202
33.26000 349.017
33.43000 342.768
33.60000 352.721
33.77000 347.645
33.94000 323.334
34.11000 346.478
34.28000 332.002
34.45000 326.799
34.62000 337.454
34.79000 330.526
34.96000 310.494
35.13000 329.054
35.30000 328.381
35.47000 313.631
35.64000 296.799
35.81000 303.538
35.98000 308.618
36.15000 307.347
36.32000 289.819
36.49000 318.495
36.66000 289.037
36.83000 307.554
37.00000 312.601
37.17000 304.834
37.34000 287.438
37.51000 285.718
37.68000 289.480
37.85000 300.714
38.02000 296.458
38.19000 305.917
38.36000 343.187
38.53000 528.878
38.70000 953.906
38.87000 772.897
39.04000 387.870
39.21000 302.612
39.38000 290.246
39.55000 281.575
39.72000 265.805
39.89000 257.793
40.06000 266.083
40.23000 267.134
40.40000 260.699
40.57000 254.326
40.74000 265.334
40.91000 253.291
41.08000 240.513
41.25000 241.775
41.42000 262.935
41.59000 248.239
41.76000 236.729
41.93000 250.989
42.10000 238.216
42.27000 225.557
42.44000 250.129
42.61000 245.909
42.78000 230.175
42.95000 237.853
43.12000 229.248
43.29000 233.509
43.46000 229.408
43.63000 220.394
43.80000 211.746
43.97000 224.374
44.14000 236.822
44.31000 229.325
44.48000 229.449
44.65000 239.609
44.82000 277.131
44.99000 370.109
45.16000 399.381
45.33000 362.837
45.50000 293.411
45.67000 255.488
45.84000 235.810
46.01000 230.252
46.18000 211.990
46.35000 200.800
46.52000 209.611
46.69000 194.490
46.86000 209.419
47.03000 199.884
47.20000 198.020
47.37000 181.858
47.54000 192.777
47.71000 186.246
47.88000 176.957
48.05000 178.464
48.22000 185.367
48.39000 185.737
48.56000 189.715
48.73000 167.583
48.90000 172.553
49.07000 183.835
49.24000 170.940
49.41000 180.600
49.58000 170.310
49.75000 179.723
49.92000 181.244
50.09000 169.191
50.26000 180.314
50.43000 197.421
50.60000 235.232
50.77000 273.606
50.94000 239.967
51.11000 192.206
51.28000 176.896
51.45000 168.339
51.62000 176.022
51.79000 170.280
51.96000 169.299
52.13000 150.655
52.30000 163.309
52.47000 149.102
52.64000 169.860
52.81000 160.695
52.98000 156.342
53.15000 160.129
53.32000 165.523
53.49000 155.228
53.66000 157.104
53.83000 158.123
54.00000 164.683
54.17000 148.900
54.34000 154.139
54.51000 158.160
54.68000 157.351
54.85000 167.052
55.02000 163.589
55.19000 152.841
55.36000 171.456
55.53000 198.081
55.70000 256.661
55.87000 450.333
56.04000 527.240
56.21000 365.405
56.38000 247.436
56.55000 203.462
56.72000 171.090
56.89000 167.269
57.06000 153.950
57.23000 153.350
57.40000 143.351
57.57000 144.962
57.74000 146.778
57.91000 147.271
58.08000 147.330
58.25000 144.683
58.42000 143.662
58.59000 137.149
58.76000 142.317
58.93000 146.820
59.10000 139.128
59.27000 135.633
59.44000 133.579
59.61000 133.968
59.78000 124.245
59.95000 131.342
60.12000 135.464
60.29000 150.333
60.46000 134.576
60.63000 128.879
60.80000 126.997
60.97000 131.129
61.14000 139.433
61.31000 132.933
61.48000 145.331
61.65000 277.888
61.82000 203.158
61.99000 150.110
62.16000 138.001
62.33000 145.735
62.50000 146.499
62.67000 140.334
62.84000 140.506
63.01000 148.718
63.18000 130.173
63.35000 152.105
63.52000 144.890
63.69000 156.936
63.86000 162.316
64.03000 148.284
64.20000 163.168
64.37000 162.541
64.54000 172.595
64.71000 172.496
64.88000 183.171
65.05000 204.343
65.22000 229.412
65.39000 307.496
65.56000 414.160
65.73000 762.121
65.90000 1278.046
66.07000 416.116
66.24000 343.292
66.41000 489.301
66.58000 368.170
66.75000 317.257
66.92000 355.360
67.09000 368.447
67.26000 411.792
67.43000 421.720
67.60000 441.101
67.77000 485.650
67.94000 541.922
68.11000 591.289
68.28000 675.227
68.45000 790.088
68.62000 1165.572
68.79000 2240.098
68.96000 17128.129
69.13000 70572.984
69.30000 40903.148
69.47000 9261.316
69.64000 1386.978
69.81000 886.055
69.98000 717.280
70.00000 732.349