File: XRD/22-09-2025 Dep 2/XY Data/BTO_Mapping_Theta2Theta_22-09-2025_001_41_-50-000_0-000.xy
20.00000 580.476
20.17000 573.982
20.34000 544.054
20.51000 569.035
20.68000 578.325
20.85000 572.074
21.02000 554.384
21.19000 567.690
21.36000 544.797
21.53000 546.802
21.70000 550.356
21.87000 578.195
22.04000 557.027
22.21000 556.131
22.38000 540.243
22.55000 561.549
22.72000 522.350
22.89000 533.839
23.06000 535.377
23.23000 545.821
23.40000 534.570
23.57000 558.824
23.74000 536.839
23.91000 550.386
24.08000 519.279
24.25000 533.301
24.42000 524.467
24.59000 529.443
24.76000 536.463
24.93000 546.334
25.10000 528.060
25.27000 537.828
25.44000 516.413
25.61000 519.659
25.78000 525.979
25.95000 532.166
26.12000 521.533
26.29000 539.604
26.46000 527.341
26.63000 518.262
26.80000 556.307
26.97000 534.635
27.14000 538.581
27.31000 559.886
27.48000 544.821
27.65000 571.720
27.82000 551.966
27.99000 570.308
28.16000 548.257
28.33000 557.345
28.50000 578.461
28.67000 564.265
28.84000 577.362
29.01000 609.462
29.18000 600.588
29.35000 587.355
29.52000 601.901
29.69000 592.866
29.86000 600.732
30.03000 615.230
30.20000 621.724
30.37000 628.539
30.54000 632.546
30.71000 638.930
30.88000 665.280
31.05000 662.175
31.22000 679.717
31.39000 683.435
31.56000 697.307
31.73000 694.183
31.90000 711.772
32.07000 724.056
32.24000 730.710
32.41000 727.915
32.58000 767.662
32.75000 760.994
32.92000 759.157
33.09000 801.478
33.26000 786.876
33.43000 795.161
33.60000 818.895
33.77000 851.946
33.94000 878.044
34.11000 875.177
34.28000 869.253
34.45000 883.373
34.62000 904.557
34.79000 930.490
34.96000 912.046
35.13000 966.857
35.30000 975.931
35.47000 970.462
35.64000 998.730
35.81000 1033.710
35.98000 1050.799
36.15000 1061.949
36.32000 1070.784
36.49000 1081.924
36.66000 1079.334
36.83000 1137.121
37.00000 1150.757
37.17000 1175.298
37.34000 1171.234
37.51000 1236.350
37.68000 1230.347
37.85000 1247.937
38.02000 1236.924
38.19000 1282.481
38.36000 1324.110
38.53000 1329.185
38.70000 1345.125
38.87000 1418.827
39.04000 1400.162
39.21000 1422.881
39.38000 1466.921
39.55000 1441.816
39.72000 1465.287
39.89000 1554.474
40.06000 1511.997
40.23000 1575.768
40.40000 1578.247
40.57000 1572.378
40.74000 1620.691
40.91000 1661.693
41.08000 1663.885
41.25000 1688.949
41.42000 1722.142
41.59000 1750.568
41.76000 1757.840
41.93000 1757.931
42.10000 1809.268
42.27000 1842.485
42.44000 1858.093
42.61000 1882.573
42.78000 1910.002
42.95000 1946.673
43.12000 1928.935
43.29000 1972.484
43.46000 2025.857
43.63000 2120.596
43.80000 2422.094
43.97000 3224.351
44.14000 5589.936
44.31000 6781.106
44.48000 4362.926
44.65000 2790.953
44.82000 2294.580
44.99000 2136.472
45.16000 2147.076
45.33000 2103.213
45.50000 2061.755
45.67000 2112.492
45.84000 2096.605
46.01000 2144.959
46.18000 2157.706
46.35000 2125.654
46.52000 2193.993
46.69000 2182.574
46.86000 2205.276
47.03000 2224.572
47.20000 2221.863
47.37000 2219.619
47.54000 2187.460
47.71000 2188.328
47.88000 2222.090
48.05000 2225.224
48.22000 2241.106
48.39000 2273.025
48.56000 2233.393
48.73000 2254.232
48.90000 2273.570
49.07000 2263.755
49.24000 2323.787
49.41000 2276.941
49.58000 2318.302
49.75000 2338.263
49.92000 2279.358
50.09000 2294.628
50.26000 2315.261
50.43000 2362.820
50.60000 2338.165
50.77000 2331.694
50.94000 2311.756
51.11000 2353.150
51.28000 2335.197
51.45000 2331.044
51.62000 2312.542
51.79000 2335.688
51.96000 2384.391
52.13000 2318.359
52.30000 2384.041
52.47000 2391.675
52.64000 2342.453
52.81000 2368.547
52.98000 2406.609
53.15000 2376.940
53.32000 2418.426
53.49000 2357.541
53.66000 2356.357
53.83000 2423.650
54.00000 2392.547
54.17000 2375.486
54.34000 2401.536
54.51000 2406.575
54.68000 2358.211
54.85000 2434.849
55.02000 2372.504
55.19000 2391.660
55.36000 2412.198
55.53000 2394.677
55.70000 2403.705
55.87000 2374.871
56.04000 2444.076
56.21000 2414.677
56.38000 2402.181
56.55000 2396.872
56.72000 2409.666
56.89000 2386.560
57.06000 2410.672
57.23000 2413.596
57.40000 2395.717
57.57000 2441.898
57.74000 2399.903
57.91000 2400.257
58.08000 2435.203
58.25000 2417.912
58.42000 2371.571
58.59000 2401.008
58.76000 2397.211
58.93000 2381.021
59.10000 2406.502
59.27000 2376.784
59.44000 2422.558
59.61000 2421.295
59.78000 2420.077
59.95000 2373.570
60.12000 2434.564
60.29000 2393.805
60.46000 2415.230
60.63000 2440.046
60.80000 2405.871
60.97000 2395.524
61.14000 2421.144
61.31000 2399.609
61.48000 2443.694
61.65000 2412.604
61.82000 2408.258
61.99000 2401.611
62.16000 2442.575
62.33000 2433.537
62.50000 2398.169
62.67000 2440.944
62.84000 2394.202
63.01000 2430.200
63.18000 2451.296
63.35000 2421.441
63.52000 2406.402
63.69000 2438.758
63.86000 2421.777
64.03000 2433.166
64.20000 2504.125
64.37000 2663.948
64.54000 2854.656
64.71000 2790.861
64.88000 2626.898
65.05000 2523.067
65.22000 2463.484
65.39000 2444.853
65.56000 2427.043
65.73000 2376.692
65.90000 2412.330
66.07000 2390.491
66.24000 2382.342
66.41000 2417.237
66.58000 2395.149
66.75000 2396.580
66.92000 2397.958
67.09000 2394.780
67.26000 2439.093
67.43000 2367.442
67.60000 2414.670
67.77000 2411.776
67.94000 2399.443
68.11000 2404.175
68.28000 2368.447
68.45000 2424.569
68.62000 2379.543
68.79000 2363.367
68.96000 2380.828
69.13000 2365.153
69.30000 2381.181
69.47000 2424.231
69.64000 2370.821
69.81000 2364.982
69.98000 2337.080
70.00000 2366.847