File: XRD/22-09-2025 Dep 2/XY Data/BTO_Mapping_Theta2Theta_22-09-2025_001_25_-8-901_38-997.xy
20.00000 560.904
20.17000 575.001
20.34000 569.733
20.51000 576.208
20.68000 554.629
20.85000 561.883
21.02000 555.239
21.19000 565.606
21.36000 541.713
21.53000 560.820
21.70000 585.136
21.87000 679.040
22.04000 821.760
22.21000 747.229
22.38000 615.983
22.55000 540.756
22.72000 523.338
22.89000 541.209
23.06000 526.693
23.23000 518.194
23.40000 506.827
23.57000 483.030
23.74000 499.953
23.91000 511.505
24.08000 476.773
24.25000 502.350
24.42000 497.449
24.59000 494.229
24.76000 470.341
24.93000 497.146
25.10000 454.066
25.27000 472.248
25.44000 452.752
25.61000 472.868
25.78000 462.459
25.95000 474.225
26.12000 476.343
26.29000 450.521
26.46000 458.543
26.63000 457.525
26.80000 443.643
26.97000 454.213
27.14000 433.506
27.31000 437.874
27.48000 434.797
27.65000 429.227
27.82000 436.019
27.99000 427.342
28.16000 423.362
28.33000 432.026
28.50000 411.775
28.67000 428.242
28.84000 417.493
29.01000 408.605
29.18000 400.843
29.35000 400.108
29.52000 420.287
29.69000 429.563
29.86000 409.013
30.03000 450.949
30.20000 464.402
30.37000 433.022
30.54000 449.758
30.71000 456.263
30.88000 483.987
31.05000 643.710
31.22000 1605.007
31.39000 3357.499
31.56000 2282.796
31.73000 915.944
31.90000 542.088
32.07000 444.648
32.24000 393.477
32.41000 428.387
32.58000 402.588
32.75000 387.547
32.92000 402.058
33.09000 383.245
33.26000 357.829
33.43000 355.924
33.60000 341.595
33.77000 339.269
33.94000 340.769
34.11000 338.440
34.28000 326.715
34.45000 326.977
34.62000 314.340
34.79000 312.627
34.96000 335.856
35.13000 322.075
35.30000 313.175
35.47000 320.976
35.64000 319.827
35.81000 299.987
35.98000 300.168
36.15000 307.802
36.32000 304.000
36.49000 301.064
36.66000 304.030
36.83000 306.418
37.00000 308.182
37.17000 310.003
37.34000 300.068
37.51000 298.503
37.68000 286.584
37.85000 297.284
38.02000 300.222
38.19000 300.870
38.36000 339.008
38.53000 525.142
38.70000 897.874
38.87000 724.418
39.04000 393.014
39.21000 301.182
39.38000 300.666
39.55000 272.354
39.72000 267.276
39.89000 262.174
40.06000 268.266
40.23000 265.485
40.40000 256.665
40.57000 244.340
40.74000 251.034
40.91000 266.791
41.08000 244.020
41.25000 251.478
41.42000 247.739
41.59000 250.422
41.76000 250.519
41.93000 250.285
42.10000 249.007
42.27000 230.535
42.44000 234.812
42.61000 237.934
42.78000 236.576
42.95000 237.223
43.12000 227.171
43.29000 236.779
43.46000 235.466
43.63000 224.542
43.80000 222.318
43.97000 215.429
44.14000 226.497
44.31000 233.986
44.48000 240.761
44.65000 257.120
44.82000 299.979
44.99000 404.748
45.16000 437.182
45.33000 349.926
45.50000 298.601
45.67000 259.707
45.84000 232.087
46.01000 217.677
46.18000 219.994
46.35000 204.070
46.52000 199.899
46.69000 208.862
46.86000 189.149
47.03000 193.951
47.20000 196.502
47.37000 180.938
47.54000 193.852
47.71000 196.855
47.88000 186.011
48.05000 186.871
48.22000 190.952
48.39000 195.483
48.56000 180.900
48.73000 178.638
48.90000 177.501
49.07000 173.220
49.24000 196.906
49.41000 184.991
49.58000 185.227
49.75000 180.094
49.92000 186.912
50.09000 193.571
50.26000 179.235
50.43000 205.806
50.60000 248.778
50.77000 272.129
50.94000 245.677
51.11000 202.324
51.28000 183.121
51.45000 184.917
51.62000 164.941
51.79000 174.961
51.96000 172.789
52.13000 170.569
52.30000 150.352
52.47000 162.433
52.64000 161.943
52.81000 148.741
52.98000 171.536
53.15000 161.936
53.32000 170.542
53.49000 153.452
53.66000 165.265
53.83000 160.427
54.00000 159.358
54.17000 148.944
54.34000 156.425
54.51000 157.339
54.68000 151.561
54.85000 155.568
55.02000 170.819
55.19000 166.832
55.36000 168.827
55.53000 212.563
55.70000 293.209
55.87000 504.589
56.04000 571.901
56.21000 405.723
56.38000 255.897
56.55000 189.802
56.72000 171.224
56.89000 156.101
57.06000 148.444
57.23000 148.758
57.40000 146.655
57.57000 138.992
57.74000 136.655
57.91000 148.759
58.08000 146.913
58.25000 137.269
58.42000 147.007
58.59000 142.321
58.76000 145.572
58.93000 124.763
59.10000 129.932
59.27000 136.553
59.44000 131.736
59.61000 146.643
59.78000 141.282
59.95000 129.577
60.12000 139.242
60.29000 136.310
60.46000 144.352
60.63000 138.624
60.80000 139.221
60.97000 135.968
61.14000 144.067
61.31000 138.762
61.48000 156.774
61.65000 352.988
61.82000 228.278
61.99000 147.127
62.16000 144.950
62.33000 144.163
62.50000 140.021
62.67000 148.070
62.84000 141.450
63.01000 163.853
63.18000 155.608
63.35000 143.204
63.52000 149.449
63.69000 159.160
63.86000 160.068
64.03000 156.806
64.20000 162.829
64.37000 172.653
64.54000 166.940
64.71000 174.156
64.88000 191.959
65.05000 200.979
65.22000 234.043
65.39000 311.433
65.56000 426.374
65.73000 917.051
65.90000 1465.203
66.07000 492.999
66.24000 388.380
66.41000 558.135
66.58000 401.653
66.75000 359.863
66.92000 370.902
67.09000 369.273
67.26000 409.074
67.43000 437.394
67.60000 501.194
67.77000 524.729
67.94000 588.356
68.11000 635.243
68.28000 740.558
68.45000 877.840
68.62000 1306.001
68.79000 2704.505
68.96000 21333.328
69.13000 86216.719
69.30000 51037.215
69.47000 12015.205
69.64000 1636.865
69.81000 1013.326
69.98000 787.323
70.00000 771.846