File: XRD/22-09-2025 Dep 2/XY Data/BTO_Mapping_Theta2Theta_22-09-2025_001_01_0-000_0-000.xy
20.00000 564.440
20.17000 577.501
20.34000 551.322
20.51000 547.965
20.68000 547.236
20.85000 543.516
21.02000 559.439
21.19000 565.232
21.36000 562.382
21.53000 558.987
21.70000 603.944
21.87000 715.849
22.04000 841.284
22.21000 724.257
22.38000 627.094
22.55000 554.604
22.72000 533.737
22.89000 520.247
23.06000 523.348
23.23000 506.567
23.40000 516.221
23.57000 510.242
23.74000 503.038
23.91000 490.159
24.08000 488.713
24.25000 493.202
24.42000 499.178
24.59000 485.873
24.76000 482.764
24.93000 473.153
25.10000 485.936
25.27000 471.176
25.44000 487.823
25.61000 475.649
25.78000 469.642
25.95000 464.454
26.12000 461.059
26.29000 468.208
26.46000 452.799
26.63000 455.801
26.80000 468.777
26.97000 430.815
27.14000 440.576
27.31000 446.486
27.48000 441.827
27.65000 436.211
27.82000 431.511
27.99000 425.250
28.16000 453.521
28.33000 428.341
28.50000 432.311
28.67000 436.037
28.84000 427.812
29.01000 411.691
29.18000 408.498
29.35000 408.142
29.52000 426.176
29.69000 410.001
29.86000 410.370
30.03000 450.002
30.20000 446.964
30.37000 438.827
30.54000 435.645
30.71000 450.595
30.88000 535.008
31.05000 773.554
31.22000 1940.155
31.39000 3467.565
31.56000 2052.095
31.73000 833.131
31.90000 519.844
32.07000 436.897
32.24000 423.783
32.41000 397.238
32.58000 403.448
32.75000 392.180
32.92000 425.458
33.09000 381.515
33.26000 350.862
33.43000 349.218
33.60000 348.534
33.77000 345.142
33.94000 354.679
34.11000 336.858
34.28000 329.986
34.45000 323.640
34.62000 344.765
34.79000 333.703
34.96000 331.804
35.13000 330.004
35.30000 306.430
35.47000 312.790
35.64000 300.555
35.81000 313.497
35.98000 304.564
36.15000 306.225
36.32000 296.539
36.49000 299.770
36.66000 300.351
36.83000 308.491
37.00000 297.247
37.17000 315.683
37.34000 303.089
37.51000 295.141
37.68000 297.106
37.85000 308.308
38.02000 296.191
38.19000 324.795
38.36000 370.106
38.53000 579.626
38.70000 978.553
38.87000 686.763
39.04000 372.877
39.21000 319.651
39.38000 273.866
39.55000 282.529
39.72000 268.409
39.89000 274.457
40.06000 277.391
40.23000 271.943
40.40000 256.042
40.57000 271.809
40.74000 261.651
40.91000 248.308
41.08000 252.357
41.25000 234.205
41.42000 245.904
41.59000 246.111
41.76000 246.076
41.93000 232.820
42.10000 221.651
42.27000 235.360
42.44000 233.917
42.61000 232.779
42.78000 241.115
42.95000 232.001
43.12000 229.267
43.29000 239.415
43.46000 217.899
43.63000 226.085
43.80000 222.704
43.97000 233.856
44.14000 228.192
44.31000 229.757
44.48000 233.560
44.65000 253.374
44.82000 331.415
44.99000 440.724
45.16000 446.617
45.33000 344.889
45.50000 290.471
45.67000 263.639
45.84000 232.608
46.01000 223.983
46.18000 215.615
46.35000 198.072
46.52000 210.729
46.69000 197.033
46.86000 192.152
47.03000 194.569
47.20000 189.637
47.37000 192.069
47.54000 194.564
47.71000 192.545
47.88000 183.672
48.05000 182.321
48.22000 185.674
48.39000 191.585
48.56000 192.499
48.73000 185.703
48.90000 169.785
49.07000 191.483
49.24000 177.086
49.41000 177.761
49.58000 166.416
49.75000 164.531
49.92000 184.425
50.09000 172.013
50.26000 177.792
50.43000 205.756
50.60000 236.048
50.77000 256.729
50.94000 228.528
51.11000 202.865
51.28000 181.058
51.45000 184.761
51.62000 170.789
51.79000 166.360
51.96000 156.973
52.13000 156.075
52.30000 158.561
52.47000 161.523
52.64000 159.802
52.81000 152.698
52.98000 151.045
53.15000 152.509
53.32000 171.011
53.49000 157.006
53.66000 158.578
53.83000 156.177
54.00000 158.275
54.17000 152.184
54.34000 160.803
54.51000 166.516
54.68000 153.546
54.85000 164.011
55.02000 169.057
55.19000 160.707
55.36000 186.254
55.53000 216.630
55.70000 305.663
55.87000 494.058
56.04000 546.367
56.21000 351.486
56.38000 243.246
56.55000 183.727
56.72000 168.954
56.89000 158.848
57.06000 152.327
57.23000 145.185
57.40000 146.174
57.57000 143.911
57.74000 143.211
57.91000 145.954
58.08000 141.174
58.25000 143.389
58.42000 140.743
58.59000 134.879
58.76000 140.450
58.93000 138.205
59.10000 137.324
59.27000 134.187
59.44000 134.295
59.61000 137.729
59.78000 145.607
59.95000 137.972
60.12000 145.743
60.29000 134.402
60.46000 131.253
60.63000 126.737
60.80000 123.351
60.97000 131.238
61.14000 133.337
61.31000 136.580
61.48000 158.112
61.65000 323.759
61.82000 215.333
61.99000 140.227
62.16000 138.432
62.33000 128.664
62.50000 151.676
62.67000 136.775
62.84000 144.124
63.01000 147.351
63.18000 155.553
63.35000 153.415
63.52000 141.640
63.69000 151.716
63.86000 159.392
64.03000 152.179
64.20000 163.290
64.37000 174.354
64.54000 176.762
64.71000 175.969
64.88000 182.641
65.05000 208.412
65.22000 241.258
65.39000 340.917
65.56000 445.103
65.73000 887.879
65.90000 1426.051
66.07000 439.133
66.24000 367.213
66.41000 548.420
66.58000 394.104
66.75000 350.421
66.92000 360.435
67.09000 376.593
67.26000 433.395
67.43000 469.929
67.60000 476.301
67.77000 536.876
67.94000 568.815
68.11000 639.333
68.28000 707.877
68.45000 842.907
68.62000 1293.144
68.79000 2620.948
68.96000 20646.953
69.13000 80473.648
69.30000 46467.070
69.47000 10411.233
69.64000 1501.013
69.81000 951.563
69.98000 773.796
70.00000 767.293