File: XRD/22-09-2025 Dep 2/XY Data/BTO_Mapping_Theta2Theta_22-09-2025_001_33_-18-019_8-678.xy
20.00000 562.865
20.17000 563.816
20.34000 569.954
20.51000 574.923
20.68000 554.227
20.85000 550.577
21.02000 552.849
21.19000 547.271
21.36000 553.940
21.53000 586.245
21.70000 627.029
21.87000 773.956
22.04000 915.282
22.21000 762.468
22.38000 613.978
22.55000 558.402
22.72000 534.050
22.89000 515.239
23.06000 505.498
23.23000 512.614
23.40000 512.793
23.57000 526.193
23.74000 511.243
23.91000 506.104
24.08000 516.071
24.25000 507.273
24.42000 479.726
24.59000 489.190
24.76000 490.850
24.93000 503.727
25.10000 484.041
25.27000 466.545
25.44000 473.721
25.61000 449.526
25.78000 465.518
25.95000 477.489
26.12000 464.429
26.29000 459.514
26.46000 449.891
26.63000 448.853
26.80000 445.322
26.97000 430.000
27.14000 431.564
27.31000 458.903
27.48000 461.307
27.65000 452.370
27.82000 426.991
27.99000 434.361
28.16000 433.385
28.33000 429.895
28.50000 421.518
28.67000 450.605
28.84000 421.817
29.01000 420.632
29.18000 429.201
29.35000 421.840
29.52000 427.102
29.69000 419.804
29.86000 421.594
30.03000 471.317
30.20000 433.319
30.37000 434.344
30.54000 434.934
30.71000 459.841
30.88000 498.154
31.05000 755.938
31.22000 2055.726
31.39000 3442.953
31.56000 1861.692
31.73000 744.919
31.90000 500.898
32.07000 444.203
32.24000 417.627
32.41000 383.425
32.58000 402.129
32.75000 398.563
32.92000 421.724
33.09000 376.831
33.26000 355.373
33.43000 328.611
33.60000 352.539
33.77000 352.034
33.94000 346.554
34.11000 344.799
34.28000 352.119
34.45000 339.220
34.62000 328.984
34.79000 334.583
34.96000 312.778
35.13000 331.419
35.30000 332.501
35.47000 337.198
35.64000 314.957
35.81000 300.263
35.98000 323.091
36.15000 302.894
36.32000 316.049
36.49000 290.815
36.66000 296.592
36.83000 298.393
37.00000 296.531
37.17000 310.017
37.34000 305.774
37.51000 298.505
37.68000 297.671
37.85000 303.381
38.02000 309.427
38.19000 315.144
38.36000 391.859
38.53000 633.635
38.70000 803.853
38.87000 551.979
39.04000 380.725
39.21000 319.782
39.38000 297.147
39.55000 276.875
39.72000 274.373
39.89000 277.476
40.06000 268.336
40.23000 279.497
40.40000 273.811
40.57000 257.976
40.74000 253.557
40.91000 231.528
41.08000 262.196
41.25000 253.948
41.42000 256.937
41.59000 249.238
41.76000 253.654
41.93000 232.634
42.10000 237.004
42.27000 231.539
42.44000 237.720
42.61000 238.252
42.78000 237.010
42.95000 236.700
43.12000 233.360
43.29000 240.898
43.46000 219.281
43.63000 234.077
43.80000 219.013
43.97000 227.278
44.14000 235.048
44.31000 246.580
44.48000 246.477
44.65000 309.895
44.82000 432.239
44.99000 521.005
45.16000 455.388
45.33000 361.359
45.50000 289.643
45.67000 261.464
45.84000 240.832
46.01000 217.428
46.18000 218.358
46.35000 213.956
46.52000 208.062
46.69000 208.579
46.86000 211.646
47.03000 197.055
47.20000 198.533
47.37000 200.038
47.54000 208.333
47.71000 177.493
47.88000 192.252
48.05000 183.547
48.22000 185.262
48.39000 192.079
48.56000 195.269
48.73000 188.769
48.90000 186.113
49.07000 173.236
49.24000 185.574
49.41000 174.047
49.58000 187.697
49.75000 171.847
49.92000 175.575
50.09000 188.719
50.26000 204.721
50.43000 214.824
50.60000 271.764
50.77000 273.035
50.94000 228.820
51.11000 192.383
51.28000 183.779
51.45000 185.915
51.62000 171.864
51.79000 169.700
51.96000 166.988
52.13000 172.304
52.30000 156.159
52.47000 155.598
52.64000 170.253
52.81000 160.918
52.98000 156.146
53.15000 151.579
53.32000 162.911
53.49000 164.969
53.66000 164.020
53.83000 168.891
54.00000 154.689
54.17000 157.231
54.34000 161.505
54.51000 153.558
54.68000 162.669
54.85000 161.613
55.02000 172.180
55.19000 169.702
55.36000 199.111
55.53000 252.634
55.70000 407.769
55.87000 572.094
56.04000 490.114
56.21000 328.348
56.38000 217.283
56.55000 195.081
56.72000 172.080
56.89000 152.310
57.06000 163.612
57.23000 153.122
57.40000 149.856
57.57000 151.279
57.74000 144.278
57.91000 143.131
58.08000 143.872
58.25000 140.745
58.42000 147.393
58.59000 137.070
58.76000 160.525
58.93000 148.873
59.10000 138.665
59.27000 143.020
59.44000 131.916
59.61000 139.358
59.78000 131.476
59.95000 127.694
60.12000 130.072
60.29000 128.954
60.46000 141.806
60.63000 126.488
60.80000 137.999
60.97000 138.030
61.14000 141.224
61.31000 146.223
61.48000 151.656
61.65000 368.121
61.82000 231.309
61.99000 144.948
62.16000 135.595
62.33000 145.908
62.50000 140.274
62.67000 146.781
62.84000 143.534
63.01000 139.907
63.18000 153.118
63.35000 148.783
63.52000 169.302
63.69000 161.493
63.86000 155.999
64.03000 157.704
64.20000 176.823
64.37000 174.425
64.54000 169.010
64.71000 183.758
64.88000 190.963
65.05000 217.738
65.22000 264.656
65.39000 348.531
65.56000 442.823
65.73000 913.225
65.90000 1563.480
66.07000 467.346
66.24000 395.523
66.41000 575.154
66.58000 423.473
66.75000 349.867
66.92000 387.611
67.09000 407.593
67.26000 433.225
67.43000 483.226
67.60000 501.572
67.77000 566.195
67.94000 620.389
68.11000 676.618
68.28000 745.356
68.45000 900.641
68.62000 1398.482
68.79000 2859.394
68.96000 23781.920
69.13000 93684.508
69.30000 54024.461
69.47000 12289.315
69.64000 1667.962
69.81000 1061.347
69.98000 818.167
70.00000 832.357