File: XRD/22-09-2025 Dep 2/XY Data/BTO_Mapping_Theta2Theta_22-09-2025_001_32_-9-010_4-339.xy
20.00000 563.782
20.17000 556.920
20.34000 567.320
20.51000 559.756
20.68000 543.616
20.85000 566.754
21.02000 560.937
21.19000 556.013
21.36000 572.307
21.53000 562.667
21.70000 608.451
21.87000 727.921
22.04000 874.211
22.21000 756.325
22.38000 626.733
22.55000 566.168
22.72000 537.071
22.89000 515.980
23.06000 508.644
23.23000 522.534
23.40000 501.179
23.57000 508.254
23.74000 511.158
23.91000 513.957
24.08000 476.081
24.25000 492.235
24.42000 504.733
24.59000 477.484
24.76000 490.306
24.93000 482.388
25.10000 483.256
25.27000 467.722
25.44000 505.702
25.61000 465.003
25.78000 474.470
25.95000 476.507
26.12000 461.346
26.29000 481.373
26.46000 455.284
26.63000 455.041
26.80000 474.933
26.97000 460.886
27.14000 452.989
27.31000 438.953
27.48000 443.598
27.65000 438.962
27.82000 440.445
27.99000 428.840
28.16000 430.805
28.33000 438.595
28.50000 427.272
28.67000 422.304
28.84000 422.877
29.01000 417.978
29.18000 421.377
29.35000 415.748
29.52000 440.908
29.69000 414.253
29.86000 431.136
30.03000 450.374
30.20000 452.364
30.37000 442.200
30.54000 444.502
30.71000 475.625
30.88000 515.460
31.05000 707.202
31.22000 1951.344
31.39000 3417.621
31.56000 1959.905
31.73000 791.753
31.90000 516.557
32.07000 450.467
32.24000 399.017
32.41000 413.875
32.58000 389.548
32.75000 403.024
32.92000 446.487
33.09000 391.929
33.26000 358.348
33.43000 360.747
33.60000 347.483
33.77000 358.369
33.94000 354.218
34.11000 319.384
34.28000 321.325
34.45000 323.796
34.62000 343.485
34.79000 319.542
34.96000 327.985
35.13000 331.025
35.30000 315.512
35.47000 323.734
35.64000 314.025
35.81000 310.594
35.98000 308.632
36.15000 296.838
36.32000 293.246
36.49000 301.878
36.66000 321.770
36.83000 292.094
37.00000 292.764
37.17000 297.201
37.34000 308.518
37.51000 302.122
37.68000 300.573
37.85000 293.519
38.02000 309.505
38.19000 318.039
38.36000 371.150
38.53000 608.153
38.70000 927.419
38.87000 616.915
39.04000 372.905
39.21000 304.192
39.38000 294.663
39.55000 281.288
39.72000 289.994
39.89000 284.236
40.06000 276.801
40.23000 276.547
40.40000 272.171
40.57000 260.304
40.74000 263.247
40.91000 249.697
41.08000 257.163
41.25000 252.692
41.42000 255.710
41.59000 259.580
41.76000 248.310
41.93000 240.929
42.10000 232.181
42.27000 236.402
42.44000 234.596
42.61000 239.642
42.78000 242.489
42.95000 231.101
43.12000 232.973
43.29000 233.080
43.46000 224.684
43.63000 222.928
43.80000 229.485
43.97000 226.709
44.14000 236.227
44.31000 237.354
44.48000 250.339
44.65000 289.311
44.82000 361.629
44.99000 470.738
45.16000 450.947
45.33000 355.363
45.50000 294.778
45.67000 251.991
45.84000 241.988
46.01000 222.223
46.18000 219.724
46.35000 207.883
46.52000 207.384
46.69000 188.081
46.86000 201.431
47.03000 208.843
47.20000 184.494
47.37000 178.020
47.54000 194.655
47.71000 185.739
47.88000 184.278
48.05000 183.444
48.22000 190.390
48.39000 178.076
48.56000 179.249
48.73000 183.635
48.90000 183.343
49.07000 178.871
49.24000 169.454
49.41000 177.634
49.58000 176.711
49.75000 185.835
49.92000 174.475
50.09000 179.924
50.26000 190.780
50.43000 206.373
50.60000 245.587
50.77000 258.377
50.94000 225.404
51.11000 201.395
51.28000 181.478
51.45000 175.726
51.62000 173.308
51.79000 162.732
51.96000 166.901
52.13000 158.011
52.30000 170.908
52.47000 160.426
52.64000 161.722
52.81000 162.364
52.98000 159.313
53.15000 151.094
53.32000 162.078
53.49000 161.319
53.66000 162.496
53.83000 162.516
54.00000 153.559
54.17000 160.923
54.34000 160.641
54.51000 160.916
54.68000 160.564
54.85000 155.967
55.02000 173.342
55.19000 176.049
55.36000 191.118
55.53000 240.294
55.70000 350.141
55.87000 556.866
56.04000 555.189
56.21000 368.896
56.38000 246.786
56.55000 187.418
56.72000 172.256
56.89000 159.893
57.06000 155.178
57.23000 149.600
57.40000 150.616
57.57000 143.439
57.74000 139.121
57.91000 150.671
58.08000 145.327
58.25000 139.238
58.42000 142.073
58.59000 126.928
58.76000 130.779
58.93000 141.728
59.10000 140.203
59.27000 137.161
59.44000 139.128
59.61000 125.012
59.78000 138.298
59.95000 132.310
60.12000 131.200
60.29000 135.120
60.46000 135.124
60.63000 130.610
60.80000 136.961
60.97000 129.048
61.14000 133.572
61.31000 140.507
61.48000 156.119
61.65000 354.513
61.82000 223.310
61.99000 154.127
62.16000 144.732
62.33000 144.336
62.50000 156.392
62.67000 150.061
62.84000 145.031
63.01000 148.489
63.18000 143.356
63.35000 165.148
63.52000 148.073
63.69000 153.482
63.86000 151.488
64.03000 167.731
64.20000 161.300
64.37000 162.107
64.54000 162.949
64.71000 170.656
64.88000 198.218
65.05000 201.304
65.22000 241.971
65.39000 336.828
65.56000 443.788
65.73000 942.103
65.90000 1575.804
66.07000 487.644
66.24000 393.749
66.41000 591.890
66.58000 408.528
66.75000 366.147
66.92000 389.218
67.09000 417.740
67.26000 430.235
67.43000 464.831
67.60000 520.807
67.77000 557.957
67.94000 586.047
68.11000 664.997
68.28000 756.831
68.45000 906.332
68.62000 1436.068
68.79000 2856.518
68.96000 23383.781
69.13000 92191.164
69.30000 53701.492
69.47000 12331.851
69.64000 1686.075
69.81000 1046.198
69.98000 845.829
70.00000 825.909