File: XRD/22-09-2025 Dep 2/XY Data/BTO_Mapping_Theta2Theta_22-09-2025_001_21_11-126_48-746.xy
20.00000 2342.627
20.17000 2375.169
20.34000 2362.312
20.51000 2340.346
20.68000 2350.267
20.85000 2366.312
21.02000 2372.242
21.19000 2361.293
21.36000 2408.526
21.53000 2394.614
21.70000 2413.647
21.87000 2367.298
22.04000 2356.007
22.21000 2370.326
22.38000 2407.308
22.55000 2405.711
22.72000 2398.020
22.89000 2407.781
23.06000 2396.681
23.23000 2413.339
23.40000 2444.487
23.57000 2428.811
23.74000 2423.477
23.91000 2441.302
24.08000 2432.869
24.25000 2468.460
24.42000 2400.342
24.59000 2461.281
24.76000 2442.812
24.93000 2491.799
25.10000 2448.646
25.27000 2462.127
25.44000 2480.986
25.61000 2439.768
25.78000 2480.884
25.95000 2506.229
26.12000 2485.037
26.29000 2495.220
26.46000 2447.098
26.63000 2514.628
26.80000 2483.943
26.97000 2549.000
27.14000 2428.013
27.31000 2468.799
27.48000 2497.393
27.65000 2479.747
27.82000 2508.632
27.99000 2481.853
28.16000 2477.945
28.33000 2525.971
28.50000 2506.513
28.67000 2490.279
28.84000 2471.719
29.01000 2494.008
29.18000 2538.453
29.35000 2519.681
29.52000 2510.920
29.69000 2510.894
29.86000 2469.044
30.03000 2491.007
30.20000 2482.155
30.37000 2513.228
30.54000 2513.839
30.71000 2530.285
30.88000 2472.838
31.05000 2517.517
31.22000 2508.466
31.39000 2477.153
31.56000 2525.545
31.73000 2527.522
31.90000 2514.869
32.07000 2496.123
32.24000 2529.068
32.41000 2520.518
32.58000 2458.221
32.75000 2472.802
32.92000 2521.840
33.09000 2498.641
33.26000 2524.192
33.43000 2511.493
33.60000 2481.975
33.77000 2495.145
33.94000 2447.920
34.11000 2506.592
34.28000 2474.115
34.45000 2485.559
34.62000 2467.563
34.79000 2500.831
34.96000 2482.701
35.13000 2470.646
35.30000 2500.871
35.47000 2522.555
35.64000 2456.786
35.81000 2462.778
35.98000 2489.753
36.15000 2470.551
36.32000 2509.575
36.49000 2439.303
36.66000 2485.178
36.83000 2474.952
37.00000 2434.315
37.17000 2498.264
37.34000 2457.809
37.51000 2442.067
37.68000 2488.073
37.85000 2468.955
38.02000 2499.862
38.19000 2459.679
38.36000 2461.428
38.53000 2427.309
38.70000 2452.233
38.87000 2465.002
39.04000 2432.501
39.21000 2482.943
39.38000 2431.650
39.55000 2421.470
39.72000 2434.730
39.89000 2454.649
40.06000 2462.641
40.23000 2448.205
40.40000 2466.883
40.57000 2433.229
40.74000 2380.874
40.91000 2425.565
41.08000 2472.233
41.25000 2454.348
41.42000 2476.386
41.59000 2450.596
41.76000 2437.378
41.93000 2455.877
42.10000 2436.249
42.27000 2484.938
42.44000 2462.054
42.61000 2464.246
42.78000 2462.991
42.95000 2473.732
43.12000 2475.077
43.29000 2479.920
43.46000 2588.441
43.63000 2694.651
43.80000 3024.256
43.97000 4219.649
44.14000 7449.666
44.31000 8432.322
44.48000 5084.286
44.65000 3158.714
44.82000 2688.898
44.99000 2547.406
45.16000 2485.815
45.33000 2520.665
45.50000 2423.739
45.67000 2397.302
45.84000 2447.743
46.01000 2416.061
46.18000 2376.675
46.35000 2393.505
46.52000 2373.116
46.69000 2429.514
46.86000 2367.819
47.03000 2388.843
47.20000 2381.829
47.37000 2364.450
47.54000 2357.744
47.71000 2353.656
47.88000 2407.798
48.05000 2376.120
48.22000 2380.093
48.39000 2393.302
48.56000 2381.903
48.73000 2397.818
48.90000 2351.341
49.07000 2389.025
49.24000 2354.022
49.41000 2373.582
49.58000 2407.161
49.75000 2345.336
49.92000 2386.472
50.09000 2333.196
50.26000 2350.231
50.43000 2382.917
50.60000 2337.510
50.77000 2353.874
50.94000 2343.643
51.11000 2367.742
51.28000 2336.448
51.45000 2344.224
51.62000 2348.912
51.79000 2348.496
51.96000 2300.128
52.13000 2348.350
52.30000 2337.147
52.47000 2331.775
52.64000 2319.422
52.81000 2355.568
52.98000 2369.965
53.15000 2346.509
53.32000 2335.274
53.49000 2337.307
53.66000 2336.258
53.83000 2339.335
54.00000 2367.620
54.17000 2393.072
54.34000 2329.500
54.51000 2358.667
54.68000 2295.907
54.85000 2325.065
55.02000 2311.046
55.19000 2356.732
55.36000 2309.265
55.53000 2362.377
55.70000 2302.836
55.87000 2366.823
56.04000 2351.139
56.21000 2322.004
56.38000 2334.983
56.55000 2302.345
56.72000 2297.627
56.89000 2336.413
57.06000 2332.422
57.23000 2370.341
57.40000 2304.929
57.57000 2353.529
57.74000 2308.675
57.91000 2315.763
58.08000 2356.657
58.25000 2339.070
58.42000 2320.036
58.59000 2306.565
58.76000 2341.956
58.93000 2326.903
59.10000 2341.667
59.27000 2297.613
59.44000 2310.158
59.61000 2316.688
59.78000 2351.070
59.95000 2294.836
60.12000 2279.688
60.29000 2333.838
60.46000 2287.268
60.63000 2333.911
60.80000 2317.264
60.97000 2282.737
61.14000 2289.656
61.31000 2308.830
61.48000 2309.463
61.65000 2324.362
61.82000 2293.990
61.99000 2295.817
62.16000 2315.117
62.33000 2331.282
62.50000 2310.167
62.67000 2302.578
62.84000 2329.128
63.01000 2342.056
63.18000 2293.277
63.35000 2322.385
63.52000 2324.297
63.69000 2337.724
63.86000 2338.471
64.03000 2396.255
64.20000 2466.687
64.37000 2656.931
64.54000 2722.821
64.71000 2590.205
64.88000 2490.402
65.05000 2385.188
65.22000 2343.620
65.39000 2348.466
65.56000 2292.813
65.73000 2391.864
65.90000 2350.814
66.07000 2343.939
66.24000 2302.179
66.41000 2340.635
66.58000 2323.936
66.75000 2327.704
66.92000 2324.291
67.09000 2304.431
67.26000 2325.622
67.43000 2354.688
67.60000 2303.953
67.77000 2317.464
67.94000 2345.330
68.11000 2316.091
68.28000 2313.769
68.45000 2373.905
68.62000 2352.043
68.79000 2411.278
68.96000 5317.715
69.13000 7141.355
69.30000 4569.305
69.47000 2465.426
69.64000 2360.411
69.81000 2322.197
69.98000 2307.548
70.00000 2317.234