File: XRD/22-09-2025 Dep 2/XY Data/BTO_Mapping_Theta2Theta_22-09-2025_001_05_40-000_0-000.xy
20.00000 546.789
20.17000 572.480
20.34000 562.663
20.51000 566.953
20.68000 540.350
20.85000 554.431
21.02000 573.380
21.19000 543.991
21.36000 546.304
21.53000 545.672
21.70000 537.964
21.87000 590.686
22.04000 644.856
22.21000 650.897
22.38000 603.840
22.55000 528.047
22.72000 539.056
22.89000 530.885
23.06000 511.986
23.23000 494.026
23.40000 505.633
23.57000 508.547
23.74000 519.141
23.91000 524.082
24.08000 537.614
24.25000 523.433
24.42000 476.530
24.59000 490.941
24.76000 487.407
24.93000 490.909
25.10000 473.505
25.27000 455.728
25.44000 460.339
25.61000 467.780
25.78000 446.472
25.95000 453.981
26.12000 451.761
26.29000 453.729
26.46000 448.547
26.63000 430.883
26.80000 460.240
26.97000 435.301
27.14000 431.966
27.31000 439.360
27.48000 433.438
27.65000 442.506
27.82000 428.244
27.99000 429.370
28.16000 416.215
28.33000 413.836
28.50000 427.918
28.67000 440.452
28.84000 408.129
29.01000 418.669
29.18000 408.149
29.35000 406.036
29.52000 398.918
29.69000 421.744
29.86000 412.394
30.03000 403.159
30.20000 416.486
30.37000 430.759
30.54000 425.906
30.71000 419.193
30.88000 452.409
31.05000 552.961
31.22000 945.062
31.39000 1945.458
31.56000 1493.829
31.73000 693.370
31.90000 482.836
32.07000 422.591
32.24000 397.989
32.41000 377.446
32.58000 394.954
32.75000 366.870
32.92000 392.336
33.09000 346.037
33.26000 341.695
33.43000 354.427
33.60000 328.967
33.77000 328.587
33.94000 320.989
34.11000 329.373
34.28000 336.823
34.45000 338.538
34.62000 331.275
34.79000 318.462
34.96000 313.076
35.13000 303.905
35.30000 324.987
35.47000 312.627
35.64000 300.585
35.81000 305.581
35.98000 307.426
36.15000 297.509
36.32000 303.885
36.49000 299.420
36.66000 298.854
36.83000 304.758
37.00000 305.213
37.17000 294.014
37.34000 295.438
37.51000 291.046
37.68000 281.083
37.85000 271.184
38.02000 301.122
38.19000 294.543
38.36000 305.774
38.53000 409.362
38.70000 853.080
38.87000 897.427
39.04000 414.838
39.21000 303.070
39.38000 253.914
39.55000 270.197
39.72000 266.131
39.89000 267.223
40.06000 256.722
40.23000 257.308
40.40000 252.989
40.57000 255.551
40.74000 225.972
40.91000 239.010
41.08000 245.521
41.25000 248.397
41.42000 239.876
41.59000 234.489
41.76000 241.830
41.93000 238.985
42.10000 242.919
42.27000 244.509
42.44000 240.791
42.61000 231.820
42.78000 234.063
42.95000 229.538
43.12000 228.401
43.29000 232.588
43.46000 212.965
43.63000 225.430
43.80000 221.501
43.97000 216.409
44.14000 214.746
44.31000 224.306
44.48000 219.696
44.65000 222.010
44.82000 238.584
44.99000 258.984
45.16000 299.603
45.33000 268.210
45.50000 262.883
45.67000 246.171
45.84000 224.720
46.01000 216.422
46.18000 210.793
46.35000 198.769
46.52000 223.876
46.69000 226.473
46.86000 201.949
47.03000 194.625
47.20000 194.544
47.37000 184.562
47.54000 192.651
47.71000 188.631
47.88000 188.174
48.05000 186.597
48.22000 192.140
48.39000 191.495
48.56000 181.590
48.73000 182.682
48.90000 165.807
49.07000 170.588
49.24000 182.126
49.41000 174.224
49.58000 164.017
49.75000 167.007
49.92000 174.864
50.09000 160.259
50.26000 181.318
50.43000 165.841
50.60000 194.199
50.77000 222.381
50.94000 218.186
51.11000 185.276
51.28000 165.651
51.45000 181.805
51.62000 168.444
51.79000 156.972
51.96000 157.332
52.13000 161.432
52.30000 162.994
52.47000 157.111
52.64000 154.261
52.81000 144.648
52.98000 158.917
53.15000 160.851
53.32000 157.904
53.49000 150.660
53.66000 162.881
53.83000 145.179
54.00000 149.972
54.17000 157.350
54.34000 159.299
54.51000 150.216
54.68000 148.856
54.85000 160.058
55.02000 155.280
55.19000 163.275
55.36000 165.909
55.53000 175.411
55.70000 238.740
55.87000 409.558
56.04000 589.840
56.21000 476.531
56.38000 264.473
56.55000 197.250
56.72000 154.079
56.89000 152.614
57.06000 141.578
57.23000 150.115
57.40000 139.871
57.57000 137.962
57.74000 146.677
57.91000 146.316
58.08000 149.999
58.25000 135.218
58.42000 139.123
58.59000 123.690
58.76000 143.735
58.93000 123.545
59.10000 138.975
59.27000 134.988
59.44000 131.074
59.61000 128.449
59.78000 138.318
59.95000 132.130
60.12000 137.468
60.29000 131.730
60.46000 138.834
60.63000 130.994
60.80000 139.414
60.97000 132.459
61.14000 139.584
61.31000 141.335
61.48000 144.260
61.65000 248.647
61.82000 217.464
61.99000 139.658
62.16000 146.517
62.33000 135.640
62.50000 140.550
62.67000 141.313
62.84000 146.726
63.01000 144.855
63.18000 159.773
63.35000 161.100
63.52000 146.248
63.69000 140.184
63.86000 137.510
64.03000 155.656
64.20000 155.759
64.37000 176.586
64.54000 175.101
64.71000 155.434
64.88000 172.705
65.05000 183.690
65.22000 199.059
65.39000 243.017
65.56000 318.429
65.73000 577.750
65.90000 1030.547
66.07000 389.604
66.24000 298.004
66.41000 428.047
66.58000 345.938
66.75000 309.194
66.92000 339.365
67.09000 356.340
67.26000 377.537
67.43000 405.509
67.60000 413.944
67.77000 483.980
67.94000 490.480
68.11000 526.891
68.28000 615.159
68.45000 720.898
68.62000 964.263
68.79000 1799.182
68.96000 10247.999
69.13000 53714.383
69.30000 32418.305
69.47000 8413.310
69.64000 1227.734
69.81000 821.266
69.98000 683.084
70.00000 649.773