File: XRD/22-09-2025 Dep 2/XY Data/BTO_Mapping_Theta2Theta_22-09-2025_001_37_-10-000_0-000.xy
20.00000 577.244
20.17000 560.015
20.34000 590.356
20.51000 546.087
20.68000 589.258
20.85000 579.777
21.02000 584.854
21.19000 525.275
21.36000 567.431
21.53000 552.264
21.70000 607.481
21.87000 745.671
22.04000 868.284
22.21000 758.745
22.38000 610.521
22.55000 563.669
22.72000 526.100
22.89000 540.558
23.06000 526.623
23.23000 522.831
23.40000 506.991
23.57000 490.701
23.74000 492.430
23.91000 506.519
24.08000 499.986
24.25000 500.174
24.42000 491.238
24.59000 495.843
24.76000 491.280
24.93000 490.241
25.10000 486.717
25.27000 473.193
25.44000 460.138
25.61000 450.626
25.78000 460.114
25.95000 465.597
26.12000 463.311
26.29000 461.903
26.46000 469.251
26.63000 467.703
26.80000 459.822
26.97000 447.693
27.14000 440.959
27.31000 448.205
27.48000 432.314
27.65000 438.109
27.82000 446.029
27.99000 434.214
28.16000 442.750
28.33000 439.154
28.50000 444.801
28.67000 428.380
28.84000 431.154
29.01000 410.646
29.18000 420.221
29.35000 418.479
29.52000 392.179
29.69000 426.556
29.86000 425.890
30.03000 456.460
30.20000 445.217
30.37000 428.491
30.54000 436.682
30.71000 454.628
30.88000 535.472
31.05000 729.269
31.22000 1900.050
31.39000 3284.813
31.56000 1958.597
31.73000 802.518
31.90000 519.193
32.07000 429.320
32.24000 419.583
32.41000 415.031
32.58000 410.093
32.75000 390.490
32.92000 449.913
33.09000 390.759
33.26000 351.090
33.43000 339.977
33.60000 351.373
33.77000 349.644
33.94000 332.020
34.11000 339.781
34.28000 333.282
34.45000 325.897
34.62000 328.999
34.79000 323.493
34.96000 319.581
35.13000 328.972
35.30000 325.879
35.47000 313.151
35.64000 315.325
35.81000 315.147
35.98000 302.812
36.15000 305.237
36.32000 307.884
36.49000 307.341
36.66000 310.308
36.83000 309.207
37.00000 307.212
37.17000 308.218
37.34000 296.636
37.51000 287.948
37.68000 303.699
37.85000 286.981
38.02000 297.727
38.19000 308.204
38.36000 387.030
38.53000 625.051
38.70000 884.647
38.87000 629.420
39.04000 371.691
39.21000 302.531
39.38000 296.769
39.55000 259.700
39.72000 274.162
39.89000 264.370
40.06000 263.584
40.23000 272.919
40.40000 273.331
40.57000 259.854
40.74000 257.850
40.91000 252.898
41.08000 260.283
41.25000 245.454
41.42000 243.940
41.59000 247.203
41.76000 240.981
41.93000 234.445
42.10000 256.133
42.27000 237.037
42.44000 246.111
42.61000 239.892
42.78000 232.458
42.95000 242.584
43.12000 239.365
43.29000 236.297
43.46000 228.791
43.63000 232.531
43.80000 230.020
43.97000 234.523
44.14000 233.402
44.31000 253.135
44.48000 250.374
44.65000 299.351
44.82000 388.346
44.99000 489.897
45.16000 475.290
45.33000 344.271
45.50000 292.709
45.67000 263.595
45.84000 239.783
46.01000 222.846
46.18000 211.902
46.35000 213.731
46.52000 213.044
46.69000 201.552
46.86000 203.605
47.03000 201.623
47.20000 203.635
47.37000 196.343
47.54000 187.654
47.71000 198.479
47.88000 189.409
48.05000 181.776
48.22000 182.575
48.39000 186.619
48.56000 187.647
48.73000 186.479
48.90000 178.080
49.07000 187.721
49.24000 184.095
49.41000 182.382
49.58000 195.482
49.75000 182.092
49.92000 178.334
50.09000 183.362
50.26000 186.880
50.43000 213.985
50.60000 257.112
50.77000 277.796
50.94000 226.829
51.11000 193.407
51.28000 184.654
51.45000 180.215
51.62000 159.643
51.79000 168.066
51.96000 173.592
52.13000 159.988
52.30000 161.917
52.47000 169.334
52.64000 172.480
52.81000 170.665
52.98000 159.493
53.15000 165.064
53.32000 164.944
53.49000 158.929
53.66000 154.544
53.83000 163.475
54.00000 155.658
54.17000 155.170
54.34000 152.442
54.51000 159.782
54.68000 160.380
54.85000 170.960
55.02000 167.987
55.19000 164.106
55.36000 182.475
55.53000 222.584
55.70000 355.820
55.87000 573.208
56.04000 529.871
56.21000 362.476
56.38000 246.713
56.55000 193.025
56.72000 171.932
56.89000 158.849
57.06000 153.683
57.23000 161.961
57.40000 150.413
57.57000 143.277
57.74000 153.606
57.91000 140.956
58.08000 141.233
58.25000 139.772
58.42000 132.448
58.59000 139.358
58.76000 141.006
58.93000 147.674
59.10000 135.641
59.27000 132.887
59.44000 135.066
59.61000 130.063
59.78000 133.874
59.95000 134.257
60.12000 137.799
60.29000 144.440
60.46000 135.342
60.63000 127.651
60.80000 130.158
60.97000 135.236
61.14000 140.322
61.31000 146.363
61.48000 161.045
61.65000 369.555
61.82000 238.418
61.99000 153.878
62.16000 142.247
62.33000 144.128
62.50000 144.528
62.67000 156.706
62.84000 141.894
63.01000 154.424
63.18000 173.551
63.35000 141.523
63.52000 144.880
63.69000 144.904
63.86000 153.170
64.03000 158.244
64.20000 173.160
64.37000 170.447
64.54000 173.971
64.71000 183.621
64.88000 193.564
65.05000 207.408
65.22000 257.773
65.39000 339.996
65.56000 446.735
65.73000 915.362
65.90000 1576.238
66.07000 478.946
66.24000 396.230
66.41000 544.924
66.58000 420.460
66.75000 364.141
66.92000 374.135
67.09000 396.595
67.26000 415.149
67.43000 511.728
67.60000 533.604
67.77000 568.720
67.94000 621.669
68.11000 679.444
68.28000 752.684
68.45000 903.844
68.62000 1419.193
68.79000 2942.368
68.96000 23185.746
69.13000 94095.688
69.30000 55255.793
69.47000 12821.609
69.64000 1700.418
69.81000 1086.952
69.98000 842.421
70.00000 856.346