File: XRD/22-09-2025 Dep 2/XY Data/BTO_Mapping_Theta2Theta_22-09-2025_001_36_-45-048_21-694.xy
20.00000 551.569
20.17000 543.662
20.34000 554.847
20.51000 561.442
20.68000 538.258
20.85000 536.891
21.02000 518.143
21.19000 558.939
21.36000 548.483
21.53000 529.977
21.70000 511.266
21.87000 503.772
22.04000 535.049
22.21000 508.444
22.38000 531.823
22.55000 508.069
22.72000 502.317
22.89000 533.514
23.06000 507.524
23.23000 506.404
23.40000 504.849
23.57000 503.078
23.74000 478.630
23.91000 486.599
24.08000 481.907
24.25000 473.295
24.42000 473.430
24.59000 467.275
24.76000 478.035
24.93000 467.340
25.10000 464.658
25.27000 471.969
25.44000 437.597
25.61000 474.672
25.78000 458.579
25.95000 438.005
26.12000 444.647
26.29000 445.644
26.46000 429.922
26.63000 438.607
26.80000 436.892
26.97000 434.360
27.14000 431.697
27.31000 440.823
27.48000 420.191
27.65000 423.794
27.82000 407.457
27.99000 395.497
28.16000 408.209
28.33000 412.805
28.50000 406.395
28.67000 388.730
28.84000 386.195
29.01000 406.524
29.18000 399.028
29.35000 377.731
29.52000 404.478
29.69000 381.340
29.86000 381.237
30.03000 368.556
30.20000 378.850
30.37000 386.133
30.54000 375.668
30.71000 349.007
30.88000 362.031
31.05000 350.695
31.22000 356.051
31.39000 361.694
31.56000 359.485
31.73000 344.827
31.90000 356.751
32.07000 351.846
32.24000 338.501
32.41000 344.352
32.58000 347.401
32.75000 354.951
32.92000 344.915
33.09000 321.301
33.26000 349.011
33.43000 322.277
33.60000 324.329
33.77000 332.425
33.94000 299.516
34.11000 311.958
34.28000 307.433
34.45000 302.238
34.62000 313.799
34.79000 307.587
34.96000 303.721
35.13000 305.883
35.30000 294.620
35.47000 291.635
35.64000 292.667
35.81000 302.004
35.98000 306.046
36.15000 282.017
36.32000 285.069
36.49000 296.208
36.66000 276.130
36.83000 278.335
37.00000 277.191
37.17000 277.720
37.34000 274.775
37.51000 270.360
37.68000 254.081
37.85000 259.434
38.02000 268.825
38.19000 255.179
38.36000 258.395
38.53000 257.816
38.70000 260.919
38.87000 247.348
39.04000 246.477
39.21000 260.199
39.38000 245.171
39.55000 241.657
39.72000 254.858
39.89000 243.070
40.06000 244.390
40.23000 242.475
40.40000 245.556
40.57000 209.059
40.74000 232.285
40.91000 238.828
41.08000 223.425
41.25000 217.766
41.42000 234.462
41.59000 228.889
41.76000 231.327
41.93000 219.851
42.10000 215.973
42.27000 217.717
42.44000 215.713
42.61000 205.718
42.78000 206.016
42.95000 200.702
43.12000 207.593
43.29000 209.455
43.46000 202.525
43.63000 193.996
43.80000 206.578
43.97000 197.477
44.14000 209.706
44.31000 200.696
44.48000 187.115
44.65000 201.535
44.82000 199.811
44.99000 181.135
45.16000 202.536
45.33000 188.826
45.50000 193.087
45.67000 192.563
45.84000 185.089
46.01000 176.529
46.18000 185.039
46.35000 176.158
46.52000 174.789
46.69000 182.781
46.86000 187.083
47.03000 181.440
47.20000 172.725
47.37000 175.338
47.54000 164.043
47.71000 181.010
47.88000 172.151
48.05000 158.456
48.22000 158.230
48.39000 171.376
48.56000 166.886
48.73000 159.265
48.90000 166.083
49.07000 165.170
49.24000 162.497
49.41000 156.917
49.58000 165.709
49.75000 162.149
49.92000 158.200
50.09000 151.919
50.26000 151.102
50.43000 147.381
50.60000 142.947
50.77000 138.311
50.94000 150.535
51.11000 137.811
51.28000 141.719
51.45000 144.603
51.62000 142.951
51.79000 153.974
51.96000 128.855
52.13000 131.157
52.30000 154.526
52.47000 138.005
52.64000 138.182
52.81000 124.282
52.98000 141.921
53.15000 145.791
53.32000 143.756
53.49000 148.132
53.66000 132.762
53.83000 135.170
54.00000 133.220
54.17000 128.953
54.34000 131.626
54.51000 136.669
54.68000 134.066
54.85000 120.834
55.02000 127.017
55.19000 123.798
55.36000 126.334
55.53000 125.764
55.70000 125.212
55.87000 131.107
56.04000 127.230
56.21000 131.539
56.38000 112.374
56.55000 123.222
56.72000 112.773
56.89000 130.162
57.06000 124.490
57.23000 121.446
57.40000 115.367
57.57000 122.009
57.74000 122.082
57.91000 120.138
58.08000 122.071
58.25000 113.669
58.42000 108.082
58.59000 112.646
58.76000 107.580
58.93000 120.005
59.10000 116.739
59.27000 120.955
59.44000 111.802
59.61000 110.613
59.78000 109.793
59.95000 111.416
60.12000 101.723
60.29000 112.098
60.46000 111.986
60.63000 106.787
60.80000 104.815
60.97000 107.140
61.14000 106.054
61.31000 107.975
61.48000 100.242
61.65000 106.271
61.82000 114.425
61.99000 114.358
62.16000 106.251
62.33000 98.558
62.50000 109.490
62.67000 108.654
62.84000 103.178
63.01000 112.146
63.18000 102.033
63.35000 109.618
63.52000 102.204
63.69000 105.617
63.86000 111.824
64.03000 106.444
64.20000 101.170
64.37000 107.303
64.54000 106.338
64.71000 94.102
64.88000 101.117
65.05000 107.299
65.22000 105.672
65.39000 104.003
65.56000 107.934
65.73000 113.216
65.90000 142.199
66.07000 122.153
66.24000 112.799
66.41000 118.044
66.58000 126.521
66.75000 109.607
66.92000 120.543
67.09000 120.169
67.26000 113.689
67.43000 110.770
67.60000 109.315
67.77000 122.229
67.94000 123.319
68.11000 123.267
68.28000 121.259
68.45000 132.525
68.62000 147.220
68.79000 184.605
68.96000 358.280
69.13000 2527.536
69.30000 2751.789
69.47000 1374.253
69.64000 177.473
69.81000 153.454
69.98000 139.880
70.00000 135.511