File: XRD/22-09-2025 Dep 2/XY Data/BTO_Mapping_Theta2Theta_22-09-2025_001_12_6-235_7-818.xy
20.00000 562.729
20.17000 576.679
20.34000 566.108
20.51000 573.381
20.68000 536.855
20.85000 544.749
21.02000 565.540
21.19000 567.175
21.36000 561.987
21.53000 590.187
21.70000 570.962
21.87000 665.221
22.04000 781.357
22.21000 714.533
22.38000 634.220
22.55000 569.541
22.72000 552.183
22.89000 525.202
23.06000 506.067
23.23000 520.050
23.40000 495.027
23.57000 511.343
23.74000 510.053
23.91000 510.390
24.08000 489.153
24.25000 513.659
24.42000 471.702
24.59000 487.727
24.76000 465.483
24.93000 476.697
25.10000 477.045
25.27000 476.277
25.44000 489.901
25.61000 475.245
25.78000 466.205
25.95000 471.383
26.12000 456.793
26.29000 468.065
26.46000 447.378
26.63000 455.358
26.80000 464.547
26.97000 448.540
27.14000 436.133
27.31000 444.359
27.48000 432.033
27.65000 430.085
27.82000 440.294
27.99000 417.573
28.16000 424.618
28.33000 439.557
28.50000 420.739
28.67000 423.641
28.84000 419.692
29.01000 408.456
29.18000 429.507
29.35000 423.182
29.52000 423.663
29.69000 415.822
29.86000 431.378
30.03000 452.825
30.20000 450.535
30.37000 454.388
30.54000 455.933
30.71000 454.679
30.88000 505.248
31.05000 752.937
31.22000 1860.786
31.39000 3417.422
31.56000 2092.999
31.73000 820.196
31.90000 511.211
32.07000 433.083
32.24000 418.818
32.41000 382.651
32.58000 401.681
32.75000 394.684
32.92000 410.812
33.09000 377.198
33.26000 355.837
33.43000 351.454
33.60000 358.928
33.77000 342.203
33.94000 371.919
34.11000 348.304
34.28000 339.954
34.45000 335.317
34.62000 336.024
34.79000 324.482
34.96000 315.693
35.13000 312.757
35.30000 304.605
35.47000 306.868
35.64000 300.596
35.81000 299.563
35.98000 310.376
36.15000 298.634
36.32000 296.736
36.49000 319.657
36.66000 290.965
36.83000 303.379
37.00000 295.863
37.17000 297.164
37.34000 292.606
37.51000 292.719
37.68000 304.739
37.85000 293.021
38.02000 291.471
38.19000 323.904
38.36000 353.891
38.53000 560.775
38.70000 996.467
38.87000 741.933
39.04000 392.405
39.21000 301.595
39.38000 296.005
39.55000 278.153
39.72000 268.734
39.89000 269.074
40.06000 265.190
40.23000 263.725
40.40000 264.332
40.57000 256.477
40.74000 254.745
40.91000 244.896
41.08000 252.908
41.25000 245.578
41.42000 256.055
41.59000 250.699
41.76000 239.689
41.93000 235.694
42.10000 230.340
42.27000 231.404
42.44000 244.030
42.61000 233.153
42.78000 227.625
42.95000 239.728
43.12000 241.481
43.29000 242.429
43.46000 213.933
43.63000 227.359
43.80000 234.494
43.97000 226.790
44.14000 238.001
44.31000 227.827
44.48000 227.120
44.65000 242.924
44.82000 298.139
44.99000 394.082
45.16000 418.624
45.33000 339.299
45.50000 297.229
45.67000 257.310
45.84000 237.793
46.01000 212.576
46.18000 214.191
46.35000 202.726
46.52000 218.015
46.69000 195.723
46.86000 201.263
47.03000 206.471
47.20000 190.035
47.37000 183.420
47.54000 189.813
47.71000 187.297
47.88000 202.084
48.05000 186.176
48.22000 186.343
48.39000 181.548
48.56000 185.500
48.73000 181.308
48.90000 180.910
49.07000 191.764
49.24000 172.924
49.41000 190.100
49.58000 172.967
49.75000 177.807
49.92000 183.481
50.09000 179.363
50.26000 162.041
50.43000 187.182
50.60000 226.215
50.77000 265.635
50.94000 224.222
51.11000 193.147
51.28000 178.734
51.45000 170.368
51.62000 178.102
51.79000 164.064
51.96000 174.265
52.13000 176.603
52.30000 156.214
52.47000 153.581
52.64000 152.148
52.81000 160.794
52.98000 157.722
53.15000 148.410
53.32000 151.772
53.49000 162.856
53.66000 151.860
53.83000 157.063
54.00000 157.040
54.17000 151.530
54.34000 150.688
54.51000 153.255
54.68000 159.076
54.85000 172.443
55.02000 160.827
55.19000 174.127
55.36000 182.323
55.53000 209.447
55.70000 286.224
55.87000 496.620
56.04000 532.894
56.21000 355.212
56.38000 241.264
56.55000 182.069
56.72000 174.259
56.89000 165.086
57.06000 163.028
57.23000 143.554
57.40000 141.156
57.57000 144.699
57.74000 140.610
57.91000 145.658
58.08000 146.644
58.25000 140.163
58.42000 139.043
58.59000 130.843
58.76000 120.424
58.93000 133.819
59.10000 138.663
59.27000 130.877
59.44000 131.506
59.61000 136.821
59.78000 137.683
59.95000 131.931
60.12000 129.669
60.29000 131.834
60.46000 132.684
60.63000 133.003
60.80000 139.261
60.97000 131.484
61.14000 138.826
61.31000 146.873
61.48000 147.461
61.65000 303.660
61.82000 220.644
61.99000 149.970
62.16000 142.491
62.33000 140.605
62.50000 138.912
62.67000 141.187
62.84000 136.380
63.01000 131.148
63.18000 149.530
63.35000 152.009
63.52000 152.487
63.69000 146.882
63.86000 159.654
64.03000 149.978
64.20000 165.768
64.37000 169.954
64.54000 167.862
64.71000 183.243
64.88000 175.616
65.05000 206.760
65.22000 239.981
65.39000 318.815
65.56000 443.431
65.73000 792.777
65.90000 1282.200
66.07000 410.788
66.24000 357.513
66.41000 501.875
66.58000 372.744
66.75000 344.146
66.92000 347.103
67.09000 388.342
67.26000 409.996
67.43000 424.986
67.60000 461.513
67.77000 510.132
67.94000 556.307
68.11000 618.047
68.28000 694.235
68.45000 826.146
68.62000 1212.437
68.79000 2352.933
68.96000 17657.885
69.13000 73432.906
69.30000 42685.715
69.47000 9862.030
69.64000 1455.548
69.81000 957.669
69.98000 743.199
70.00000 743.016