File: XRD/22-09-2025 Dep 2/XY Data/BTO_Mapping_Theta2Theta_22-09-2025_001_11_45-048_21-694.xy
20.00000 1194.571
20.17000 1157.741
20.34000 1140.401
20.51000 1153.519
20.68000 1138.126
20.85000 1153.199
21.02000 1126.481
21.19000 1086.133
21.36000 1098.947
21.53000 1037.177
21.70000 1045.730
21.87000 1062.442
22.04000 1013.962
22.21000 1021.395
22.38000 1020.782
22.55000 984.986
22.72000 999.394
22.89000 984.219
23.06000 976.084
23.23000 970.228
23.40000 938.713
23.57000 972.732
23.74000 925.435
23.91000 924.728
24.08000 921.143
24.25000 909.012
24.42000 899.824
24.59000 904.619
24.76000 871.709
24.93000 877.654
25.10000 858.814
25.27000 865.511
25.44000 852.283
25.61000 839.805
25.78000 837.747
25.95000 806.822
26.12000 784.639
26.29000 795.766
26.46000 789.026
26.63000 775.698
26.80000 771.646
26.97000 787.011
27.14000 776.599
27.31000 747.214
27.48000 747.713
27.65000 749.671
27.82000 739.189
27.99000 692.275
28.16000 713.317
28.33000 706.878
28.50000 670.276
28.67000 696.945
28.84000 665.544
29.01000 674.089
29.18000 671.758
29.35000 665.915
29.52000 651.834
29.69000 655.163
29.86000 652.470
30.03000 632.451
30.20000 647.507
30.37000 639.121
30.54000 622.805
30.71000 598.568
30.88000 606.689
31.05000 602.068
31.22000 585.921
31.39000 592.266
31.56000 596.364
31.73000 569.120
31.90000 571.137
32.07000 565.417
32.24000 571.097
32.41000 580.213
32.58000 553.147
32.75000 532.064
32.92000 551.328
33.09000 557.116
33.26000 534.735
33.43000 532.232
33.60000 534.272
33.77000 520.363
33.94000 525.226
34.11000 510.665
34.28000 507.606
34.45000 495.673
34.62000 497.606
34.79000 520.182
34.96000 502.341
35.13000 491.412
35.30000 461.344
35.47000 471.224
35.64000 478.117
35.81000 470.458
35.98000 469.359
36.15000 446.710
36.32000 464.789
36.49000 457.185
36.66000 446.053
36.83000 453.654
37.00000 448.644
37.17000 427.642
37.34000 427.615
37.51000 405.086
37.68000 423.251
37.85000 423.830
38.02000 432.360
38.19000 409.504
38.36000 398.863
38.53000 408.352
38.70000 402.522
38.87000 402.011
39.04000 378.271
39.21000 395.412
39.38000 402.501
39.55000 387.405
39.72000 383.984
39.89000 374.728
40.06000 376.981
40.23000 377.196
40.40000 378.812
40.57000 383.655
40.74000 370.547
40.91000 360.962
41.08000 362.806
41.25000 356.951
41.42000 363.356
41.59000 355.605
41.76000 351.599
41.93000 336.432
42.10000 340.892
42.27000 333.669
42.44000 325.752
42.61000 325.289
42.78000 333.823
42.95000 331.433
43.12000 334.857
43.29000 318.473
43.46000 330.515
43.63000 331.101
43.80000 331.973
43.97000 303.235
44.14000 298.358
44.31000 318.708
44.48000 309.126
44.65000 296.483
44.82000 309.325
44.99000 284.482
45.16000 294.486
45.33000 290.821
45.50000 297.684
45.67000 291.562
45.84000 290.369
46.01000 300.044
46.18000 283.506
46.35000 294.970
46.52000 290.976
46.69000 268.857
46.86000 273.827
47.03000 279.044
47.20000 271.620
47.37000 264.205
47.54000 269.563
47.71000 267.917
47.88000 268.233
48.05000 264.504
48.22000 262.326
48.39000 252.850
48.56000 252.153
48.73000 258.405
48.90000 244.032
49.07000 257.410
49.24000 248.342
49.41000 252.051
49.58000 252.995
49.75000 255.417
49.92000 254.337
50.09000 251.152
50.26000 251.413
50.43000 252.128
50.60000 239.704
50.77000 249.701
50.94000 251.145
51.11000 246.603
51.28000 241.063
51.45000 245.284
51.62000 242.269
51.79000 243.936
51.96000 238.939
52.13000 232.927
52.30000 240.904
52.47000 250.550
52.64000 243.815
52.81000 247.760
52.98000 240.842
53.15000 240.156
53.32000 254.892
53.49000 265.043
53.66000 247.731
53.83000 239.168
54.00000 230.665
54.17000 247.500
54.34000 256.601
54.51000 257.306
54.68000 236.622
54.85000 239.291
55.02000 264.585
55.19000 269.647
55.36000 270.555
55.53000 276.377
55.70000 262.685
55.87000 264.864
56.04000 284.790
56.21000 283.014
56.38000 279.154
56.55000 279.112
56.72000 296.907
56.89000 298.490
57.06000 323.626
57.23000 297.430
57.40000 297.092
57.57000 332.160
57.74000 328.514
57.91000 325.390
58.08000 316.664
58.25000 317.866
58.42000 317.527
58.59000 328.577
58.76000 345.975
58.93000 349.485
59.10000 344.887
59.27000 373.255
59.44000 355.351
59.61000 374.899
59.78000 382.458
59.95000 401.939
60.12000 391.894
60.29000 400.680
60.46000 398.147
60.63000 407.924
60.80000 407.832
60.97000 417.308
61.14000 435.064
61.31000 432.884
61.48000 450.477
61.65000 513.751
61.82000 470.766
61.99000 457.326
62.16000 461.226
62.33000 480.320
62.50000 490.430
62.67000 500.630
62.84000 497.766
63.01000 512.388
63.18000 516.588
63.35000 526.550
63.52000 512.163
63.69000 547.592
63.86000 540.701
64.03000 566.250
64.20000 572.258
64.37000 646.487
64.54000 661.150
64.71000 641.291
64.88000 631.706
65.05000 628.026
65.22000 624.050
65.39000 640.268
65.56000 660.425
65.73000 867.439
65.90000 968.544
66.07000 659.368
66.24000 716.761
66.41000 745.924
66.58000 690.637
66.75000 714.336
66.92000 737.761
67.09000 770.153
67.26000 758.536
67.43000 778.894
67.60000 826.497
67.77000 831.412
67.94000 847.208
68.11000 887.929
68.28000 921.536
68.45000 973.981
68.62000 1154.444
68.79000 1592.067
68.96000 10255.787
69.13000 26630.992
69.30000 13984.688
69.47000 1933.076
69.64000 1190.428
69.81000 1050.861
69.98000 1042.640
70.00000 1021.707