File: XRD/22-09-2025 Dep 2/XY Data/BTO_Mapping_Theta2Theta_22-09-2025_001_63_12-470_-15-637.xy
20.00000 567.051
20.17000 581.285
20.34000 567.897
20.51000 558.178
20.68000 563.805
20.85000 562.192
21.02000 562.560
21.19000 537.805
21.36000 554.754
21.53000 554.888
21.70000 581.874
21.87000 642.177
22.04000 743.452
22.21000 725.937
22.38000 599.061
22.55000 546.429
22.72000 532.291
22.89000 523.997
23.06000 511.078
23.23000 527.710
23.40000 514.219
23.57000 526.287
23.74000 525.409
23.91000 517.460
24.08000 532.754
24.25000 517.671
24.42000 505.157
24.59000 479.428
24.76000 484.999
24.93000 461.944
25.10000 495.564
25.27000 495.817
25.44000 475.914
25.61000 464.840
25.78000 456.184
25.95000 475.396
26.12000 454.445
26.29000 451.230
26.46000 438.451
26.63000 451.241
26.80000 457.674
26.97000 459.525
27.14000 462.114
27.31000 451.889
27.48000 445.569
27.65000 442.151
27.82000 442.821
27.99000 449.110
28.16000 432.289
28.33000 457.148
28.50000 429.573
28.67000 435.745
28.84000 423.267
29.01000 402.371
29.18000 427.386
29.35000 433.111
29.52000 422.258
29.69000 408.031
29.86000 423.609
30.03000 431.427
30.20000 437.796
30.37000 429.482
30.54000 438.455
30.71000 449.037
30.88000 502.714
31.05000 681.689
31.22000 1619.252
31.39000 3252.250
31.56000 2133.969
31.73000 837.891
31.90000 528.166
32.07000 441.682
32.24000 431.858
32.41000 415.371
32.58000 402.863
32.75000 398.247
32.92000 416.321
33.09000 389.538
33.26000 350.792
33.43000 352.599
33.60000 353.937
33.77000 344.884
33.94000 344.252
34.11000 338.906
34.28000 345.812
34.45000 344.347
34.62000 334.372
34.79000 328.882
34.96000 339.950
35.13000 318.034
35.30000 339.044
35.47000 307.567
35.64000 312.603
35.81000 306.342
35.98000 300.287
36.15000 307.157
36.32000 294.809
36.49000 304.192
36.66000 304.464
36.83000 301.374
37.00000 299.686
37.17000 311.706
37.34000 307.389
37.51000 292.731
37.68000 289.097
37.85000 308.741
38.02000 291.548
38.19000 316.252
38.36000 355.145
38.53000 547.112
38.70000 989.963
38.87000 831.185
39.04000 416.309
39.21000 304.251
39.38000 298.281
39.55000 279.607
39.72000 263.176
39.89000 278.414
40.06000 257.590
40.23000 256.054
40.40000 254.257
40.57000 253.549
40.74000 241.365
40.91000 246.362
41.08000 260.521
41.25000 244.838
41.42000 246.931
41.59000 243.728
41.76000 252.424
41.93000 246.867
42.10000 229.712
42.27000 228.371
42.44000 236.768
42.61000 249.493
42.78000 236.781
42.95000 237.598
43.12000 229.116
43.29000 230.551
43.46000 228.404
43.63000 229.745
43.80000 236.906
43.97000 218.327
44.14000 228.243
44.31000 225.739
44.48000 224.739
44.65000 254.590
44.82000 281.893
44.99000 328.328
45.16000 376.195
45.33000 339.293
45.50000 294.269
45.67000 248.374
45.84000 227.283
46.01000 223.550
46.18000 204.871
46.35000 202.025
46.52000 188.952
46.69000 208.631
46.86000 200.458
47.03000 195.896
47.20000 200.561
47.37000 194.525
47.54000 186.913
47.71000 195.086
47.88000 191.304
48.05000 171.423
48.22000 193.681
48.39000 182.415
48.56000 177.979
48.73000 187.170
48.90000 197.327
49.07000 178.681
49.24000 179.781
49.41000 171.183
49.58000 185.927
49.75000 176.271
49.92000 175.815
50.09000 181.658
50.26000 178.918
50.43000 195.691
50.60000 234.991
50.77000 273.042
50.94000 223.601
51.11000 196.150
51.28000 179.084
51.45000 178.855
51.62000 162.600
51.79000 164.699
51.96000 161.270
52.13000 164.153
52.30000 151.839
52.47000 158.458
52.64000 160.934
52.81000 157.035
52.98000 152.580
53.15000 159.336
53.32000 165.039
53.49000 154.180
53.66000 154.384
53.83000 156.065
54.00000 152.474
54.17000 161.193
54.34000 160.637
54.51000 144.482
54.68000 159.107
54.85000 154.484
55.02000 168.016
55.19000 162.358
55.36000 177.015
55.53000 196.369
55.70000 257.861
55.87000 443.729
56.04000 535.775
56.21000 351.568
56.38000 250.051
56.55000 191.739
56.72000 164.914
56.89000 158.781
57.06000 149.981
57.23000 148.668
57.40000 143.431
57.57000 152.493
57.74000 145.343
57.91000 148.833
58.08000 152.313
58.25000 143.055
58.42000 141.454
58.59000 130.492
58.76000 143.681
58.93000 153.863
59.10000 152.414
59.27000 141.705
59.44000 138.483
59.61000 135.564
59.78000 126.536
59.95000 129.907
60.12000 133.796
60.29000 127.492
60.46000 127.693
60.63000 130.104
60.80000 134.387
60.97000 125.944
61.14000 138.110
61.31000 140.857
61.48000 156.432
61.65000 270.356
61.82000 211.841
61.99000 143.532
62.16000 147.409
62.33000 152.681
62.50000 142.360
62.67000 145.185
62.84000 154.965
63.01000 158.243
63.18000 142.861
63.35000 149.843
63.52000 153.094
63.69000 148.749
63.86000 159.450
64.03000 147.466
64.20000 163.979
64.37000 169.915
64.54000 161.645
64.71000 179.773
64.88000 180.900
65.05000 194.182
65.22000 230.111
65.39000 297.959
65.56000 407.145
65.73000 694.008
65.90000 1180.380
66.07000 409.697
66.24000 319.804
66.41000 464.547
66.58000 366.424
66.75000 308.249
66.92000 341.960
67.09000 378.150
67.26000 389.234
67.43000 408.847
67.60000 448.212
67.77000 497.260
67.94000 518.396
68.11000 571.865
68.28000 629.249
68.45000 749.942
68.62000 1097.360
68.79000 2027.582
68.96000 12650.398
69.13000 65232.875
69.30000 39807.434
69.47000 10396.775
69.64000 1393.803
69.81000 902.987
69.98000 714.808
70.00000 716.885