File: XRD/22-09-2025 Dep 2/XY Data/BTO_Mapping_Theta2Theta_22-09-2025_001_65_24-940_-31-273.xy
20.00000 565.754
20.17000 592.548
20.34000 554.741
20.51000 546.420
20.68000 554.257
20.85000 547.099
21.02000 557.364
21.19000 544.523
21.36000 535.237
21.53000 536.743
21.70000 581.826
21.87000 600.302
22.04000 681.140
22.21000 701.716
22.38000 626.115
22.55000 571.462
22.72000 538.232
22.89000 505.597
23.06000 520.188
23.23000 508.214
23.40000 506.824
23.57000 500.031
23.74000 514.435
23.91000 541.533
24.08000 542.160
24.25000 486.301
24.42000 492.033
24.59000 494.470
24.76000 485.797
24.93000 479.935
25.10000 469.813
25.27000 485.525
25.44000 494.399
25.61000 464.150
25.78000 452.561
25.95000 460.028
26.12000 463.782
26.29000 440.722
26.46000 461.193
26.63000 455.601
26.80000 448.480
26.97000 436.732
27.14000 457.440
27.31000 437.445
27.48000 430.915
27.65000 438.611
27.82000 427.995
27.99000 432.537
28.16000 426.365
28.33000 425.924
28.50000 417.363
28.67000 418.985
28.84000 428.704
29.01000 418.080
29.18000 412.730
29.35000 415.225
29.52000 415.175
29.69000 398.961
29.86000 428.702
30.03000 449.593
30.20000 443.337
30.37000 417.796
30.54000 431.167
30.71000 438.872
30.88000 449.769
31.05000 574.388
31.22000 1055.594
31.39000 2381.914
31.56000 1938.472
31.73000 848.749
31.90000 512.640
32.07000 441.601
32.24000 401.971
32.41000 392.507
32.58000 377.414
32.75000 373.224
32.92000 385.135
33.09000 366.127
33.26000 348.983
33.43000 342.091
33.60000 349.678
33.77000 338.760
33.94000 337.522
34.11000 351.425
34.28000 334.764
34.45000 348.517
34.62000 343.455
34.79000 331.716
34.96000 327.354
35.13000 314.627
35.30000 299.983
35.47000 311.218
35.64000 315.017
35.81000 306.693
35.98000 316.826
36.15000 296.884
36.32000 298.222
36.49000 290.171
36.66000 282.670
36.83000 304.947
37.00000 323.125
37.17000 303.041
37.34000 279.883
37.51000 286.368
37.68000 280.466
37.85000 296.790
38.02000 275.072
38.19000 289.993
38.36000 314.454
38.53000 421.273
38.70000 885.744
38.87000 937.102
39.04000 454.576
39.21000 314.479
39.38000 299.779
39.55000 278.815
39.72000 262.823
39.89000 265.700
40.06000 256.911
40.23000 262.035
40.40000 259.393
40.57000 234.819
40.74000 260.367
40.91000 265.538
41.08000 239.062
41.25000 239.437
41.42000 251.310
41.59000 243.713
41.76000 238.691
41.93000 245.532
42.10000 239.523
42.27000 243.580
42.44000 222.952
42.61000 224.670
42.78000 219.921
42.95000 240.925
43.12000 237.887
43.29000 229.366
43.46000 221.191
43.63000 218.685
43.80000 218.151
43.97000 236.426
44.14000 228.952
44.31000 227.584
44.48000 234.880
44.65000 240.429
44.82000 258.230
44.99000 281.287
45.16000 349.591
45.33000 332.708
45.50000 278.520
45.67000 267.468
45.84000 239.370
46.01000 225.457
46.18000 208.412
46.35000 224.538
46.52000 204.645
46.69000 208.889
46.86000 195.128
47.03000 196.648
47.20000 189.823
47.37000 197.664
47.54000 174.252
47.71000 193.533
47.88000 174.061
48.05000 193.630
48.22000 191.296
48.39000 178.645
48.56000 189.792
48.73000 181.938
48.90000 179.599
49.07000 187.615
49.24000 182.364
49.41000 184.999
49.58000 169.331
49.75000 178.874
49.92000 181.555
50.09000 179.603
50.26000 178.636
50.43000 191.185
50.60000 207.680
50.77000 245.087
50.94000 236.098
51.11000 192.868
51.28000 172.378
51.45000 162.768
51.62000 164.923
51.79000 163.951
51.96000 148.484
52.13000 165.432
52.30000 160.020
52.47000 151.131
52.64000 159.066
52.81000 152.063
52.98000 149.717
53.15000 148.561
53.32000 154.280
53.49000 162.088
53.66000 155.464
53.83000 153.197
54.00000 148.303
54.17000 158.940
54.34000 156.632
54.51000 138.634
54.68000 153.087
54.85000 153.248
55.02000 170.306
55.19000 159.553
55.36000 163.212
55.53000 186.326
55.70000 220.709
55.87000 388.110
56.04000 551.092
56.21000 421.827
56.38000 265.950
56.55000 189.631
56.72000 162.785
56.89000 157.247
57.06000 154.307
57.23000 144.454
57.40000 140.123
57.57000 154.777
57.74000 143.055
57.91000 144.710
58.08000 144.427
58.25000 126.660
58.42000 137.750
58.59000 137.343
58.76000 126.955
58.93000 136.034
59.10000 134.419
59.27000 135.167
59.44000 139.896
59.61000 134.005
59.78000 138.435
59.95000 134.593
60.12000 126.305
60.29000 133.988
60.46000 127.892
60.63000 135.246
60.80000 139.161
60.97000 139.192
61.14000 136.333
61.31000 141.058
61.48000 142.448
61.65000 262.764
61.82000 220.950
61.99000 144.002
62.16000 137.701
62.33000 143.578
62.50000 141.917
62.67000 142.046
62.84000 144.358
63.01000 145.741
63.18000 143.439
63.35000 138.747
63.52000 140.430
63.69000 156.570
63.86000 149.523
64.03000 155.903
64.20000 157.898
64.37000 164.777
64.54000 163.633
64.71000 174.896
64.88000 178.953
65.05000 189.009
65.22000 205.852
65.39000 245.582
65.56000 339.562
65.73000 574.313
65.90000 1048.011
66.07000 413.972
66.24000 321.518
66.41000 442.766
66.58000 361.481
66.75000 305.072
66.92000 337.338
67.09000 339.555
67.26000 381.814
67.43000 416.382
67.60000 434.800
67.77000 454.486
67.94000 503.204
68.11000 565.546
68.28000 618.960
68.45000 700.889
68.62000 973.470
68.79000 1845.613
68.96000 8647.573
69.13000 57751.789
69.30000 37584.133
69.47000 11328.043
69.64000 1362.048
69.81000 850.924
69.98000 669.935
70.00000 673.680