File: XRD/22-09-2025 Dep 2/XY Data/BTO_Mapping_Theta2Theta_22-09-2025_001_46_-45-048_-21-694.xy
20.00000 585.761
20.17000 577.711
20.34000 557.303
20.51000 543.317
20.68000 538.984
20.85000 528.942
21.02000 552.081
21.19000 527.182
21.36000 529.094
21.53000 526.707
21.70000 516.094
21.87000 517.942
22.04000 537.786
22.21000 513.804
22.38000 520.119
22.55000 509.452
22.72000 502.942
22.89000 489.988
23.06000 506.324
23.23000 501.335
23.40000 503.593
23.57000 492.058
23.74000 488.578
23.91000 474.391
24.08000 473.404
24.25000 479.376
24.42000 465.590
24.59000 465.094
24.76000 477.937
24.93000 471.324
25.10000 465.080
25.27000 456.228
25.44000 485.174
25.61000 453.410
25.78000 459.947
25.95000 449.762
26.12000 435.509
26.29000 438.116
26.46000 443.832
26.63000 446.663
26.80000 422.597
26.97000 447.101
27.14000 428.037
27.31000 436.833
27.48000 429.686
27.65000 429.147
27.82000 409.779
27.99000 405.535
28.16000 401.042
28.33000 399.141
28.50000 400.588
28.67000 419.915
28.84000 395.297
29.01000 411.433
29.18000 388.586
29.35000 386.413
29.52000 361.055
29.69000 368.958
29.86000 368.727
30.03000 380.096
30.20000 380.267
30.37000 380.832
30.54000 372.699
30.71000 359.070
30.88000 360.596
31.05000 358.257
31.22000 349.394
31.39000 359.816
31.56000 343.424
31.73000 353.135
31.90000 343.184
32.07000 336.325
32.24000 346.029
32.41000 351.619
32.58000 346.573
32.75000 332.925
32.92000 327.264
33.09000 332.625
33.26000 324.627
33.43000 323.852
33.60000 318.338
33.77000 324.884
33.94000 319.189
34.11000 314.899
34.28000 306.098
34.45000 311.871
34.62000 301.938
34.79000 307.340
34.96000 302.348
35.13000 305.811
35.30000 292.713
35.47000 313.249
35.64000 309.590
35.81000 289.653
35.98000 290.294
36.15000 281.117
36.32000 284.646
36.49000 278.399
36.66000 287.006
36.83000 276.898
37.00000 292.020
37.17000 276.122
37.34000 277.893
37.51000 279.873
37.68000 266.347
37.85000 272.214
38.02000 275.287
38.19000 257.557
38.36000 257.948
38.53000 268.114
38.70000 252.611
38.87000 253.033
39.04000 256.665
39.21000 233.865
39.38000 251.019
39.55000 228.838
39.72000 241.863
39.89000 252.843
40.06000 239.825
40.23000 239.677
40.40000 229.943
40.57000 227.386
40.74000 230.211
40.91000 230.484
41.08000 211.544
41.25000 208.190
41.42000 221.415
41.59000 227.002
41.76000 226.642
41.93000 215.411
42.10000 218.391
42.27000 230.120
42.44000 210.770
42.61000 215.248
42.78000 215.567
42.95000 212.783
43.12000 213.066
43.29000 210.586
43.46000 210.609
43.63000 204.861
43.80000 200.703
43.97000 202.878
44.14000 195.946
44.31000 199.955
44.48000 192.110
44.65000 208.996
44.82000 204.034
44.99000 183.122
45.16000 194.287
45.33000 203.566
45.50000 184.686
45.67000 174.984
45.84000 180.526
46.01000 192.004
46.18000 182.999
46.35000 186.975
46.52000 176.187
46.69000 170.669
46.86000 182.153
47.03000 167.343
47.20000 177.544
47.37000 171.882
47.54000 174.343
47.71000 189.583
47.88000 162.863
48.05000 173.039
48.22000 175.239
48.39000 162.936
48.56000 166.366
48.73000 172.147
48.90000 168.774
49.07000 173.264
49.24000 152.425
49.41000 154.921
49.58000 164.057
49.75000 159.968
49.92000 149.652
50.09000 154.768
50.26000 157.905
50.43000 158.119
50.60000 156.791
50.77000 141.737
50.94000 151.567
51.11000 148.517
51.28000 154.190
51.45000 147.233
51.62000 145.878
51.79000 156.454
51.96000 145.796
52.13000 138.623
52.30000 133.969
52.47000 143.648
52.64000 143.956
52.81000 141.450
52.98000 137.141
53.15000 140.020
53.32000 137.885
53.49000 147.811
53.66000 132.126
53.83000 143.197
54.00000 127.664
54.17000 132.305
54.34000 133.135
54.51000 128.062
54.68000 138.169
54.85000 132.916
55.02000 135.058
55.19000 134.036
55.36000 128.838
55.53000 125.354
55.70000 133.075
55.87000 122.824
56.04000 120.609
56.21000 124.290
56.38000 123.536
56.55000 124.307
56.72000 114.857
56.89000 120.274
57.06000 119.273
57.23000 113.430
57.40000 115.290
57.57000 114.937
57.74000 113.275
57.91000 112.949
58.08000 114.054
58.25000 115.017
58.42000 110.395
58.59000 116.545
58.76000 113.260
58.93000 116.185
59.10000 108.250
59.27000 115.602
59.44000 108.103
59.61000 110.434
59.78000 112.032
59.95000 114.863
60.12000 108.828
60.29000 109.852
60.46000 112.064
60.63000 108.878
60.80000 110.682
60.97000 114.922
61.14000 115.174
61.31000 111.566
61.48000 109.722
61.65000 123.957
61.82000 130.134
61.99000 105.908
62.16000 112.338
62.33000 105.703
62.50000 103.634
62.67000 106.222
62.84000 106.026
63.01000 90.704
63.18000 102.299
63.35000 113.589
63.52000 106.312
63.69000 109.668
63.86000 105.389
64.03000 109.065
64.20000 108.796
64.37000 108.701
64.54000 111.592
64.71000 104.854
64.88000 111.319
65.05000 119.173
65.22000 109.871
65.39000 107.326
65.56000 123.310
65.73000 133.269
65.90000 251.048
66.07000 181.488
66.24000 133.469
66.41000 143.869
66.58000 159.221
66.75000 128.635
66.92000 138.396
67.09000 136.396
67.26000 146.721
67.43000 149.546
67.60000 144.978
67.77000 158.129
67.94000 160.484
68.11000 170.767
68.28000 188.428
68.45000 194.927
68.62000 255.309
68.79000 405.617
68.96000 824.095
69.13000 8871.647
69.30000 9308.858
69.47000 4476.432
69.64000 381.633
69.81000 259.450
69.98000 211.212
70.00000 218.921