File: XRD/22-09-2025 Dep 2/XY Data/BTO_Mapping_Theta2Theta_22-09-2025_001_27_-6-235_7-818.xy
20.00000 567.567
20.17000 568.261
20.34000 565.096
20.51000 572.171
20.68000 568.303
20.85000 553.068
21.02000 558.459
21.19000 564.548
21.36000 578.428
21.53000 558.386
21.70000 583.873
21.87000 704.305
22.04000 868.710
22.21000 761.131
22.38000 615.610
22.55000 550.477
22.72000 546.711
22.89000 516.296
23.06000 516.004
23.23000 509.461
23.40000 498.707
23.57000 514.672
23.74000 500.096
23.91000 489.825
24.08000 500.065
24.25000 496.159
24.42000 504.100
24.59000 488.171
24.76000 483.687
24.93000 482.167
25.10000 470.731
25.27000 459.664
25.44000 465.309
25.61000 470.369
25.78000 468.349
25.95000 464.276
26.12000 459.001
26.29000 463.819
26.46000 454.352
26.63000 462.187
26.80000 468.635
26.97000 450.229
27.14000 419.018
27.31000 433.912
27.48000 437.319
27.65000 419.674
27.82000 439.228
27.99000 438.895
28.16000 435.773
28.33000 450.387
28.50000 426.348
28.67000 420.268
28.84000 416.372
29.01000 425.024
29.18000 425.979
29.35000 410.276
29.52000 414.392
29.69000 397.748
29.86000 441.883
30.03000 468.782
30.20000 458.162
30.37000 431.532
30.54000 449.624
30.71000 472.643
30.88000 523.287
31.05000 738.087
31.22000 1941.138
31.39000 3435.743
31.56000 1984.453
31.73000 822.448
31.90000 512.987
32.07000 424.929
32.24000 397.251
32.41000 404.802
32.58000 409.274
32.75000 412.216
32.92000 438.998
33.09000 377.309
33.26000 361.375
33.43000 354.363
33.60000 355.468
33.77000 347.886
33.94000 325.849
34.11000 350.563
34.28000 336.537
34.45000 331.292
34.62000 326.779
34.79000 320.077
34.96000 317.568
35.13000 318.392
35.30000 316.035
35.47000 319.641
35.64000 315.896
35.81000 309.848
35.98000 309.643
36.15000 305.118
36.32000 308.017
36.49000 293.035
36.66000 295.401
36.83000 311.071
37.00000 326.518
37.17000 292.242
37.34000 302.106
37.51000 293.543
37.68000 287.650
37.85000 290.875
38.02000 316.273
38.19000 327.485
38.36000 396.066
38.53000 600.314
38.70000 910.180
38.87000 646.965
39.04000 390.319
39.21000 310.064
39.38000 283.583
39.55000 281.494
39.72000 273.001
39.89000 275.322
40.06000 267.765
40.23000 265.733
40.40000 270.541
40.57000 252.442
40.74000 253.639
40.91000 257.690
41.08000 274.283
41.25000 229.377
41.42000 237.492
41.59000 241.613
41.76000 229.448
41.93000 242.805
42.10000 241.702
42.27000 251.839
42.44000 237.442
42.61000 222.382
42.78000 226.004
42.95000 247.518
43.12000 229.416
43.29000 226.948
43.46000 242.378
43.63000 225.614
43.80000 247.785
43.97000 219.057
44.14000 220.352
44.31000 241.686
44.48000 248.645
44.65000 259.702
44.82000 358.857
44.99000 451.279
45.16000 435.660
45.33000 362.414
45.50000 302.035
45.67000 263.244
45.84000 230.516
46.01000 219.815
46.18000 222.083
46.35000 204.960
46.52000 192.235
46.69000 211.308
46.86000 198.210
47.03000 201.115
47.20000 184.617
47.37000 190.814
47.54000 197.086
47.71000 191.103
47.88000 179.394
48.05000 192.280
48.22000 186.694
48.39000 195.375
48.56000 174.686
48.73000 185.616
48.90000 187.597
49.07000 188.332
49.24000 183.251
49.41000 176.363
49.58000 181.932
49.75000 176.973
49.92000 179.351
50.09000 175.964
50.26000 190.802
50.43000 211.627
50.60000 252.391
50.77000 281.466
50.94000 216.813
51.11000 204.067
51.28000 191.845
51.45000 174.799
51.62000 184.487
51.79000 165.850
51.96000 164.111
52.13000 168.422
52.30000 158.706
52.47000 163.108
52.64000 153.059
52.81000 162.374
52.98000 163.932
53.15000 169.886
53.32000 149.004
53.49000 164.128
53.66000 159.930
53.83000 161.468
54.00000 158.568
54.17000 160.879
54.34000 171.825
54.51000 167.669
54.68000 164.098
54.85000 169.659
55.02000 161.009
55.19000 173.853
55.36000 176.942
55.53000 226.946
55.70000 349.883
55.87000 545.471
56.04000 546.402
56.21000 357.017
56.38000 249.114
56.55000 190.849
56.72000 164.947
56.89000 159.376
57.06000 150.291
57.23000 152.345
57.40000 146.791
57.57000 146.040
57.74000 150.678
57.91000 149.254
58.08000 142.859
58.25000 144.349
58.42000 137.835
58.59000 144.587
58.76000 129.451
58.93000 125.290
59.10000 134.179
59.27000 133.508
59.44000 136.404
59.61000 139.476
59.78000 137.781
59.95000 126.845
60.12000 130.237
60.29000 132.348
60.46000 137.295
60.63000 133.232
60.80000 131.743
60.97000 139.680
61.14000 139.968
61.31000 138.295
61.48000 166.348
61.65000 336.752
61.82000 219.113
61.99000 157.623
62.16000 145.567
62.33000 143.090
62.50000 135.581
62.67000 148.082
62.84000 144.611
63.01000 139.396
63.18000 142.643
63.35000 152.099
63.52000 150.802
63.69000 159.342
63.86000 148.823
64.03000 151.629
64.20000 156.755
64.37000 171.785
64.54000 174.563
64.71000 179.819
64.88000 194.581
65.05000 207.813
65.22000 258.575
65.39000 341.742
65.56000 429.156
65.73000 908.595
65.90000 1510.264
66.07000 465.610
66.24000 361.376
66.41000 548.414
66.58000 399.215
66.75000 352.647
66.92000 374.056
67.09000 407.279
67.26000 439.161
67.43000 476.996
67.60000 514.220
67.77000 537.427
67.94000 576.056
68.11000 646.147
68.28000 735.088
68.45000 885.974
68.62000 1337.786
68.79000 2790.965
68.96000 22535.535
69.13000 88111.141
69.30000 51147.102
69.47000 11620.979
69.64000 1622.755
69.81000 1016.497
69.98000 808.500
70.00000 792.679