File: XRD/22-09-2025 Dep 2/XY Data/BTO_Mapping_Theta2Theta_22-09-2025_001_20_8-901_38-997.xy
20.00000 566.872
20.17000 575.551
20.34000 542.963
20.51000 561.800
20.68000 539.378
20.85000 553.920
21.02000 555.893
21.19000 542.668
21.36000 567.297
21.53000 549.545
21.70000 571.690
21.87000 622.780
22.04000 745.515
22.21000 734.116
22.38000 642.550
22.55000 562.454
22.72000 512.584
22.89000 523.085
23.06000 538.834
23.23000 498.817
23.40000 501.491
23.57000 489.471
23.74000 505.860
23.91000 528.683
24.08000 505.645
24.25000 501.557
24.42000 495.767
24.59000 494.978
24.76000 479.089
24.93000 479.246
25.10000 474.792
25.27000 479.840
25.44000 493.583
25.61000 460.012
25.78000 481.360
25.95000 445.362
26.12000 450.184
26.29000 445.194
26.46000 442.560
26.63000 454.576
26.80000 435.852
26.97000 427.928
27.14000 457.340
27.31000 435.337
27.48000 423.451
27.65000 432.150
27.82000 447.084
27.99000 434.233
28.16000 426.128
28.33000 426.254
28.50000 432.351
28.67000 415.037
28.84000 429.652
29.01000 428.577
29.18000 407.340
29.35000 410.977
29.52000 407.629
29.69000 406.358
29.86000 420.193
30.03000 430.674
30.20000 457.325
30.37000 406.908
30.54000 433.949
30.71000 450.916
30.88000 475.913
31.05000 643.944
31.22000 1478.078
31.39000 3080.059
31.56000 2088.531
31.73000 843.478
31.90000 536.277
32.07000 447.769
32.24000 420.087
32.41000 401.929
32.58000 368.680
32.75000 366.552
32.92000 383.604
33.09000 368.007
33.26000 356.175
33.43000 344.174
33.60000 338.089
33.77000 353.835
33.94000 338.799
34.11000 339.681
34.28000 342.067
34.45000 335.263
34.62000 321.961
34.79000 330.977
34.96000 321.691
35.13000 319.724
35.30000 299.046
35.47000 325.875
35.64000 311.523
35.81000 308.995
35.98000 302.699
36.15000 290.163
36.32000 309.932
36.49000 299.815
36.66000 301.389
36.83000 294.115
37.00000 287.412
37.17000 300.725
37.34000 302.110
37.51000 293.489
37.68000 296.562
37.85000 297.598
38.02000 301.361
38.19000 308.070
38.36000 336.106
38.53000 500.286
38.70000 954.260
38.87000 808.968
39.04000 401.381
39.21000 300.831
39.38000 284.254
39.55000 264.014
39.72000 275.666
39.89000 268.103
40.06000 256.566
40.23000 253.383
40.40000 251.579
40.57000 260.557
40.74000 248.728
40.91000 243.080
41.08000 242.090
41.25000 238.421
41.42000 246.584
41.59000 234.727
41.76000 237.836
41.93000 245.503
42.10000 252.206
42.27000 256.416
42.44000 237.055
42.61000 237.037
42.78000 233.476
42.95000 221.016
43.12000 223.868
43.29000 236.510
43.46000 212.153
43.63000 239.672
43.80000 232.046
43.97000 231.515
44.14000 218.346
44.31000 234.228
44.48000 226.812
44.65000 245.659
44.82000 271.413
44.99000 338.430
45.16000 381.793
45.33000 338.547
45.50000 307.202
45.67000 261.045
45.84000 239.273
46.01000 225.983
46.18000 213.716
46.35000 203.291
46.52000 213.736
46.69000 197.975
46.86000 198.276
47.03000 205.644
47.20000 182.484
47.37000 190.082
47.54000 188.397
47.71000 190.984
47.88000 188.865
48.05000 188.992
48.22000 181.302
48.39000 188.230
48.56000 197.553
48.73000 181.532
48.90000 175.315
49.07000 169.276
49.24000 176.165
49.41000 176.159
49.58000 168.990
49.75000 177.472
49.92000 175.035
50.09000 194.281
50.26000 181.765
50.43000 193.389
50.60000 220.404
50.77000 267.941
50.94000 229.841
51.11000 203.819
51.28000 180.543
51.45000 174.006
51.62000 168.509
51.79000 162.022
51.96000 159.844
52.13000 177.338
52.30000 176.484
52.47000 161.750
52.64000 153.432
52.81000 167.356
52.98000 154.843
53.15000 155.477
53.32000 167.789
53.49000 161.372
53.66000 154.477
53.83000 159.912
54.00000 156.637
54.17000 155.101
54.34000 163.877
54.51000 160.877
54.68000 166.083
54.85000 154.982
55.02000 158.154
55.19000 162.445
55.36000 169.290
55.53000 188.273
55.70000 248.478
55.87000 421.588
56.04000 533.677
56.21000 388.767
56.38000 250.277
56.55000 197.760
56.72000 172.320
56.89000 156.682
57.06000 145.319
57.23000 137.552
57.40000 141.992
57.57000 149.880
57.74000 157.160
57.91000 143.814
58.08000 140.781
58.25000 136.125
58.42000 137.072
58.59000 133.779
58.76000 137.006
58.93000 137.856
59.10000 124.919
59.27000 134.906
59.44000 131.422
59.61000 125.337
59.78000 138.917
59.95000 132.133
60.12000 143.802
60.29000 131.687
60.46000 137.243
60.63000 140.855
60.80000 135.607
60.97000 130.171
61.14000 122.214
61.31000 135.026
61.48000 153.074
61.65000 274.737
61.82000 196.917
61.99000 153.616
62.16000 144.536
62.33000 143.351
62.50000 135.788
62.67000 140.168
62.84000 148.872
63.01000 151.697
63.18000 143.842
63.35000 153.424
63.52000 154.331
63.69000 159.359
63.86000 153.810
64.03000 160.860
64.20000 164.036
64.37000 171.703
64.54000 155.316
64.71000 169.828
64.88000 196.790
65.05000 185.594
65.22000 231.075
65.39000 274.821
65.56000 400.024
65.73000 735.416
65.90000 1208.843
66.07000 424.615
66.24000 349.302
66.41000 460.223
66.58000 368.984
66.75000 334.314
66.92000 355.902
67.09000 376.285
67.26000 394.218
67.43000 416.941
67.60000 453.124
67.77000 508.816
67.94000 538.845
68.11000 575.533
68.28000 642.525
68.45000 777.039
68.62000 1131.979
68.79000 2201.512
68.96000 15496.696
69.13000 66599.836
69.30000 38988.309
69.47000 9055.233
69.64000 1361.508
69.81000 884.612
69.98000 721.286
70.00000 703.038