File: XRD/22-09-2025 Dep 2/XY Data/BTO_Mapping_Theta2Theta_22-09-2025_001_55_-8-901_-38-997.xy
20.00000 575.394
20.17000 570.332
20.34000 558.459
20.51000 554.228
20.68000 557.969
20.85000 555.677
21.02000 565.993
21.19000 545.959
21.36000 588.395
21.53000 567.581
21.70000 599.504
21.87000 651.265
22.04000 805.283
22.21000 784.883
22.38000 639.549
22.55000 572.391
22.72000 541.419
22.89000 527.910
23.06000 506.363
23.23000 517.809
23.40000 511.801
23.57000 508.622
23.74000 507.435
23.91000 499.593
24.08000 499.038
24.25000 476.176
24.42000 519.154
24.59000 498.222
24.76000 474.739
24.93000 478.925
25.10000 496.968
25.27000 478.052
25.44000 478.660
25.61000 472.718
25.78000 462.062
25.95000 467.874
26.12000 461.832
26.29000 458.772
26.46000 466.939
26.63000 471.622
26.80000 437.706
26.97000 445.638
27.14000 447.272
27.31000 437.273
27.48000 436.859
27.65000 444.195
27.82000 434.656
27.99000 438.379
28.16000 424.766
28.33000 441.347
28.50000 422.826
28.67000 429.017
28.84000 421.180
29.01000 431.729
29.18000 400.227
29.35000 431.315
29.52000 420.816
29.69000 410.193
29.86000 427.372
30.03000 445.428
30.20000 463.192
30.37000 447.742
30.54000 431.843
30.71000 453.120
30.88000 488.361
31.05000 635.573
31.22000 1399.766
31.39000 3303.341
31.56000 2692.898
31.73000 1082.982
31.90000 592.260
32.07000 453.743
32.24000 421.418
32.41000 398.584
32.58000 401.466
32.75000 383.501
32.92000 456.535
33.09000 409.618
33.26000 355.213
33.43000 346.034
33.60000 335.697
33.77000 339.814
33.94000 344.354
34.11000 331.813
34.28000 347.773
34.45000 314.798
34.62000 322.756
34.79000 332.921
34.96000 334.844
35.13000 335.971
35.30000 304.720
35.47000 316.525
35.64000 311.821
35.81000 316.179
35.98000 315.241
36.15000 313.688
36.32000 303.056
36.49000 297.292
36.66000 297.572
36.83000 305.978
37.00000 312.400
37.17000 305.159
37.34000 302.135
37.51000 296.649
37.68000 289.089
37.85000 288.812
38.02000 315.107
38.19000 311.126
38.36000 347.485
38.53000 483.097
38.70000 894.635
38.87000 765.425
39.04000 422.864
39.21000 296.653
39.38000 280.137
39.55000 283.953
39.72000 280.789
39.89000 270.798
40.06000 273.795
40.23000 261.929
40.40000 268.398
40.57000 264.868
40.74000 253.882
40.91000 246.156
41.08000 252.262
41.25000 240.526
41.42000 257.862
41.59000 235.513
41.76000 255.693
41.93000 254.616
42.10000 247.033
42.27000 230.751
42.44000 232.011
42.61000 231.426
42.78000 228.185
42.95000 233.975
43.12000 238.752
43.29000 222.715
43.46000 234.062
43.63000 239.661
43.80000 217.933
43.97000 235.392
44.14000 218.762
44.31000 219.793
44.48000 233.857
44.65000 252.868
44.82000 302.264
44.99000 416.878
45.16000 453.774
45.33000 373.738
45.50000 306.676
45.67000 273.164
45.84000 244.502
46.01000 230.992
46.18000 215.977
46.35000 215.495
46.52000 204.559
46.69000 198.603
46.86000 198.108
47.03000 189.461
47.20000 202.227
47.37000 192.059
47.54000 189.686
47.71000 193.234
47.88000 186.950
48.05000 187.237
48.22000 185.850
48.39000 184.539
48.56000 181.043
48.73000 186.119
48.90000 185.522
49.07000 177.795
49.24000 182.457
49.41000 185.181
49.58000 183.081
49.75000 171.345
49.92000 167.837
50.09000 182.820
50.26000 182.481
50.43000 194.716
50.60000 234.204
50.77000 268.156
50.94000 249.836
51.11000 208.121
51.28000 183.526
51.45000 180.968
51.62000 175.739
51.79000 173.806
51.96000 166.599
52.13000 169.670
52.30000 169.537
52.47000 159.594
52.64000 161.052
52.81000 149.753
52.98000 163.203
53.15000 163.293
53.32000 157.702
53.49000 152.763
53.66000 156.018
53.83000 155.672
54.00000 164.096
54.17000 152.831
54.34000 151.578
54.51000 157.753
54.68000 156.866
54.85000 150.704
55.02000 159.532
55.19000 158.288
55.36000 172.919
55.53000 206.264
55.70000 269.384
55.87000 447.006
56.04000 563.507
56.21000 437.926
56.38000 264.656
56.55000 207.080
56.72000 162.361
56.89000 158.416
57.06000 150.479
57.23000 143.546
57.40000 150.376
57.57000 153.893
57.74000 150.009
57.91000 148.581
58.08000 142.701
58.25000 141.433
58.42000 136.230
58.59000 135.172
58.76000 130.094
58.93000 133.386
59.10000 143.577
59.27000 146.921
59.44000 128.502
59.61000 126.673
59.78000 135.730
59.95000 136.690
60.12000 124.426
60.29000 134.507
60.46000 128.827
60.63000 123.474
60.80000 130.760
60.97000 137.271
61.14000 143.153
61.31000 139.148
61.48000 149.985
61.65000 336.162
61.82000 257.129
61.99000 146.971
62.16000 150.087
62.33000 146.779
62.50000 143.305
62.67000 141.678
62.84000 145.181
63.01000 139.965
63.18000 148.910
63.35000 142.475
63.52000 149.877
63.69000 160.639
63.86000 164.375
64.03000 157.244
64.20000 156.465
64.37000 177.964
64.54000 172.959
64.71000 169.351
64.88000 182.361
65.05000 194.597
65.22000 223.413
65.39000 285.756
65.56000 398.146
65.73000 761.942
65.90000 1508.595
66.07000 563.086
66.24000 370.224
66.41000 541.777
66.58000 435.949
66.75000 355.617
66.92000 368.587
67.09000 396.891
67.26000 430.687
67.43000 447.063
67.60000 484.880
67.77000 540.668
67.94000 566.025
68.11000 625.533
68.28000 724.814
68.45000 837.968
68.62000 1188.575
68.79000 2440.587
68.96000 12842.195
69.13000 83978.828
69.30000 57767.301
69.47000 18335.680
69.64000 1815.379
69.81000 1077.517
69.98000 825.923
70.00000 825.378