File: XRD/22-09-2025 Dep 2/XY Data/BTO_Mapping_Theta2Theta_22-09-2025_001_54_-6-676_-29-248.xy
20.00000 598.291
20.17000 570.826
20.34000 561.190
20.51000 569.652
20.68000 540.774
20.85000 552.299
21.02000 543.298
21.19000 559.650
21.36000 559.593
21.53000 554.217
21.70000 596.336
21.87000 677.602
22.04000 825.185
22.21000 765.096
22.38000 607.726
22.55000 556.215
22.72000 544.908
22.89000 535.031
23.06000 514.604
23.23000 515.019
23.40000 496.367
23.57000 500.447
23.74000 511.722
23.91000 530.773
24.08000 511.624
24.25000 493.731
24.42000 494.007
24.59000 483.817
24.76000 477.111
24.93000 475.690
25.10000 484.414
25.27000 482.483
25.44000 465.543
25.61000 449.123
25.78000 461.265
25.95000 462.521
26.12000 462.948
26.29000 459.797
26.46000 457.468
26.63000 455.347
26.80000 457.419
26.97000 442.726
27.14000 454.857
27.31000 432.179
27.48000 437.323
27.65000 435.352
27.82000 443.279
27.99000 434.494
28.16000 443.044
28.33000 443.081
28.50000 431.337
28.67000 411.507
28.84000 433.888
29.01000 398.737
29.18000 434.051
29.35000 440.220
29.52000 430.933
29.69000 422.123
29.86000 431.725
30.03000 454.851
30.20000 450.787
30.37000 431.383
30.54000 463.851
30.71000 468.533
30.88000 530.168
31.05000 694.583
31.22000 1615.901
31.39000 3387.605
31.56000 2359.612
31.73000 956.149
31.90000 540.540
32.07000 455.557
32.24000 409.621
32.41000 415.375
32.58000 399.963
32.75000 403.239
32.92000 438.626
33.09000 407.572
33.26000 355.958
33.43000 346.498
33.60000 350.022
33.77000 356.136
33.94000 350.198
34.11000 352.375
34.28000 334.819
34.45000 342.553
34.62000 325.100
34.79000 323.783
34.96000 328.127
35.13000 320.862
35.30000 308.395
35.47000 317.673
35.64000 305.731
35.81000 295.314
35.98000 310.858
36.15000 322.980
36.32000 288.330
36.49000 309.661
36.66000 312.446
36.83000 306.900
37.00000 305.796
37.17000 299.328
37.34000 310.209
37.51000 293.461
37.68000 293.140
37.85000 290.946
38.02000 298.714
38.19000 305.110
38.36000 347.235
38.53000 525.108
38.70000 916.050
38.87000 749.207
39.04000 398.096
39.21000 307.157
39.38000 291.638
39.55000 279.969
39.72000 267.559
39.89000 279.944
40.06000 272.942
40.23000 261.823
40.40000 270.948
40.57000 257.157
40.74000 249.924
40.91000 262.993
41.08000 246.508
41.25000 241.046
41.42000 237.404
41.59000 257.061
41.76000 250.671
41.93000 252.155
42.10000 241.115
42.27000 244.269
42.44000 224.761
42.61000 236.989
42.78000 234.382
42.95000 232.617
43.12000 243.721
43.29000 236.884
43.46000 223.850
43.63000 210.934
43.80000 221.441
43.97000 231.126
44.14000 232.867
44.31000 247.730
44.48000 236.776
44.65000 257.944
44.82000 311.130
44.99000 416.007
45.16000 450.739
45.33000 357.061
45.50000 278.125
45.67000 262.712
45.84000 244.178
46.01000 222.052
46.18000 211.931
46.35000 223.746
46.52000 208.459
46.69000 193.739
46.86000 203.731
47.03000 193.817
47.20000 191.031
47.37000 186.660
47.54000 182.475
47.71000 191.443
47.88000 185.417
48.05000 187.534
48.22000 193.038
48.39000 186.091
48.56000 182.210
48.73000 188.335
48.90000 191.183
49.07000 181.751
49.24000 172.016
49.41000 163.245
49.58000 174.973
49.75000 176.683
49.92000 174.422
50.09000 182.268
50.26000 182.029
50.43000 196.871
50.60000 248.601
50.77000 269.839
50.94000 238.297
51.11000 194.425
51.28000 183.324
51.45000 180.825
51.62000 175.049
51.79000 175.068
51.96000 174.654
52.13000 160.284
52.30000 160.920
52.47000 154.310
52.64000 162.146
52.81000 173.145
52.98000 161.409
53.15000 158.174
53.32000 163.694
53.49000 158.342
53.66000 162.320
53.83000 164.516
54.00000 158.955
54.17000 160.721
54.34000 154.593
54.51000 164.805
54.68000 171.231
54.85000 146.367
55.02000 168.126
55.19000 168.443
55.36000 166.061
55.53000 217.258
55.70000 298.754
55.87000 502.130
56.04000 594.973
56.21000 397.856
56.38000 259.457
56.55000 206.158
56.72000 174.742
56.89000 166.397
57.06000 154.059
57.23000 143.705
57.40000 149.514
57.57000 147.341
57.74000 148.012
57.91000 147.652
58.08000 143.331
58.25000 141.266
58.42000 138.867
58.59000 141.319
58.76000 138.822
58.93000 140.519
59.10000 127.862
59.27000 141.825
59.44000 145.257
59.61000 130.259
59.78000 135.666
59.95000 138.569
60.12000 134.108
60.29000 140.087
60.46000 137.579
60.63000 137.009
60.80000 127.107
60.97000 131.325
61.14000 142.887
61.31000 143.077
61.48000 149.590
61.65000 331.214
61.82000 251.349
61.99000 144.449
62.16000 142.434
62.33000 141.836
62.50000 144.626
62.67000 155.226
62.84000 145.289
63.01000 159.313
63.18000 143.665
63.35000 152.094
63.52000 152.327
63.69000 157.666
63.86000 153.853
64.03000 152.408
64.20000 161.368
64.37000 167.075
64.54000 180.671
64.71000 190.836
64.88000 181.186
65.05000 210.845
65.22000 251.516
65.39000 316.088
65.56000 427.330
65.73000 791.795
65.90000 1483.031
66.07000 512.695
66.24000 359.758
66.41000 555.323
66.58000 404.327
66.75000 360.725
66.92000 380.713
67.09000 389.441
67.26000 426.435
67.43000 463.631
67.60000 493.848
67.77000 536.245
67.94000 565.575
68.11000 647.175
68.28000 729.910
68.45000 862.897
68.62000 1220.714
68.79000 2567.531
68.96000 15493.839
69.13000 84031.203
69.30000 54110.320
69.47000 15436.696
69.64000 1702.851
69.81000 1031.380
69.98000 808.649
70.00000 787.633