File: XRD/22-09-2025 Dep 2/XY Data/BTO_Mapping_Theta2Theta_22-09-2025_001_67_9-010_-4-339.xy
20.00000 579.765
20.17000 568.511
20.34000 548.936
20.51000 558.222
20.68000 568.096
20.85000 551.724
21.02000 565.255
21.19000 551.242
21.36000 550.427
21.53000 559.077
21.70000 577.062
21.87000 650.017
22.04000 791.544
22.21000 747.652
22.38000 613.161
22.55000 565.503
22.72000 535.321
22.89000 536.675
23.06000 525.688
23.23000 518.559
23.40000 525.823
23.57000 509.161
23.74000 507.387
23.91000 529.222
24.08000 511.099
24.25000 516.503
24.42000 516.698
24.59000 501.576
24.76000 480.987
24.93000 471.915
25.10000 473.522
25.27000 481.095
25.44000 480.445
25.61000 482.176
25.78000 478.793
25.95000 466.876
26.12000 475.348
26.29000 463.522
26.46000 441.544
26.63000 458.750
26.80000 468.503
26.97000 434.109
27.14000 433.942
27.31000 451.977
27.48000 447.167
27.65000 443.839
27.82000 431.178
27.99000 436.923
28.16000 433.232
28.33000 436.845
28.50000 428.241
28.67000 429.343
28.84000 444.167
29.01000 429.698
29.18000 420.889
29.35000 414.782
29.52000 423.686
29.69000 444.151
29.86000 436.717
30.03000 453.503
30.20000 440.300
30.37000 442.103
30.54000 450.161
30.71000 470.314
30.88000 518.886
31.05000 724.391
31.22000 1756.208
31.39000 3378.287
31.56000 2052.108
31.73000 828.248
31.90000 530.957
32.07000 466.630
32.24000 424.879
32.41000 415.644
32.58000 391.362
32.75000 373.693
32.92000 425.241
33.09000 387.973
33.26000 362.660
33.43000 371.843
33.60000 343.820
33.77000 333.806
33.94000 344.675
34.11000 354.165
34.28000 343.394
34.45000 322.420
34.62000 322.838
34.79000 342.448
34.96000 339.968
35.13000 315.033
35.30000 322.667
35.47000 309.360
35.64000 299.665
35.81000 308.943
35.98000 308.501
36.15000 301.970
36.32000 311.427
36.49000 292.327
36.66000 299.129
36.83000 307.733
37.00000 308.111
37.17000 315.627
37.34000 305.041
37.51000 284.975
37.68000 291.149
37.85000 288.740
38.02000 298.809
38.19000 306.452
38.36000 351.025
38.53000 553.688
38.70000 991.163
38.87000 786.398
39.04000 397.034
39.21000 317.765
39.38000 299.433
39.55000 274.032
39.72000 273.787
39.89000 282.779
40.06000 254.449
40.23000 270.741
40.40000 261.717
40.57000 259.053
40.74000 264.220
40.91000 243.179
41.08000 251.049
41.25000 246.456
41.42000 243.463
41.59000 239.623
41.76000 252.009
41.93000 237.587
42.10000 249.379
42.27000 231.520
42.44000 224.780
42.61000 240.174
42.78000 225.817
42.95000 233.732
43.12000 230.677
43.29000 237.467
43.46000 224.901
43.63000 224.075
43.80000 227.801
43.97000 223.609
44.14000 234.086
44.31000 240.347
44.48000 233.762
44.65000 249.973
44.82000 285.599
44.99000 371.591
45.16000 412.305
45.33000 344.599
45.50000 287.728
45.67000 258.346
45.84000 235.678
46.01000 231.659
46.18000 217.893
46.35000 214.294
46.52000 213.648
46.69000 191.195
46.86000 203.680
47.03000 192.730
47.20000 186.398
47.37000 199.219
47.54000 200.766
47.71000 193.069
47.88000 183.067
48.05000 185.832
48.22000 192.205
48.39000 192.974
48.56000 185.910
48.73000 180.808
48.90000 187.921
49.07000 179.446
49.24000 171.916
49.41000 184.186
49.58000 175.579
49.75000 174.964
49.92000 174.755
50.09000 184.430
50.26000 183.046
50.43000 178.295
50.60000 235.818
50.77000 251.091
50.94000 239.565
51.11000 201.817
51.28000 179.669
51.45000 166.904
51.62000 176.572
51.79000 156.601
51.96000 174.645
52.13000 150.283
52.30000 164.246
52.47000 159.531
52.64000 165.308
52.81000 165.649
52.98000 163.888
53.15000 145.353
53.32000 174.354
53.49000 172.733
53.66000 160.879
53.83000 161.209
54.00000 160.615
54.17000 151.468
54.34000 154.048
54.51000 155.308
54.68000 149.321
54.85000 149.899
55.02000 154.536
55.19000 159.017
55.36000 176.833
55.53000 199.528
55.70000 273.941
55.87000 455.145
56.04000 514.801
56.21000 364.909
56.38000 229.323
56.55000 193.507
56.72000 171.942
56.89000 153.607
57.06000 150.608
57.23000 143.194
57.40000 150.111
57.57000 140.073
57.74000 136.141
57.91000 137.389
58.08000 143.295
58.25000 136.071
58.42000 142.822
58.59000 139.246
58.76000 125.977
58.93000 131.235
59.10000 146.522
59.27000 137.686
59.44000 128.861
59.61000 129.881
59.78000 140.969
59.95000 135.905
60.12000 138.144
60.29000 132.720
60.46000 135.136
60.63000 142.442
60.80000 134.740
60.97000 130.188
61.14000 134.637
61.31000 139.620
61.48000 148.556
61.65000 299.054
61.82000 218.292
61.99000 150.756
62.16000 132.189
62.33000 143.072
62.50000 141.768
62.67000 144.232
62.84000 147.455
63.01000 159.733
63.18000 134.386
63.35000 148.080
63.52000 144.855
63.69000 155.621
63.86000 149.499
64.03000 161.825
64.20000 176.664
64.37000 162.977
64.54000 177.232
64.71000 179.817
64.88000 194.907
65.05000 195.618
65.22000 230.377
65.39000 324.999
65.56000 430.354
65.73000 722.049
65.90000 1254.634
66.07000 445.360
66.24000 342.628
66.41000 483.371
66.58000 363.238
66.75000 319.600
66.92000 343.423
67.09000 372.493
67.26000 395.128
67.43000 421.057
67.60000 464.369
67.77000 484.837
67.94000 548.161
68.11000 597.360
68.28000 647.716
68.45000 792.334
68.62000 1114.943
68.79000 2163.286
68.96000 14601.587
69.13000 69746.422
69.30000 41900.297
69.47000 10356.763
69.64000 1431.697
69.81000 923.952
69.98000 756.509
70.00000 728.000