File: XRD/22-09-2025 Dep 2/XY Data/BTO_Mapping_Theta2Theta_22-09-2025_001_34_-27-029_13-017.xy
20.00000 575.511
20.17000 559.478
20.34000 558.228
20.51000 586.300
20.68000 572.203
20.85000 557.188
21.02000 571.794
21.19000 567.046
21.36000 572.291
21.53000 581.273
21.70000 637.755
21.87000 794.036
22.04000 910.283
22.21000 722.835
22.38000 592.388
22.55000 561.385
22.72000 534.517
22.89000 525.081
23.06000 531.944
23.23000 510.925
23.40000 512.044
23.57000 510.507
23.74000 510.651
23.91000 491.900
24.08000 492.895
24.25000 497.492
24.42000 513.097
24.59000 502.512
24.76000 500.379
24.93000 484.132
25.10000 488.131
25.27000 476.579
25.44000 484.873
25.61000 485.993
25.78000 477.366
25.95000 487.766
26.12000 459.938
26.29000 464.624
26.46000 465.445
26.63000 449.523
26.80000 451.794
26.97000 455.554
27.14000 450.195
27.31000 436.656
27.48000 450.830
27.65000 436.115
27.82000 446.574
27.99000 437.196
28.16000 451.601
28.33000 432.818
28.50000 418.876
28.67000 440.189
28.84000 431.516
29.01000 405.669
29.18000 419.519
29.35000 416.083
29.52000 432.786
29.69000 412.794
29.86000 444.527
30.03000 476.877
30.20000 439.732
30.37000 439.844
30.54000 456.844
30.71000 441.387
30.88000 491.780
31.05000 871.053
31.22000 3006.321
31.39000 4142.667
31.56000 1766.350
31.73000 684.152
31.90000 481.374
32.07000 415.847
32.24000 399.282
32.41000 416.566
32.58000 403.230
32.75000 382.328
32.92000 414.857
33.09000 385.750
33.26000 360.282
33.43000 352.155
33.60000 362.617
33.77000 353.729
33.94000 351.780
34.11000 334.902
34.28000 341.516
34.45000 311.117
34.62000 326.177
34.79000 323.305
34.96000 318.117
35.13000 326.613
35.30000 304.014
35.47000 313.013
35.64000 312.602
35.81000 313.147
35.98000 313.858
36.15000 308.947
36.32000 305.613
36.49000 310.740
36.66000 317.376
36.83000 314.197
37.00000 308.630
37.17000 305.291
37.34000 320.764
37.51000 307.214
37.68000 304.036
37.85000 303.696
38.02000 334.435
38.19000 344.712
38.36000 435.049
38.53000 623.534
38.70000 665.965
38.87000 439.776
39.04000 345.963
39.21000 296.773
39.38000 270.878
39.55000 278.852
39.72000 284.507
39.89000 286.867
40.06000 271.786
40.23000 276.177
40.40000 281.691
40.57000 267.578
40.74000 271.400
40.91000 247.285
41.08000 252.075
41.25000 256.444
41.42000 257.490
41.59000 244.887
41.76000 240.888
41.93000 247.638
42.10000 248.630
42.27000 242.101
42.44000 246.187
42.61000 236.806
42.78000 246.093
42.95000 232.910
43.12000 243.921
43.29000 229.159
43.46000 215.493
43.63000 218.793
43.80000 239.804
43.97000 240.107
44.14000 227.951
44.31000 251.937
44.48000 274.526
44.65000 348.862
44.82000 489.262
44.99000 542.562
45.16000 411.096
45.33000 331.048
45.50000 293.271
45.67000 243.117
45.84000 237.386
46.01000 227.292
46.18000 227.679
46.35000 219.923
46.52000 200.399
46.69000 207.355
46.86000 209.065
47.03000 192.087
47.20000 196.597
47.37000 192.514
47.54000 191.223
47.71000 200.056
47.88000 181.529
48.05000 182.274
48.22000 183.147
48.39000 180.390
48.56000 196.425
48.73000 188.075
48.90000 179.604
49.07000 188.342
49.24000 173.911
49.41000 189.689
49.58000 180.118
49.75000 184.105
49.92000 180.683
50.09000 191.044
50.26000 200.093
50.43000 239.057
50.60000 276.180
50.77000 263.578
50.94000 234.984
51.11000 199.167
51.28000 186.230
51.45000 181.684
51.62000 177.015
51.79000 170.600
51.96000 169.204
52.13000 159.335
52.30000 161.069
52.47000 167.830
52.64000 176.779
52.81000 162.893
52.98000 178.180
53.15000 174.722
53.32000 172.987
53.49000 160.945
53.66000 163.705
53.83000 158.997
54.00000 163.543
54.17000 159.848
54.34000 165.882
54.51000 153.442
54.68000 167.651
54.85000 166.101
55.02000 171.327
55.19000 175.598
55.36000 230.063
55.53000 297.061
55.70000 482.185
55.87000 557.089
56.04000 397.924
56.21000 267.098
56.38000 209.481
56.55000 181.146
56.72000 167.417
56.89000 156.335
57.06000 147.301
57.23000 140.906
57.40000 157.885
57.57000 142.560
57.74000 143.505
57.91000 155.224
58.08000 144.157
58.25000 143.335
58.42000 139.229
58.59000 140.907
58.76000 136.848
58.93000 128.622
59.10000 124.396
59.27000 139.743
59.44000 144.452
59.61000 137.742
59.78000 135.688
59.95000 143.766
60.12000 136.352
60.29000 136.549
60.46000 130.364
60.63000 128.539
60.80000 139.724
60.97000 138.672
61.14000 144.555
61.31000 147.207
61.48000 160.774
61.65000 354.883
61.82000 232.914
61.99000 153.351
62.16000 143.248
62.33000 149.956
62.50000 142.066
62.67000 151.243
62.84000 145.948
63.01000 156.221
63.18000 156.565
63.35000 145.353
63.52000 150.383
63.69000 151.054
63.86000 157.658
64.03000 172.544
64.20000 162.621
64.37000 179.213
64.54000 169.360
64.71000 180.650
64.88000 203.132
65.05000 235.387
65.22000 311.272
65.39000 447.391
65.56000 474.488
65.73000 906.509
65.90000 1609.801
66.07000 477.332
66.24000 384.493
66.41000 572.141
66.58000 421.492
66.75000 361.545
66.92000 396.875
67.09000 402.746
67.26000 439.974
67.43000 490.917
67.60000 520.478
67.77000 580.252
67.94000 622.102
68.11000 694.944
68.28000 746.730
68.45000 917.177
68.62000 1365.361
68.79000 2833.411
68.96000 22731.416
69.13000 96998.164
69.30000 56527.945
69.47000 13234.440
69.64000 1727.958
69.81000 1119.631
69.98000 860.632
70.00000 845.708