File: XRD/22-09-2025 Dep 2/XY Data/BTO_Mapping_Theta2Theta_22-09-2025_001_14_18-705_23-455.xy
20.00000 567.019
20.17000 575.715
20.34000 557.983
20.51000 549.764
20.68000 563.240
20.85000 547.859
21.02000 555.677
21.19000 564.798
21.36000 542.631
21.53000 530.433
21.70000 578.042
21.87000 626.433
22.04000 722.889
22.21000 688.375
22.38000 612.051
22.55000 565.484
22.72000 526.252
22.89000 508.432
23.06000 530.645
23.23000 515.214
23.40000 499.484
23.57000 519.272
23.74000 513.327
23.91000 530.672
24.08000 514.362
24.25000 519.789
24.42000 490.046
24.59000 476.143
24.76000 486.436
24.93000 483.897
25.10000 474.212
25.27000 474.902
25.44000 488.575
25.61000 459.716
25.78000 439.966
25.95000 482.677
26.12000 461.706
26.29000 449.807
26.46000 449.157
26.63000 436.729
26.80000 447.896
26.97000 446.217
27.14000 433.426
27.31000 431.267
27.48000 444.235
27.65000 431.722
27.82000 423.433
27.99000 422.507
28.16000 431.096
28.33000 421.557
28.50000 437.311
28.67000 426.531
28.84000 417.000
29.01000 416.209
29.18000 411.909
29.35000 409.157
29.52000 410.135
29.69000 414.291
29.86000 415.493
30.03000 432.086
30.20000 427.637
30.37000 418.774
30.54000 442.452
30.71000 445.350
30.88000 488.520
31.05000 637.507
31.22000 1426.703
31.39000 2850.999
31.56000 1889.542
31.73000 751.789
31.90000 523.257
32.07000 434.103
32.24000 397.727
32.41000 395.576
32.58000 393.643
32.75000 370.101
32.92000 396.427
33.09000 371.694
33.26000 340.775
33.43000 358.890
33.60000 346.507
33.77000 333.555
33.94000 347.750
34.11000 349.763
34.28000 342.944
34.45000 336.000
34.62000 325.989
34.79000 321.533
34.96000 317.573
35.13000 310.856
35.30000 317.537
35.47000 311.562
35.64000 299.439
35.81000 301.130
35.98000 299.384
36.15000 298.766
36.32000 290.517
36.49000 296.582
36.66000 291.595
36.83000 286.052
37.00000 294.005
37.17000 303.627
37.34000 301.513
37.51000 283.663
37.68000 288.238
37.85000 291.534
38.02000 301.232
38.19000 302.441
38.36000 344.930
38.53000 509.026
38.70000 1013.049
38.87000 855.685
39.04000 405.788
39.21000 310.142
39.38000 295.086
39.55000 271.026
39.72000 267.053
39.89000 260.433
40.06000 256.463
40.23000 254.515
40.40000 263.186
40.57000 251.306
40.74000 239.938
40.91000 265.131
41.08000 246.944
41.25000 229.637
41.42000 242.995
41.59000 251.889
41.76000 242.861
41.93000 236.769
42.10000 240.138
42.27000 239.853
42.44000 239.555
42.61000 230.165
42.78000 236.428
42.95000 223.273
43.12000 237.291
43.29000 238.463
43.46000 223.192
43.63000 220.216
43.80000 216.533
43.97000 226.104
44.14000 241.484
44.31000 225.380
44.48000 238.423
44.65000 246.389
44.82000 267.002
44.99000 301.109
45.16000 334.394
45.33000 341.357
45.50000 284.733
45.67000 265.376
45.84000 234.451
46.01000 209.434
46.18000 201.250
46.35000 206.897
46.52000 204.345
46.69000 206.020
46.86000 220.445
47.03000 192.495
47.20000 202.637
47.37000 189.479
47.54000 193.925
47.71000 179.087
47.88000 189.413
48.05000 184.034
48.22000 189.371
48.39000 186.574
48.56000 185.757
48.73000 183.732
48.90000 172.616
49.07000 176.802
49.24000 182.723
49.41000 178.844
49.58000 181.342
49.75000 179.100
49.92000 167.432
50.09000 183.671
50.26000 174.530
50.43000 183.162
50.60000 227.661
50.77000 260.810
50.94000 207.310
51.11000 195.285
51.28000 176.440
51.45000 168.496
51.62000 177.965
51.79000 162.638
51.96000 168.203
52.13000 161.823
52.30000 163.071
52.47000 161.457
52.64000 153.433
52.81000 162.688
52.98000 165.894
53.15000 163.781
53.32000 147.570
53.49000 167.708
53.66000 165.650
53.83000 155.995
54.00000 161.437
54.17000 150.884
54.34000 159.377
54.51000 156.090
54.68000 143.193
54.85000 155.241
55.02000 153.686
55.19000 163.426
55.36000 155.885
55.53000 190.240
55.70000 255.616
55.87000 416.152
56.04000 511.919
56.21000 370.880
56.38000 242.932
56.55000 187.258
56.72000 159.951
56.89000 153.270
57.06000 148.159
57.23000 150.362
57.40000 140.232
57.57000 133.790
57.74000 151.183
57.91000 134.474
58.08000 136.867
58.25000 142.281
58.42000 142.361
58.59000 137.529
58.76000 138.162
58.93000 125.612
59.10000 125.740
59.27000 135.970
59.44000 139.848
59.61000 130.762
59.78000 134.017
59.95000 133.257
60.12000 136.681
60.29000 132.792
60.46000 135.898
60.63000 135.001
60.80000 132.038
60.97000 128.562
61.14000 131.575
61.31000 145.494
61.48000 156.451
61.65000 271.191
61.82000 188.559
61.99000 144.402
62.16000 149.093
62.33000 135.492
62.50000 148.706
62.67000 143.381
62.84000 141.637
63.01000 137.959
63.18000 145.201
63.35000 143.650
63.52000 151.336
63.69000 145.575
63.86000 160.020
64.03000 151.128
64.20000 155.691
64.37000 157.905
64.54000 165.027
64.71000 174.301
64.88000 180.841
65.05000 198.512
65.22000 225.526
65.39000 265.033
65.56000 388.108
65.73000 711.981
65.90000 1110.826
66.07000 367.750
66.24000 343.246
66.41000 461.006
66.58000 348.856
66.75000 317.322
66.92000 330.903
67.09000 361.789
67.26000 384.995
67.43000 401.177
67.60000 467.547
67.77000 475.571
67.94000 514.865
68.11000 562.102
68.28000 633.449
68.45000 738.685
68.62000 1071.846
68.79000 2021.761
68.96000 14360.399
69.13000 61523.301
69.30000 35392.102
69.47000 8160.752
69.64000 1276.362
69.81000 847.001
69.98000 716.405
70.00000 674.041