File: XRD/22-09-2025 Dep 2/XY Data/BTO_Mapping_Theta2Theta_22-09-2025_001_53_-4-450_-19-499.xy
20.00000 575.593
20.17000 563.434
20.34000 559.288
20.51000 560.050
20.68000 549.161
20.85000 548.854
21.02000 560.072
21.19000 537.701
21.36000 553.022
21.53000 549.493
21.70000 593.525
21.87000 708.050
22.04000 834.361
22.21000 776.323
22.38000 625.246
22.55000 567.432
22.72000 554.667
22.89000 552.185
23.06000 512.315
23.23000 506.912
23.40000 503.267
23.57000 500.078
23.74000 501.058
23.91000 499.042
24.08000 476.836
24.25000 507.204
24.42000 483.632
24.59000 504.629
24.76000 486.890
24.93000 473.183
25.10000 475.868
25.27000 459.368
25.44000 483.868
25.61000 481.480
25.78000 463.185
25.95000 479.662
26.12000 460.166
26.29000 447.825
26.46000 456.560
26.63000 448.456
26.80000 445.894
26.97000 462.428
27.14000 446.116
27.31000 446.399
27.48000 443.541
27.65000 421.827
27.82000 434.575
27.99000 430.731
28.16000 432.220
28.33000 439.279
28.50000 428.728
28.67000 423.498
28.84000 426.192
29.01000 427.858
29.18000 422.055
29.35000 403.635
29.52000 416.518
29.69000 426.723
29.86000 431.642
30.03000 450.206
30.20000 453.523
30.37000 419.844
30.54000 454.456
30.71000 461.474
30.88000 514.355
31.05000 686.402
31.22000 1712.047
31.39000 3423.758
31.56000 2226.790
31.73000 892.886
31.90000 547.604
32.07000 447.532
32.24000 417.459
32.41000 410.270
32.58000 396.940
32.75000 404.431
32.92000 452.773
33.09000 398.318
33.26000 355.147
33.43000 359.058
33.60000 355.777
33.77000 338.728
33.94000 349.618
34.11000 337.562
34.28000 330.475
34.45000 341.805
34.62000 334.783
34.79000 333.938
34.96000 338.962
35.13000 311.526
35.30000 314.761
35.47000 311.373
35.64000 318.698
35.81000 309.271
35.98000 315.237
36.15000 300.477
36.32000 312.094
36.49000 307.531
36.66000 302.438
36.83000 297.562
37.00000 309.340
37.17000 297.556
37.34000 305.469
37.51000 305.283
37.68000 307.015
37.85000 291.705
38.02000 302.348
38.19000 307.248
38.36000 363.603
38.53000 553.255
38.70000 938.949
38.87000 705.385
39.04000 392.461
39.21000 323.037
39.38000 291.627
39.55000 289.808
39.72000 260.311
39.89000 277.925
40.06000 265.714
40.23000 261.216
40.40000 248.184
40.57000 272.864
40.74000 250.328
40.91000 260.366
41.08000 250.566
41.25000 251.230
41.42000 248.340
41.59000 248.393
41.76000 247.286
41.93000 235.754
42.10000 233.631
42.27000 246.853
42.44000 225.242
42.61000 234.481
42.78000 238.758
42.95000 231.201
43.12000 231.015
43.29000 221.227
43.46000 218.534
43.63000 226.019
43.80000 224.637
43.97000 221.831
44.14000 219.565
44.31000 241.532
44.48000 239.766
44.65000 254.570
44.82000 320.270
44.99000 448.236
45.16000 439.113
45.33000 363.453
45.50000 293.634
45.67000 272.321
45.84000 252.164
46.01000 225.358
46.18000 205.715
46.35000 233.106
46.52000 195.989
46.69000 198.200
46.86000 197.808
47.03000 195.874
47.20000 195.814
47.37000 194.750
47.54000 183.034
47.71000 187.690
47.88000 185.632
48.05000 178.357
48.22000 182.681
48.39000 188.212
48.56000 182.005
48.73000 184.068
48.90000 176.566
49.07000 192.282
49.24000 178.767
49.41000 180.028
49.58000 164.282
49.75000 179.096
49.92000 171.395
50.09000 179.094
50.26000 183.468
50.43000 198.835
50.60000 250.924
50.77000 266.532
50.94000 237.112
51.11000 195.449
51.28000 188.054
51.45000 177.689
51.62000 167.074
51.79000 159.898
51.96000 174.617
52.13000 158.769
52.30000 163.664
52.47000 168.861
52.64000 164.609
52.81000 159.052
52.98000 159.459
53.15000 159.561
53.32000 159.115
53.49000 160.809
53.66000 156.859
53.83000 150.604
54.00000 159.229
54.17000 151.978
54.34000 165.649
54.51000 161.775
54.68000 166.390
54.85000 160.713
55.02000 144.355
55.19000 168.402
55.36000 174.996
55.53000 195.229
55.70000 306.457
55.87000 505.310
56.04000 525.665
56.21000 380.083
56.38000 261.698
56.55000 195.468
56.72000 169.274
56.89000 169.972
57.06000 151.201
57.23000 147.012
57.40000 142.760
57.57000 148.252
57.74000 139.546
57.91000 145.373
58.08000 150.500
58.25000 141.511
58.42000 150.382
58.59000 141.630
58.76000 135.418
58.93000 131.513
59.10000 142.363
59.27000 122.006
59.44000 139.138
59.61000 146.507
59.78000 133.703
59.95000 138.907
60.12000 136.017
60.29000 135.947
60.46000 131.097
60.63000 140.036
60.80000 139.909
60.97000 135.195
61.14000 140.328
61.31000 141.672
61.48000 146.546
61.65000 343.065
61.82000 228.192
61.99000 149.706
62.16000 147.948
62.33000 151.750
62.50000 152.705
62.67000 147.938
62.84000 142.698
63.01000 147.885
63.18000 148.279
63.35000 143.199
63.52000 140.241
63.69000 150.304
63.86000 166.471
64.03000 157.963
64.20000 159.956
64.37000 165.473
64.54000 169.759
64.71000 177.509
64.88000 185.830
65.05000 214.487
65.22000 228.441
65.39000 312.509
65.56000 418.505
65.73000 808.038
65.90000 1457.535
66.07000 479.767
66.24000 394.308
66.41000 535.459
66.58000 427.815
66.75000 348.904
66.92000 364.621
67.09000 388.385
67.26000 422.858
67.43000 450.406
67.60000 500.258
67.77000 520.900
67.94000 579.863
68.11000 635.767
68.28000 708.369
68.45000 855.591
68.62000 1262.348
68.79000 2561.880
68.96000 17092.992
69.13000 83554.227
69.30000 51935.824
69.47000 13787.423
69.64000 1669.503
69.81000 1016.203
69.98000 816.806
70.00000 794.685